Unit:(mV)
                     CH1         CH2
Frequency              ?  98.366 kHz
00001             480.00    -2320.00
00002             460.00    -2320.00
00003             500.00    -2400.00
00004             500.00    -2400.00
00005             520.00    -2400.00
00006             520.00    -2400.00
00007             520.00    -2480.00
00008             540.00    -2560.00
00009             540.00    -2560.00
00010             580.00    -2640.00
00011             580.00    -2720.00
00012             580.00    -2640.00
00013             580.00    -2720.00
00014             600.00    -2720.00
00015             600.00    -2800.00
00016             600.00    -2800.00
00017             620.00    -2800.00
00018             620.00    -2880.00
00019             640.00    -2880.00
00020             660.00    -2960.00
00021             660.00    -2960.00
00022             680.00    -3040.00
00023             680.00    -3040.00
00024             680.00    -2960.00
00025             680.00    -3120.00
00026             680.00    -3200.00
00027             700.00    -3120.00
00028             700.00    -3200.00
00029             720.00    -3200.00
00030             740.00    -3200.00
00031             760.00    -3280.00
00032             740.00    -3280.00
00033             760.00    -3360.00
00034             760.00    -3360.00
00035             780.00    -3360.00
00036             780.00    -3440.00
00037             780.00    -3440.00
00038             780.00    -3520.00
00039             820.00    -3520.00
00040             820.00    -3600.00
00041             820.00    -3600.00
00042             840.00    -3600.00
00043             840.00    -3600.00
00044             840.00    -3680.00
00045             840.00    -3680.00
00046             860.00    -3680.00
00047             860.00    -3760.00
00048             860.00    -3760.00
00049             900.00    -3840.00
00050             900.00    -3840.00
00051             900.00    -3840.00
00052             920.00    -3920.00
00053             900.00    -3920.00
00054             920.00    -4000.00
00055             920.00    -4000.00
00056             920.00    -4000.00
00057             940.00    -4000.00
00058             920.00    -4000.00
00059             980.00    -4080.00
00060             980.00    -4160.00
00061            1000.00    -4160.00
00062             980.00    -4160.00
00063             980.00    -4240.00
00064            1000.00    -4240.00
00065            1000.00    -4240.00
00066            1000.00    -4240.00
00067            1020.00    -4320.00
00068            1020.00    -4320.00
00069            1020.00    -4320.00
00070            1060.00    -4320.00
00071            1060.00    -4480.00
00072            1060.00    -4400.00
00073            1060.00    -4480.00
00074            1080.00    -4480.00
00075            1080.00    -4480.00
00076            1080.00    -4480.00
00077            1080.00    -4560.00
00078            1100.00    -4640.00
00079            1100.00    -4560.00
00080            1100.00    -4640.00
00081            1140.00    -4640.00
00082            1140.00    -4640.00
00083            1140.00    -4640.00
00084            1160.00    -4720.00
00085            1160.00    -4720.00
00086            1140.00    -4800.00
00087            1160.00    -4800.00
00088            1160.00    -4880.00
00089            1160.00    -4880.00
00090            1180.00    -4880.00
00091            1180.00    -4880.00
00092            1180.00    -4880.00
00093            1220.00    -4960.00
00094            1220.00    -4960.00
00095            1220.00    -4960.00
00096            1220.00    -4960.00
00097            1220.00    -4960.00
00098            1220.00    -5040.00
00099            1220.00    -5040.00
00100            1240.00    -5040.00
00101            1220.00    -5120.00
00102            1240.00    -5120.00
00103            1240.00    -5120.00
00104            1260.00    -5120.00
00105            1240.00    -5200.00
00106            1240.00    -5200.00
00107            1260.00    -5200.00
00108            1280.00    -5200.00
00109            1260.00    -5200.00
00110            1300.00    -5280.00
00111            1280.00    -5280.00
00112            1300.00    -5280.00
00113            1300.00    -5280.00
00114            1320.00    -5280.00
00115            1300.00    -5280.00
00116            1320.00    -5360.00
00117            1320.00    -5440.00
00118            1320.00    -5440.00
00119            1320.00    -5360.00
00120            1340.00    -5440.00
00121            1340.00    -5440.00
00122            1340.00    -5440.00
00123            1340.00    -5440.00
00124            1360.00    -5440.00
00125            1380.00    -5520.00
00126            1360.00    -5520.00
00127            1360.00    -5440.00
00128            1380.00    -5520.00
00129            1400.00    -5520.00
00130            1380.00    -5520.00
00131            1400.00    -5520.00
00132            1400.00    -5600.00
00133            1400.00    -5600.00
00134            1400.00    -5600.00
00135            1400.00    -5600.00
00136            1400.00    -5680.00
00137            1420.00    -5680.00
00138            1420.00    -5600.00
00139            1420.00    -5680.00
00140            1440.00    -5680.00
00141            1440.00    -5760.00
00142            1420.00    -5760.00
00143            1420.00    -5760.00
00144            1460.00    -5760.00
00145            1460.00    -5680.00
00146            1460.00    -5760.00
00147            1460.00    -5760.00
00148            1460.00    -5760.00
00149            1460.00    -5760.00
00150            1480.00    -5760.00
00151            1480.00    -5760.00
00152            1460.00    -5760.00
00153            1480.00    -5840.00
00154            1480.00    -5840.00
00155            1480.00    -5840.00
00156            1480.00    -5840.00
00157            1480.00    -5840.00
00158            1480.00    -5840.00
00159            1480.00    -5840.00
00160            1500.00    -5840.00
00161            1480.00    -5840.00
00162            1480.00    -5840.00
00163            1500.00    -5920.00
00164            1480.00    -5840.00
00165            1500.00    -5840.00
00166            1480.00    -5920.00
00167            1500.00    -5920.00
00168            1500.00    -5920.00
00169            1500.00    -5840.00
00170            1500.00    -5920.00
00171            1500.00    -5920.00
00172            1500.00    -5920.00
00173            1500.00    -5840.00
00174            1500.00    -5920.00
00175            1540.00    -5920.00
00176            1500.00    -5920.00
00177            1500.00    -5920.00
00178            1540.00    -5920.00
00179            1540.00    -5920.00
00180            1540.00    -5920.00
00181            1540.00    -5920.00
00182            1540.00    -6000.00
00183            1540.00    -5920.00
00184            1540.00    -5920.00
00185            1540.00    -5920.00
00186            1540.00    -5920.00
00187            1540.00    -5920.00
00188            1540.00    -5920.00
00189            1540.00    -5920.00
00190            1540.00    -5920.00
00191            1540.00    -6000.00
00192            1540.00    -5920.00
00193            1540.00    -5920.00
00194            1540.00    -5920.00
00195            1540.00    -5920.00
00196            1540.00    -5920.00
00197            1540.00    -5920.00
00198            1540.00    -5920.00
00199            1560.00    -5920.00
00200            1540.00    -5920.00
00201            1540.00    -5920.00
00202            1560.00    -5920.00
00203            1540.00    -5920.00
00204            1560.00    -5920.00
00205            1540.00    -5920.00
00206            1540.00    -5920.00
00207            1540.00    -5920.00
00208            1540.00    -5920.00
00209            1560.00    -5920.00
00210            1540.00    -5920.00
00211            1540.00    -5840.00
00212            1540.00    -5840.00
00213            1540.00    -5840.00
00214            1540.00    -5920.00
00215            1560.00    -5840.00
00216            1540.00    -5840.00
00217            1560.00    -5840.00
00218            1540.00    -5840.00
00219            1540.00    -5840.00
00220            1540.00    -5840.00
00221            1540.00    -5840.00
00222            1540.00    -5840.00
00223            1540.00    -5840.00
00224            1540.00    -5840.00
00225            1540.00    -5760.00
00226            1540.00    -5840.00
00227            1520.00    -5840.00
00228            1520.00    -5840.00
00229            1500.00    -5840.00
00230            1540.00    -5760.00
00231            1540.00    -5760.00
00232            1480.00    -5760.00
00233            1500.00    -5760.00
00234            1520.00    -5760.00
00235            1500.00    -5760.00
00236            1500.00    -5760.00
00237            1500.00    -5760.00
00238            1500.00    -5760.00
00239            1520.00    -5600.00
00240            1480.00    -5600.00
00241            1500.00    -5600.00
00242            1500.00    -5600.00
00243            1500.00    -5600.00
00244            1480.00    -5600.00
00245            1480.00    -5600.00
00246            1480.00    -5520.00
00247            1480.00    -5520.00
00248            1480.00    -5520.00
00249            1480.00    -5520.00
00250            1480.00    -5520.00
00251            1480.00    -5520.00
00252            1480.00    -5520.00
00253            1480.00    -5440.00
00254            1460.00    -5440.00
00255            1460.00    -5520.00
00256            1460.00    -5440.00
00257            1460.00    -5520.00
00258            1480.00    -5440.00
00259            1460.00    -5360.00
00260            1440.00    -5440.00
00261            1460.00    -5280.00
00262            1440.00    -5360.00
00263            1440.00    -5280.00
00264            1420.00    -5280.00
00265            1420.00    -5280.00
00266            1420.00    -5280.00
00267            1420.00    -5280.00
00268            1420.00    -5280.00
00269            1420.00    -5280.00
00270            1420.00    -5200.00
00271            1420.00    -5200.00
00272            1400.00    -5200.00
00273            1400.00    -5200.00
00274            1400.00    -5120.00
00275            1400.00    -5120.00
00276            1400.00    -5200.00
00277            1380.00    -5120.00
00278            1400.00    -5040.00
00279            1380.00    -5120.00
00280            1380.00    -5120.00
00281            1380.00    -5040.00
00282            1380.00    -4960.00
00283            1380.00    -4960.00
00284            1340.00    -4960.00
00285            1360.00    -4960.00
00286            1340.00    -4960.00
00287            1340.00    -4880.00
00288            1340.00    -4880.00
00289            1340.00    -4800.00
00290            1340.00    -4880.00
00291            1320.00    -4800.00
00292            1300.00    -4800.00
00293            1320.00    -4800.00
00294            1320.00    -4720.00
00295            1300.00    -4720.00
00296            1300.00    -4800.00
00297            1300.00    -4640.00
00298            1280.00    -4640.00
00299            1280.00    -4640.00
00300            1280.00    -4640.00
00301            1260.00    -4640.00
00302            1260.00    -4560.00
00303            1260.00    -4560.00
00304            1240.00    -4480.00
00305            1240.00    -4400.00
00306            1240.00    -4400.00
00307            1240.00    -4400.00
00308            1220.00    -4480.00
00309            1220.00    -4400.00
00310            1220.00    -4320.00
00311            1220.00    -4320.00
00312            1200.00    -4320.00
00313            1180.00    -4240.00
00314            1220.00    -4240.00
00315            1180.00    -4240.00
00316            1160.00    -4160.00
00317            1160.00    -4160.00
00318            1160.00    -4240.00
00319            1160.00    -4080.00
00320            1160.00    -4080.00
00321            1160.00    -4080.00
00322            1160.00    -4000.00
00323            1140.00    -4000.00
00324            1140.00    -4000.00
00325            1120.00    -3920.00
00326            1120.00    -3920.00
00327            1140.00    -3920.00
00328            1100.00    -3840.00
00329            1100.00    -3920.00
00330            1100.00    -3840.00
00331            1100.00    -3840.00
00332            1080.00    -3840.00
00333            1080.00    -3760.00
00334            1080.00    -3680.00
00335            1080.00    -3680.00
00336            1060.00    -3680.00
00337            1060.00    -3680.00
00338            1060.00    -3600.00
00339            1040.00    -3600.00
00340            1020.00    -3520.00
00341            1000.00    -3520.00
00342            1020.00    -3520.00
00343            1000.00    -3520.00
00344            1000.00    -3440.00
00345            1000.00    -3360.00
00346            1000.00    -3360.00
00347             980.00    -3280.00
00348             980.00    -3360.00
00349             980.00    -3280.00
00350             980.00    -3200.00
00351             960.00    -3200.00
00352             940.00    -3200.00
00353             940.00    -3200.00
00354             920.00    -3120.00
00355             920.00    -3120.00
00356             900.00    -3040.00
00357             900.00    -3040.00
00358             900.00    -2960.00
00359             900.00    -2960.00
00360             860.00    -2960.00
00361             860.00    -2960.00
00362             840.00    -2880.00
00363             840.00    -2800.00
00364             840.00    -2800.00
00365             820.00    -2720.00
00366             840.00    -2720.00
00367             820.00    -2720.00
00368             820.00    -2640.00
00369             780.00    -2640.00
00370             780.00    -2560.00
00371             780.00    -2560.00
00372             780.00    -2560.00
00373             780.00    -2560.00
00374             760.00    -2480.00
00375             740.00    -2400.00
00376             760.00    -2400.00
00377             740.00    -2320.00
00378             740.00    -2400.00
00379             740.00    -2320.00
00380             720.00    -2240.00
00381             680.00    -2240.00
00382             680.00    -2240.00
00383             680.00    -2240.00
00384             680.00    -2160.00
00385             660.00    -2080.00
00386             680.00    -2080.00
00387             660.00    -2000.00
00388             660.00    -2000.00
00389             660.00    -1920.00
00390             620.00    -1840.00
00391             620.00    -1920.00
00392             600.00    -1920.00
00393             620.00    -1760.00
00394             580.00    -1760.00
00395             580.00    -1760.00
00396             580.00    -1760.00
00397             580.00    -1680.00
00398             580.00    -1680.00
00399             560.00    -1600.00
00400             540.00    -1600.00
00401             520.00    -1600.00
00402             520.00    -1600.00
00403             520.00    -1440.00
00404             520.00    -1440.00
00405             520.00    -1440.00
00406             500.00    -1360.00
00407             480.00    -1360.00
00408             460.00    -1280.00
00409             460.00    -1280.00
00410             460.00    -1200.00
00411             440.00    -1200.00
00412             440.00    -1120.00
00413             420.00    -1120.00
00414             420.00    -1120.00
00415             420.00    -1040.00
00416             420.00    -1040.00
00417             380.00    -1040.00
00418             380.00     -960.00
00419             360.00     -880.00
00420             360.00     -880.00
00421             360.00     -880.00
00422             340.00     -800.00
00423             360.00     -720.00
00424             340.00     -720.00
00425             320.00     -720.00
00426             300.00     -720.00
00427             280.00     -640.00
00428             280.00     -560.00
00429             280.00     -480.00
00430             260.00     -480.00
00431             260.00     -480.00
00432             260.00     -400.00
00433             260.00     -320.00
00434             220.00     -320.00
00435             220.00     -320.00
00436             220.00     -320.00
00437             200.00     -160.00
00438             200.00     -240.00
00439             200.00     -160.00
00440             180.00     -160.00
00441             180.00      -80.00
00442             140.00      -80.00
00443             140.00        0.00
00444             120.00        0.00
00445             140.00        0.00
00446             120.00       80.00
00447             100.00       80.00
00448             100.00      160.00
00449             100.00      160.00
00450              60.00      240.00
00451              80.00      320.00
00452              40.00      320.00
00453              60.00      320.00
00454              40.00      320.00
00455              40.00      320.00
00456              40.00      480.00
00457              40.00      560.00
00458              20.00      560.00
00459             -20.00      480.00
00460             -40.00      560.00
00461               0.00      800.00
00462               0.00      800.00
00463             -60.00      560.00
00464             -60.00      800.00
00465             -40.00      880.00
00466             -60.00      800.00
00467             -60.00      800.00
00468             -60.00     1040.00
00469             -60.00      960.00
00470            -120.00      880.00
00471            -100.00     1040.00
00472            -100.00     1120.00
00473            -140.00     1040.00
00474            -140.00     1120.00
00475            -140.00     1200.00
00476            -180.00     1120.00
00477            -180.00     1200.00
00478            -180.00     1280.00
00479            -200.00     1280.00
00480            -200.00     1440.00
00481            -200.00     1360.00
00482            -220.00     1280.00
00483            -220.00     1440.00
00484            -220.00     1440.00
00485            -240.00     1520.00
00486            -280.00     1600.00
00487            -260.00     1600.00
00488            -280.00     1600.00
00489            -280.00     1680.00
00490            -280.00     1680.00
00491            -300.00     1760.00
00492            -300.00     1840.00
00493            -340.00     1760.00
00494            -360.00     1840.00
00495            -360.00     1840.00
00496            -360.00     1840.00
00497            -380.00     1920.00
00498            -380.00     1920.00
00499            -380.00     2000.00
00500            -380.00     2080.00
00501            -420.00     2160.00
00502            -420.00     2160.00
00503            -440.00     2160.00
00504            -440.00     2160.00
00505            -440.00     2240.00
00506            -460.00     2240.00
00507            -460.00     2400.00
00508            -460.00     2400.00
00509            -500.00     2400.00
00510            -500.00     2400.00
00511            -480.00     2400.00
00512            -520.00     2480.00
00513            -520.00     2480.00
00514            -520.00     2560.00
00515            -540.00     2560.00
00516            -540.00     2560.00
00517            -540.00     2720.00
00518            -540.00     2720.00
00519            -580.00     2720.00
00520            -580.00     2720.00
00521            -580.00     2800.00
00522            -600.00     2800.00
00523            -600.00     2880.00
00524            -600.00     2880.00
00525            -620.00     2960.00
00526            -620.00     2880.00
00527            -640.00     3040.00
00528            -660.00     3040.00
00529            -660.00     3040.00
00530            -660.00     3040.00
00531            -680.00     3120.00
00532            -680.00     3120.00
00533            -680.00     3200.00
00534            -700.00     3200.00
00535            -700.00     3200.00
00536            -720.00     3280.00
00537            -700.00     3280.00
00538            -720.00     3360.00
00539            -740.00     3360.00
00540            -740.00     3440.00
00541            -760.00     3440.00
00542            -760.00     3440.00
00543            -760.00     3440.00
00544            -760.00     3520.00
00545            -780.00     3520.00
00546            -820.00     3600.00
00547            -780.00     3680.00
00548            -820.00     3680.00
00549            -820.00     3680.00
00550            -820.00     3680.00
00551            -840.00     3680.00
00552            -860.00     3680.00
00553            -840.00     3760.00
00554            -860.00     3840.00
00555            -860.00     3840.00
00556            -880.00     3840.00
00557            -860.00     3920.00
00558            -920.00     3840.00
00559            -920.00     3920.00
00560            -920.00     4000.00
00561            -920.00     4000.00
00562            -940.00     4080.00
00563            -920.00     4080.00
00564            -940.00     4160.00
00565            -940.00     4080.00
00566            -940.00     4160.00
00567            -980.00     4160.00
00568            -980.00     4240.00
00569           -1000.00     4240.00
00570           -1020.00     4240.00
00571           -1000.00     4320.00
00572           -1000.00     4320.00
00573           -1000.00     4400.00
00574           -1020.00     4400.00
00575           -1020.00     4400.00
00576           -1020.00     4400.00
00577           -1040.00     4480.00
00578           -1060.00     4480.00
00579           -1060.00     4480.00
00580           -1060.00     4480.00
00581           -1080.00     4480.00
00582           -1080.00     4480.00
00583           -1080.00     4640.00
00584           -1080.00     4560.00
00585           -1100.00     4640.00
00586           -1080.00     4640.00
00587           -1100.00     4720.00
00588           -1100.00     4720.00
00589           -1120.00     4720.00
00590           -1140.00     4800.00
00591           -1140.00     4800.00
00592           -1140.00     4800.00
00593           -1140.00     4800.00
00594           -1160.00     4880.00
00595           -1160.00     4880.00
00596           -1180.00     4960.00
00597           -1160.00     4880.00
00598           -1180.00     4960.00
00599           -1180.00     4960.00
00600           -1180.00     5040.00
00601           -1220.00     4960.00
00602           -1220.00     5040.00
00603           -1220.00     5040.00
00604           -1220.00     5040.00
00605           -1220.00     5040.00
00606           -1220.00     5120.00
00607           -1240.00     5120.00
00608           -1240.00     5120.00
00609           -1240.00     5200.00
00610           -1260.00     5200.00
00611           -1240.00     5280.00
00612           -1260.00     5200.00
00613           -1260.00     5200.00
00614           -1260.00     5280.00
00615           -1280.00     5360.00
00616           -1260.00     5280.00
00617           -1300.00     5280.00
00618           -1300.00     5280.00
00619           -1300.00     5360.00
00620           -1320.00     5360.00
00621           -1300.00     5440.00
00622           -1320.00     5440.00
00623           -1340.00     5440.00
00624           -1340.00     5440.00
00625           -1340.00     5440.00
00626           -1340.00     5440.00
00627           -1340.00     5440.00
00628           -1340.00     5520.00
00629           -1340.00     5520.00
00630           -1360.00     5520.00
00631           -1340.00     5600.00
00632           -1380.00     5600.00
00633           -1360.00     5600.00
00634           -1380.00     5600.00
00635           -1380.00     5600.00
00636           -1380.00     5600.00
00637           -1400.00     5680.00
00638           -1400.00     5600.00
00639           -1400.00     5680.00
00640           -1420.00     5680.00
00641           -1400.00     5840.00
00642           -1400.00     5680.00
00643           -1420.00     5680.00
00644           -1420.00     5760.00
00645           -1420.00     5840.00
00646           -1400.00     5760.00
00647           -1440.00     5760.00
00648           -1420.00     5760.00
00649           -1420.00     5840.00
00650           -1420.00     5840.00
00651           -1440.00     5760.00
00652           -1420.00     5840.00
00653           -1460.00     5840.00
00654           -1460.00     5840.00
00655           -1460.00     5840.00
00656           -1460.00     5840.00
00657           -1460.00     5840.00
00658           -1460.00     5920.00
00659           -1460.00     5920.00
00660           -1460.00     5920.00
00661           -1480.00     5920.00
00662           -1480.00     5920.00
00663           -1480.00     5920.00
00664           -1480.00     5920.00
00665           -1480.00     5920.00
00666           -1480.00     5920.00
00667           -1480.00     5920.00
00668           -1500.00     5920.00
00669           -1500.00     6000.00
00670           -1500.00     5920.00
00671           -1500.00     6000.00
00672           -1500.00     5920.00
00673           -1500.00     6000.00
00674           -1500.00     6000.00
00675           -1500.00     6080.00
00676           -1500.00     6000.00
00677           -1500.00     6000.00
00678           -1500.00     6000.00
00679           -1500.00     6000.00
00680           -1500.00     6000.00
00681           -1500.00     6000.00
00682           -1520.00     6000.00
00683           -1500.00     6080.00
00684           -1540.00     6000.00
00685           -1520.00     6080.00
00686           -1540.00     6000.00
00687           -1540.00     6000.00
00688           -1540.00     6080.00
00689           -1540.00     6080.00
00690           -1540.00     6080.00
00691           -1540.00     6080.00
00692           -1560.00     6080.00
00693           -1540.00     6000.00
00694           -1540.00     6000.00
00695           -1540.00     6000.00
00696           -1540.00     6000.00
00697           -1560.00     6080.00
00698           -1540.00     6000.00
00699           -1560.00     6080.00
00700           -1540.00     6000.00
00701           -1540.00     6000.00
00702           -1560.00     6080.00
00703           -1560.00     6000.00
00704           -1560.00     6000.00
00705           -1560.00     6000.00
00706           -1560.00     6000.00
00707           -1560.00     6000.00
00708           -1560.00     6000.00
00709           -1560.00     6000.00
00710           -1560.00     6000.00
00711           -1560.00     6000.00
00712           -1560.00     6000.00
00713           -1560.00     6080.00
00714           -1540.00     6000.00
00715           -1540.00     6000.00
00716           -1540.00     6080.00
00717           -1540.00     6000.00
00718           -1540.00     6000.00
00719           -1560.00     6000.00
00720           -1540.00     6000.00
00721           -1560.00     6000.00
00722           -1540.00     5920.00
00723           -1540.00     6000.00
00724           -1560.00     5920.00
00725           -1540.00     6000.00
00726           -1540.00     5920.00
00727           -1540.00     5920.00
00728           -1540.00     6000.00
00729           -1500.00     5920.00
00730           -1540.00     5920.00
00731           -1500.00     5920.00
00732           -1540.00     5920.00
00733           -1540.00     5920.00
00734           -1500.00     5920.00
00735           -1560.00     5920.00
00736           -1540.00     5920.00
00737           -1500.00     5920.00
00738           -1500.00     5920.00
00739           -1500.00     5920.00
00740           -1500.00     5920.00
00741           -1500.00     5840.00
00742           -1540.00     5840.00
00743           -1520.00     5840.00
00744           -1500.00     5840.00
00745           -1500.00     5760.00
00746           -1500.00     5840.00
00747           -1500.00     5760.00
00748           -1500.00     5840.00
00749           -1500.00     5760.00
00750           -1500.00     5760.00
00751           -1500.00     5680.00
00752           -1500.00     5760.00
00753           -1500.00     5680.00
00754           -1500.00     5680.00
00755           -1500.00     5680.00
00756           -1500.00     5600.00
00757           -1480.00     5680.00
00758           -1480.00     5600.00
00759           -1500.00     5600.00
00760           -1480.00     5600.00
00761           -1480.00     5600.00
00762           -1480.00     5600.00
00763           -1480.00     5600.00
00764           -1480.00     5520.00
00765           -1480.00     5600.00
00766           -1480.00     5520.00
00767           -1460.00     5520.00
00768           -1460.00     5440.00
00769           -1460.00     5440.00
00770           -1460.00     5440.00
00771           -1420.00     5440.00
00772           -1460.00     5440.00
00773           -1460.00     5360.00
00774           -1420.00     5440.00
00775           -1420.00     5360.00
00776           -1420.00     5360.00
00777           -1420.00     5360.00
00778           -1400.00     5280.00
00779           -1420.00     5280.00
00780           -1400.00     5280.00
00781           -1400.00     5280.00
00782           -1400.00     5280.00
00783           -1400.00     5280.00
00784           -1400.00     5280.00
00785           -1400.00     5200.00
00786           -1400.00     5120.00
00787           -1400.00     5120.00
00788           -1380.00     5120.00
00789           -1380.00     5120.00
00790           -1340.00     5120.00
00791           -1340.00     5040.00
00792           -1380.00     5040.00
00793           -1360.00     5040.00
00794           -1340.00     5040.00
00795           -1340.00     5040.00
00796           -1340.00     4960.00
00797           -1340.00     4960.00
00798           -1340.00     4960.00
00799           -1320.00     4960.00
00800           -1320.00     4880.00
00801           -1320.00     4880.00
00802           -1320.00     4800.00
00803           -1300.00     4800.00
00804           -1320.00     4800.00
00805           -1300.00     4720.00
00806           -1300.00     4800.00
00807           -1300.00     4720.00
00808           -1260.00     4640.00
00809           -1260.00     4720.00
00810           -1260.00     4640.00
00811           -1260.00     4640.00
00812           -1260.00     4640.00
00813           -1240.00     4560.00
00814           -1240.00     4640.00
00815           -1240.00     4480.00
00816           -1240.00     4480.00
00817           -1240.00     4480.00
00818           -1240.00     4480.00
00819           -1220.00     4400.00
00820           -1240.00     4400.00
00821           -1220.00     4400.00
00822           -1220.00     4400.00
00823           -1220.00     4320.00
00824           -1180.00     4320.00
00825           -1180.00     4240.00
00826           -1200.00     4320.00
00827           -1180.00     4240.00
00828           -1180.00     4160.00
00829           -1160.00     4160.00
00830           -1160.00     4080.00
00831           -1160.00     4080.00
00832           -1140.00     4080.00
00833           -1140.00     4080.00
00834           -1140.00     4080.00
00835           -1140.00     4000.00
00836           -1140.00     4000.00
00837           -1100.00     4000.00
00838           -1100.00     3920.00
00839           -1100.00     3920.00
00840           -1100.00     3840.00
00841           -1080.00     3840.00
00842           -1080.00     3840.00
00843           -1080.00     3840.00
00844           -1060.00     3760.00
00845           -1060.00     3760.00
00846           -1040.00     3680.00
00847           -1060.00     3680.00
00848           -1020.00     3680.00
00849           -1020.00     3680.00
00850           -1020.00     3520.00
00851           -1020.00     3520.00
00852           -1020.00     3520.00
00853           -1000.00     3520.00
00854           -1000.00     3440.00
00855            -980.00     3440.00
00856            -980.00     3440.00
00857            -960.00     3440.00
00858            -940.00     3360.00
00859            -940.00     3360.00
00860            -940.00     3280.00
00861            -920.00     3200.00
00862            -920.00     3280.00
00863            -920.00     3200.00
00864            -900.00     3200.00
00865            -920.00     3120.00
00866            -900.00     3120.00
00867            -880.00     3120.00
00868            -900.00     3040.00
00869            -860.00     3040.00
00870            -860.00     2960.00
00871            -860.00     3040.00
00872            -840.00     2880.00
00873            -840.00     2880.00
00874            -840.00     2880.00
00875            -840.00     2800.00
00876            -820.00     2720.00
00877            -820.00     2720.00
00878            -820.00     2720.00
00879            -780.00     2720.00
00880            -780.00     2720.00
00881            -780.00     2560.00
00882            -780.00     2560.00
00883            -780.00     2560.00
00884            -760.00     2480.00
00885            -760.00     2480.00
00886            -760.00     2480.00
00887            -740.00     2400.00
00888            -740.00     2400.00
00889            -720.00     2400.00
00890            -700.00     2320.00
00891            -700.00     2240.00
00892            -700.00     2240.00
00893            -700.00     2240.00
00894            -680.00     2160.00
00895            -680.00     2160.00
00896            -680.00     2080.00
00897            -660.00     2080.00
00898            -660.00     2000.00
00899            -620.00     2000.00
00900            -620.00     1920.00
00901            -620.00     1840.00
00902            -600.00     1840.00
00903            -600.00     1840.00
00904            -600.00     1840.00
00905            -580.00     1760.00
00906            -580.00     1760.00
00907            -580.00     1760.00
00908            -560.00     1680.00
00909            -520.00     1600.00
00910            -540.00     1600.00
00911            -520.00     1600.00
00912            -500.00     1520.00
00913            -500.00     1440.00
00914            -500.00     1520.00
00915            -500.00     1440.00
00916            -480.00     1360.00
00917            -460.00     1360.00
00918            -460.00     1280.00
00919            -440.00     1280.00
00920            -460.00     1280.00
00921            -440.00     1200.00
00922            -420.00     1200.00
00923            -440.00     1200.00
00924            -380.00     1120.00
00925            -380.00     1040.00
00926            -380.00     1120.00
00927            -380.00      960.00
00928            -380.00      960.00
00929            -360.00      960.00
00930            -340.00      880.00
00931            -340.00      880.00
00932            -340.00      800.00
00933            -300.00      800.00
00934            -300.00      800.00
00935            -300.00      720.00
00936            -300.00      640.00
00937            -280.00      720.00
00938            -280.00      560.00
00939            -280.00      560.00
00940            -260.00      480.00
00941            -260.00      480.00
00942            -220.00      400.00
00943            -240.00      400.00
00944            -220.00      320.00
00945            -220.00      320.00
00946            -200.00      320.00
00947            -200.00      240.00
00948            -200.00      240.00
00949            -200.00      160.00
00950            -180.00      160.00
00951            -180.00      160.00
00952            -140.00       80.00
00953            -140.00       80.00
00954            -120.00        0.00
00955            -120.00        0.00
00956            -120.00      -80.00
00957            -120.00      -80.00
00958            -100.00      -80.00
00959            -100.00     -160.00
00960             -80.00     -160.00
00961            -100.00     -320.00
00962             -60.00     -320.00
00963             -40.00     -320.00
00964             -40.00     -320.00
00965             -40.00     -320.00
00966             -20.00     -320.00
00967             -20.00     -480.00
00968             -40.00     -640.00
00969             -40.00     -640.00
00970              40.00     -480.00
00971              40.00     -560.00
00972              20.00     -800.00
00973              20.00     -720.00
00974              60.00     -640.00
00975              40.00     -800.00
00976              60.00     -880.00
00977              60.00     -720.00
00978             100.00     -880.00
00979              60.00     -960.00
00980             120.00     -960.00
00981             120.00     -960.00
00982             120.00    -1040.00
00983             140.00     -960.00
00984             180.00    -1120.00
00985             160.00    -1200.00
00986             140.00    -1200.00
00987             200.00    -1120.00
00988             200.00    -1280.00
00989             200.00    -1280.00
00990             220.00    -1280.00
00991             220.00    -1360.00
00992             220.00    -1360.00
00993             260.00    -1440.00
00994             260.00    -1440.00
00995             260.00    -1440.00
00996             280.00    -1520.00
00997             260.00    -1600.00
00998             280.00    -1600.00
00999             300.00    -1680.00
01000             280.00    -1680.00
01001             340.00    -1680.00
01002             340.00    -1680.00
01003             340.00    -1760.00
01004             360.00    -1760.00
01005             360.00    -1840.00
01006             360.00    -1920.00
01007             360.00    -1840.00
01008             380.00    -2000.00
01009             400.00    -1920.00
01010             400.00    -2000.00
01011             420.00    -2080.00
01012             420.00    -2080.00
01013             440.00    -2080.00
01014             420.00    -2160.00
01015             440.00    -2240.00
01016             440.00    -2320.00
01017             460.00    -2240.00
01018             460.00    -2320.00
01019             500.00    -2320.00
01020             480.00    -2400.00
01021             500.00    -2400.00
01022             520.00    -2400.00
01023             520.00    -2480.00
01024             520.00    -2560.00
01025             540.00    -2560.00
01026             540.00    -2560.00
01027             540.00    -2640.00
01028             580.00    -2640.00
01029             580.00    -2720.00
01030             580.00    -2720.00
01031             600.00    -2720.00
01032             580.00    -2720.00
01033             600.00    -2800.00
01034             620.00    -2880.00
01035             600.00    -2880.00
01036             620.00    -2880.00
01037             660.00    -2960.00
01038             660.00    -2960.00
01039             660.00    -3040.00
01040             680.00    -3040.00
01041             680.00    -3040.00
01042             680.00    -3120.00
01043             700.00    -3200.00
01044             680.00    -3200.00
01045             700.00    -3200.00
01046             720.00    -3200.00
01047             740.00    -3280.00
01048             740.00    -3280.00
01049             760.00    -3360.00
01050             760.00    -3360.00
01051             760.00    -3440.00
01052             780.00    -3360.00
01053             780.00    -3520.00
01054             800.00    -3440.00
01055             820.00    -3600.00
01056             820.00    -3520.00
01057             820.00    -3600.00
01058             820.00    -3680.00
01059             840.00    -3600.00
01060             860.00    -3600.00
01061             840.00    -3680.00
01062             860.00    -3680.00
01063             860.00    -3680.00
01064             880.00    -3760.00
01065             900.00    -3840.00
01066             900.00    -3840.00
01067             920.00    -3840.00
01068             900.00    -3920.00
01069             920.00    -3920.00
01070             940.00    -3920.00
01071             920.00    -4000.00
01072             920.00    -4000.00
01073             940.00    -4000.00
01074             960.00    -4000.00
01075             980.00    -4000.00
01076             980.00    -4080.00
01077             980.00    -4160.00
01078             980.00    -4160.00
01079            1000.00    -4160.00
01080            1000.00    -4240.00
01081            1000.00    -4240.00
01082            1000.00    -4240.00
01083            1020.00    -4320.00
01084            1000.00    -4320.00
01085            1020.00    -4320.00
01086            1040.00    -4320.00
01087            1060.00    -4400.00
01088            1060.00    -4320.00
01089            1060.00    -4480.00
01090            1080.00    -4480.00
01091            1060.00    -4480.00
01092            1060.00    -4560.00
01093            1080.00    -4400.00
01094            1080.00    -4560.00
01095            1100.00    -4560.00
01096            1100.00    -4640.00
01097            1120.00    -4640.00
01098            1140.00    -4640.00
01099            1100.00    -4640.00
01100            1140.00    -4720.00
01101            1140.00    -4640.00
01102            1140.00    -4720.00
01103            1160.00    -4800.00
01104            1160.00    -4800.00
01105            1160.00    -4880.00
01106            1180.00    -4880.00
01107            1160.00    -4800.00
01108            1180.00    -4880.00
01109            1180.00    -4880.00
01110            1200.00    -4960.00
01111            1220.00    -4960.00
01112            1220.00    -4960.00
01113            1220.00    -4960.00
01114            1220.00    -4960.00
01115            1240.00    -5040.00
01116            1220.00    -4960.00
01117            1240.00    -5040.00
01118            1260.00    -5120.00
01119            1240.00    -5120.00
01120            1260.00    -5200.00
01121            1260.00    -5120.00
01122            1260.00    -5120.00
01123            1260.00    -5200.00
01124            1300.00    -5200.00
01125            1300.00    -5200.00
01126            1300.00    -5280.00
01127            1320.00    -5200.00
01128            1300.00    -5280.00
01129            1320.00    -5280.00
01130            1300.00    -5360.00
01131            1320.00    -5280.00
01132            1320.00    -5280.00
01133            1320.00    -5360.00
01134            1340.00    -5360.00
01135            1320.00    -5360.00
01136            1340.00    -5360.00
01137            1340.00    -5440.00
01138            1340.00    -5440.00
01139            1380.00    -5520.00
01140            1380.00    -5440.00
01141            1360.00    -5520.00
01142            1380.00    -5440.00
01143            1340.00    -5520.00
01144            1380.00    -5520.00
01145            1380.00    -5520.00
01146            1380.00    -5600.00
01147            1400.00    -5600.00
01148            1400.00    -5600.00
01149            1380.00    -5600.00
01150            1400.00    -5600.00
01151            1400.00    -5600.00
01152            1400.00    -5600.00
01153            1400.00    -5680.00
01154            1400.00    -5600.00
01155            1400.00    -5680.00
01156            1420.00    -5680.00
01157            1420.00    -5680.00
01158            1400.00    -5760.00
01159            1420.00    -5760.00
01160            1420.00    -5760.00
01161            1420.00    -5760.00
01162            1460.00    -5760.00
01163            1460.00    -5760.00
01164            1420.00    -5760.00
01165            1460.00    -5760.00
01166            1460.00    -5760.00
01167            1460.00    -5840.00
01168            1480.00    -5840.00
01169            1480.00    -5760.00
01170            1480.00    -5760.00
01171            1480.00    -5840.00
01172            1480.00    -5840.00
01173            1480.00    -5920.00
01174            1480.00    -5840.00
01175            1480.00    -5920.00
01176            1480.00    -5840.00
01177            1480.00    -5920.00
01178            1480.00    -5840.00
01179            1500.00    -5840.00
01180            1500.00    -5920.00
01181            1500.00    -5840.00
01182            1500.00    -5840.00
01183            1500.00    -5920.00
01184            1500.00    -5840.00
01185            1500.00    -5920.00
01186            1520.00    -5920.00
01187            1500.00    -5920.00
01188            1520.00    -5920.00
01189            1540.00    -5920.00
01190            1540.00    -5920.00
01191            1540.00    -5920.00
01192            1520.00    -5920.00
01193            1540.00    -5920.00
01194            1540.00    -5920.00
01195            1540.00    -5920.00
01196            1540.00    -5920.00
01197            1540.00    -5920.00
01198            1540.00    -5920.00
01199            1520.00    -5920.00
01200            1540.00    -5920.00
01201            1540.00    -5920.00
01202            1540.00    -5920.00
01203            1540.00    -5920.00
01204            1540.00    -5920.00
01205            1540.00    -5920.00
01206            1540.00    -5920.00
01207            1540.00    -5920.00
01208            1520.00    -5920.00
01209            1540.00    -5920.00
01210            1540.00    -5920.00
01211            1540.00    -6000.00
01212            1540.00    -5920.00
01213            1540.00    -6000.00
01214            1520.00    -5920.00
01215            1540.00    -5920.00
01216            1540.00    -5920.00
01217            1540.00    -5920.00
01218            1540.00    -5920.00
01219            1540.00    -5920.00
01220            1540.00    -5920.00
01221            1540.00    -5920.00
01222            1540.00    -5840.00
01223            1540.00    -5920.00
01224            1540.00    -5920.00
01225            1540.00    -5920.00
01226            1540.00    -5920.00
01227            1540.00    -5920.00
01228            1540.00    -5920.00
01229            1540.00    -5920.00
01230            1540.00    -5920.00
01231            1540.00    -5920.00
01232            1540.00    -5840.00
01233            1540.00    -5920.00
01234            1540.00    -5920.00
01235            1540.00    -5920.00
01236            1540.00    -5840.00
01237            1540.00    -5840.00
01238            1540.00    -5840.00
01239            1540.00    -5840.00
01240            1540.00    -5840.00
01241            1540.00    -5840.00
01242            1540.00    -5840.00
01243            1540.00    -5840.00
01244            1540.00    -5760.00
01245            1520.00    -5840.00
01246            1540.00    -5760.00
01247            1540.00    -5760.00
01248            1540.00    -5760.00
01249            1500.00    -5760.00
01250            1540.00    -5760.00
01251            1500.00    -5760.00
01252            1540.00    -5760.00
01253            1540.00    -5680.00
01254            1540.00    -5760.00
01255            1520.00    -5680.00
01256            1500.00    -5680.00
01257            1500.00    -5600.00
01258            1500.00    -5680.00
01259            1500.00    -5600.00
01260            1500.00    -5600.00
01261            1500.00    -5600.00
01262            1500.00    -5600.00
01263            1500.00    -5600.00
01264            1480.00    -5600.00
01265            1500.00    -5600.00
01266            1480.00    -5600.00
01267            1480.00    -5520.00
01268            1480.00    -5440.00
01269            1480.00    -5520.00
01270            1480.00    -5520.00
01271            1480.00    -5440.00
01272            1480.00    -5440.00
01273            1460.00    -5440.00
01274            1460.00    -5440.00
01275            1460.00    -5440.00
01276            1460.00    -5360.00
01277            1440.00    -5360.00
01278            1460.00    -5280.00
01279            1440.00    -5280.00
01280            1420.00    -5280.00
01281            1440.00    -5280.00
01282            1420.00    -5280.00
01283            1420.00    -5280.00
01284            1400.00    -5360.00
01285            1420.00    -5280.00
01286            1400.00    -5200.00
01287            1420.00    -5200.00
01288            1400.00    -5200.00
01289            1400.00    -5200.00
01290            1400.00    -5200.00
01291            1400.00    -5120.00
01292            1380.00    -5120.00
01293            1380.00    -5120.00
01294            1380.00    -5120.00
01295            1380.00    -5120.00
01296            1380.00    -5120.00
01297            1380.00    -5040.00
01298            1360.00    -5040.00
01299            1380.00    -4960.00
01300            1380.00    -4960.00
01301            1340.00    -4960.00
01302            1360.00    -4960.00
01303            1360.00    -4880.00
01304            1320.00    -4960.00
01305            1320.00    -4880.00
01306            1320.00    -4880.00
01307            1320.00    -4800.00
01308            1320.00    -4800.00
01309            1320.00    -4880.00
01310            1320.00    -4720.00
01311            1300.00    -4720.00
01312            1320.00    -4800.00
01313            1300.00    -4640.00
01314            1300.00    -4640.00
01315            1300.00    -4640.00
01316            1300.00    -4640.00
01317            1300.00    -4640.00
01318            1280.00    -4560.00
01319            1280.00    -4480.00
01320            1240.00    -4560.00
01321            1260.00    -4400.00
01322            1240.00    -4480.00
01323            1260.00    -4480.00
01324            1240.00    -4400.00
01325            1240.00    -4320.00
01326            1220.00    -4320.00
01327            1220.00    -4320.00
01328            1220.00    -4320.00
01329            1220.00    -4320.00
01330            1220.00    -4240.00
01331            1180.00    -4320.00
01332            1220.00    -4240.00
01333            1180.00    -4160.00
01334            1200.00    -4160.00
01335            1180.00    -4160.00
01336            1160.00    -4160.00
01337            1160.00    -4080.00
01338            1160.00    -4000.00
01339            1140.00    -4000.00
01340            1140.00    -4000.00
01341            1140.00    -4000.00
01342            1120.00    -3920.00
01343            1140.00    -3920.00
01344            1140.00    -3920.00
01345            1100.00    -3920.00
01346            1080.00    -3920.00
01347            1080.00    -3840.00
01348            1060.00    -3840.00
01349            1080.00    -3760.00
01350            1060.00    -3760.00
01351            1060.00    -3760.00
01352            1060.00    -3680.00
01353            1040.00    -3680.00
01354            1040.00    -3600.00
01355            1020.00    -3600.00
01356            1020.00    -3520.00
01357            1000.00    -3520.00
01358            1000.00    -3520.00
01359            1000.00    -3520.00
01360            1000.00    -3440.00
01361            1000.00    -3360.00
01362            1000.00    -3360.00
01363             980.00    -3360.00
01364             980.00    -3360.00
01365             980.00    -3360.00
01366             960.00    -3280.00
01367             940.00    -3280.00
01368             940.00    -3200.00
01369             920.00    -3200.00
01370             940.00    -3200.00
01371             920.00    -3120.00
01372             920.00    -3120.00
01373             900.00    -3040.00
01374             900.00    -2960.00
01375             900.00    -2960.00
01376             900.00    -2960.00
01377             880.00    -2880.00
01378             860.00    -2880.00
01379             860.00    -2880.00
01380             860.00    -2880.00
01381             840.00    -2800.00
01382             840.00    -2720.00
01383             840.00    -2720.00
01384             820.00    -2640.00
01385             840.00    -2640.00
01386             820.00    -2640.00
01387             780.00    -2560.00
01388             800.00    -2560.00
01389             780.00    -2560.00
01390             780.00    -2480.00
01391             780.00    -2480.00
01392             760.00    -2480.00
01393             760.00    -2400.00
01394             740.00    -2400.00
01395             740.00    -2320.00
01396             740.00    -2320.00
01397             720.00    -2240.00
01398             700.00    -2240.00
01399             700.00    -2240.00
01400             680.00    -2160.00
01401             680.00    -2160.00
01402             680.00    -2080.00
01403             660.00    -2080.00
01404             660.00    -2080.00
01405             660.00    -2000.00
01406             620.00    -1920.00
01407             620.00    -2000.00
01408             620.00    -1840.00
01409             600.00    -1760.00
01410             600.00    -1840.00
01411             580.00    -1760.00
01412             580.00    -1760.00
01413             580.00    -1680.00
01414             560.00    -1680.00
01415             540.00    -1600.00
01416             540.00    -1600.00
01417             520.00    -1600.00
01418             520.00    -1600.00
01419             520.00    -1440.00
01420             520.00    -1440.00
01421             500.00    -1440.00
01422             500.00    -1440.00
01423             460.00    -1360.00
01424             480.00    -1360.00
01425             460.00    -1280.00
01426             460.00    -1280.00
01427             440.00    -1200.00
01428             420.00    -1200.00
01429             420.00    -1120.00
01430             420.00    -1120.00
01431             420.00    -1120.00
01432             420.00    -1040.00
01433             420.00     -960.00
01434             380.00     -960.00
01435             360.00     -960.00
01436             360.00     -960.00
01437             360.00     -880.00
01438             340.00     -800.00
01439             340.00     -800.00
01440             340.00     -720.00
01441             340.00     -720.00
01442             300.00     -720.00
01443             300.00     -640.00
01444             300.00     -640.00
01445             280.00     -560.00
01446             280.00     -480.00
01447             280.00     -480.00
01448             260.00     -480.00
01449             260.00     -480.00
01450             260.00     -320.00
01451             240.00     -320.00
01452             220.00     -320.00
01453             200.00     -240.00
01454             220.00     -160.00
01455             200.00     -160.00
01456             200.00     -160.00
01457             180.00      -80.00
01458             160.00      -80.00
01459             180.00      -80.00
01460             140.00        0.00
01461             140.00        0.00
01462             120.00        0.00
01463             120.00       80.00
01464             100.00      160.00
01465             100.00      160.00
01466             100.00      240.00
01467             100.00      240.00
01468              60.00      240.00
01469              60.00      320.00
01470              60.00      320.00
01471              40.00      400.00
01472              40.00      400.00
01473              40.00      480.00
01474              20.00      560.00
01475               0.00      480.00
01476             -40.00      480.00
01477             -20.00      640.00
01478               0.00      800.00
01479             -40.00      640.00
01480             -60.00      560.00
01481             -60.00      880.00
01482             -40.00      800.00
01483            -100.00      720.00
01484             -60.00      880.00
01485             -60.00     1040.00
01486            -100.00      880.00
01487            -120.00      960.00
01488            -100.00     1120.00
01489            -120.00     1120.00
01490            -140.00     1120.00
01491            -140.00     1200.00
01492            -140.00     1120.00
01493            -180.00     1120.00
01494            -180.00     1280.00
01495            -180.00     1280.00
01496            -220.00     1280.00
01497            -200.00     1440.00
01498            -220.00     1280.00
01499            -220.00     1440.00
01500            -220.00     1440.00
01501            -220.00     1440.00
01502            -260.00     1520.00
01503            -260.00     1680.00
01504            -260.00     1600.00
01505            -280.00     1600.00
01506            -280.00     1760.00
01507            -300.00     1760.00
01508            -300.00     1760.00
01509            -320.00     1840.00
01510            -320.00     1760.00
01511            -340.00     1840.00
01512            -360.00     1920.00
01513            -360.00     1920.00
01514            -360.00     1920.00
01515            -380.00     2000.00
01516            -380.00     2080.00
01517            -380.00     2080.00
01518            -400.00     2160.00
01519            -420.00     2160.00
01520            -420.00     2160.00
01521            -440.00     2160.00
01522            -440.00     2240.00
01523            -440.00     2240.00
01524            -440.00     2400.00
01525            -460.00     2400.00
01526            -460.00     2400.00
01527            -480.00     2480.00
01528            -500.00     2480.00
01529            -500.00     2480.00
01530            -520.00     2560.00
01531            -520.00     2560.00
01532            -540.00     2560.00
01533            -540.00     2640.00
01534            -580.00     2720.00
01535            -580.00     2720.00
01536            -580.00     2720.00
01537            -600.00     2720.00
01538            -600.00     2800.00
01539            -600.00     2880.00
01540            -600.00     2880.00
01541            -620.00     2880.00
01542            -620.00     2880.00
01543            -660.00     2960.00
01544            -660.00     3040.00
01545            -680.00     3040.00
01546            -680.00     3040.00
01547            -680.00     3040.00
01548            -680.00     3120.00
01549            -700.00     3200.00
01550            -700.00     3200.00
01551            -700.00     3280.00
01552            -740.00     3280.00
01553            -740.00     3280.00
01554            -740.00     3360.00
01555            -740.00     3360.00
01556            -760.00     3360.00
01557            -760.00     3440.00
01558            -760.00     3440.00
01559            -760.00     3520.00
01560            -760.00     3520.00
01561            -800.00     3520.00
01562            -780.00     3520.00
01563            -820.00     3680.00
01564            -820.00     3600.00
01565            -820.00     3680.00
01566            -840.00     3680.00
01567            -840.00     3680.00
01568            -860.00     3760.00
01569            -840.00     3760.00
01570            -880.00     3840.00
01571            -860.00     3840.00
01572            -880.00     3840.00
01573            -860.00     3840.00
01574            -860.00     4000.00
01575            -900.00     4000.00
01576            -920.00     3920.00
01577            -900.00     4000.00
01578            -920.00     4000.00
01579            -920.00     4080.00
01580            -940.00     4080.00
01581            -940.00     4080.00
01582            -940.00     4160.00
01583            -960.00     4160.00
01584            -980.00     4160.00
01585            -980.00     4160.00
01586            -980.00     4240.00
01587           -1000.00     4240.00
01588            -980.00     4320.00
01589           -1000.00     4320.00
01590           -1020.00     4400.00
01591           -1020.00     4400.00
01592           -1020.00     4400.00
01593           -1020.00     4400.00
01594           -1020.00     4400.00
01595           -1020.00     4480.00
01596           -1060.00     4480.00
01597           -1060.00     4560.00
01598           -1080.00     4640.00
01599           -1080.00     4560.00
01600           -1080.00     4640.00
01601           -1080.00     4640.00
01602           -1100.00     4640.00
01603           -1120.00     4720.00
01604           -1100.00     4720.00
01605           -1100.00     4720.00
01606           -1140.00     4720.00
01607           -1140.00     4800.00
01608           -1140.00     4800.00
01609           -1140.00     4800.00
01610           -1140.00     4800.00
01611           -1140.00     4880.00
01612           -1180.00     4880.00
01613           -1180.00     4960.00
01614           -1180.00     4960.00
01615           -1180.00     4960.00
01616           -1180.00     4960.00
01617           -1200.00     5040.00
01618           -1220.00     4960.00
01619           -1220.00     5040.00
01620           -1240.00     5040.00
01621           -1220.00     5040.00
01622           -1220.00     5120.00
01623           -1240.00     5120.00
01624           -1240.00     5120.00
01625           -1240.00     5120.00
01626           -1260.00     5200.00
01627           -1260.00     5120.00
01628           -1260.00     5120.00
01629           -1260.00     5280.00
01630           -1280.00     5280.00
01631           -1260.00     5280.00
01632           -1260.00     5280.00
01633           -1260.00     5280.00
01634           -1280.00     5280.00
01635           -1300.00     5360.00
01636           -1300.00     5360.00
01637           -1300.00     5360.00
01638           -1320.00     5440.00
01639           -1320.00     5440.00
01640           -1320.00     5440.00
01641           -1320.00     5440.00
01642           -1320.00     5440.00
01643           -1340.00     5440.00
01644           -1320.00     5440.00
01645           -1340.00     5440.00
01646           -1340.00     5520.00
01647           -1340.00     5520.00
01648           -1340.00     5520.00
01649           -1340.00     5600.00
01650           -1380.00     5600.00
01651           -1360.00     5600.00
01652           -1380.00     5680.00
01653           -1380.00     5600.00
01654           -1400.00     5600.00
01655           -1400.00     5680.00
01656           -1400.00     5680.00
01657           -1400.00     5680.00
01658           -1400.00     5760.00
01659           -1400.00     5760.00
01660           -1420.00     5680.00
01661           -1420.00     5760.00
01662           -1420.00     5840.00
01663           -1420.00     5760.00
01664           -1420.00     5760.00
01665           -1420.00     5840.00
01666           -1440.00     5840.00
01667           -1420.00     5760.00
01668           -1460.00     5840.00
01669           -1460.00     5840.00
01670           -1460.00     5840.00
01671           -1460.00     5840.00
01672           -1460.00     5920.00
01673           -1460.00     5920.00
01674           -1460.00     5920.00
01675           -1460.00     5920.00
01676           -1480.00     5920.00
01677           -1480.00     5920.00
01678           -1480.00     5920.00
01679           -1480.00     5920.00
01680           -1480.00     5920.00
01681           -1480.00     5920.00
01682           -1480.00     5920.00
01683           -1500.00     5920.00
01684           -1500.00     6000.00
01685           -1500.00     6000.00
01686           -1500.00     6000.00
01687           -1500.00     5920.00
01688           -1500.00     6000.00
01689           -1500.00     5920.00
01690           -1500.00     6000.00
01691           -1500.00     5920.00
01692           -1500.00     6000.00
01693           -1500.00     6080.00
01694           -1500.00     6080.00
01695           -1500.00     6000.00
01696           -1520.00     6000.00
01697           -1500.00     6000.00
01698           -1540.00     6000.00
01699           -1540.00     6000.00
01700           -1500.00     6000.00
01701           -1540.00     6000.00
01702           -1540.00     6000.00
01703           -1520.00     6080.00
01704           -1540.00     6000.00
01705           -1540.00     6080.00
01706           -1540.00     6000.00
01707           -1500.00     6080.00
01708           -1540.00     6080.00
01709           -1540.00     6080.00
01710           -1540.00     6080.00
01711           -1520.00     6080.00
01712           -1540.00     6080.00
01713           -1540.00     6080.00
01714           -1540.00     6000.00
01715           -1540.00     6080.00
01716           -1540.00     6080.00
01717           -1540.00     6080.00
01718           -1540.00     6080.00
01719           -1540.00     6080.00
01720           -1540.00     6080.00
01721           -1560.00     6080.00
01722           -1540.00     6000.00
01723           -1540.00     6080.00
01724           -1540.00     6080.00
01725           -1540.00     6000.00
01726           -1560.00     6000.00
01727           -1540.00     6000.00
01728           -1560.00     6000.00
01729           -1540.00     6000.00
01730           -1560.00     6000.00
01731           -1560.00     6000.00
01732           -1560.00     6000.00
01733           -1560.00     6000.00
01734           -1540.00     6000.00
01735           -1540.00     5920.00
01736           -1560.00     6000.00
01737           -1560.00     5920.00
01738           -1560.00     6000.00
01739           -1560.00     6000.00
01740           -1560.00     6000.00
01741           -1540.00     6000.00
01742           -1560.00     5920.00
01743           -1560.00     6000.00
01744           -1540.00     5920.00
01745           -1560.00     5920.00
01746           -1540.00     5920.00
01747           -1540.00     6000.00
01748           -1540.00     5920.00
01749           -1540.00     5920.00
01750           -1540.00     5920.00
01751           -1540.00     5920.00
01752           -1540.00     5920.00
01753           -1540.00     5920.00
01754           -1540.00     5920.00
01755           -1540.00     5840.00
01756           -1540.00     5840.00
01757           -1540.00     5840.00
01758           -1500.00     5840.00
01759           -1540.00     5760.00
01760           -1500.00     5840.00
01761           -1500.00     5760.00
01762           -1500.00     5840.00
01763           -1500.00     5760.00
01764           -1500.00     5840.00
01765           -1500.00     5760.00
01766           -1500.00     5760.00
01767           -1500.00     5840.00
01768           -1500.00     5760.00
01769           -1500.00     5840.00
01770           -1500.00     5680.00
01771           -1480.00     5680.00
01772           -1480.00     5680.00
01773           -1500.00     5680.00
01774           -1480.00     5680.00
01775           -1480.00     5680.00
01776           -1480.00     5600.00
01777           -1480.00     5680.00
01778           -1460.00     5600.00
01779           -1480.00     5600.00
01780           -1460.00     5600.00
01781           -1460.00     5520.00
01782           -1460.00     5600.00
01783           -1460.00     5440.00
01784           -1480.00     5440.00
01785           -1460.00     5440.00
01786           -1420.00     5440.00
01787           -1460.00     5440.00
01788           -1420.00     5360.00
01789           -1420.00     5440.00
01790           -1460.00     5360.00
01791           -1420.00     5360.00
01792           -1420.00     5360.00
01793           -1420.00     5360.00
01794           -1420.00     5360.00
01795           -1420.00     5280.00
01796           -1420.00     5280.00
01797           -1400.00     5280.00
01798           -1400.00     5280.00
01799           -1400.00     5280.00
01800           -1400.00     5280.00
01801           -1400.00     5200.00
01802           -1400.00     5120.00
01803           -1400.00     5120.00
01804           -1400.00     5120.00
01805           -1380.00     5040.00
01806           -1380.00     5040.00
01807           -1380.00     5040.00
01808           -1380.00     5120.00
01809           -1360.00     5040.00
01810           -1340.00     4960.00
01811           -1360.00     5040.00
01812           -1340.00     4960.00
01813           -1340.00     5040.00
01814           -1340.00     4960.00
01815           -1340.00     4960.00
01816           -1340.00     4960.00
01817           -1340.00     4880.00
01818           -1320.00     4880.00
01819           -1320.00     4880.00
01820           -1300.00     4800.00
01821           -1300.00     4800.00
01822           -1300.00     4800.00
01823           -1300.00     4720.00
01824           -1260.00     4720.00
01825           -1260.00     4720.00
01826           -1260.00     4640.00
01827           -1260.00     4640.00
01828           -1260.00     4640.00
01829           -1240.00     4640.00
01830           -1240.00     4640.00
01831           -1240.00     4480.00
01832           -1220.00     4560.00
01833           -1240.00     4480.00
01834           -1220.00     4480.00
01835           -1220.00     4480.00
01836           -1220.00     4400.00
01837           -1220.00     4400.00
01838           -1220.00     4320.00
01839           -1180.00     4400.00
01840           -1180.00     4400.00
01841           -1180.00     4320.00
01842           -1180.00     4320.00
01843           -1180.00     4320.00
01844           -1160.00     4320.00
01845           -1140.00     4160.00
01846           -1160.00     4160.00
01847           -1160.00     4160.00
01848           -1140.00     4160.00
01849           -1160.00     4080.00
01850           -1140.00     4080.00
01851           -1140.00     4080.00
01852           -1100.00     4080.00
01853           -1100.00     4000.00
01854           -1100.00     4000.00
01855           -1080.00     4000.00
01856           -1080.00     3920.00
01857           -1080.00     3840.00
01858           -1080.00     3840.00
01859           -1080.00     3760.00
01860           -1060.00     3840.00
01861           -1060.00     3760.00
01862           -1060.00     3760.00
01863           -1060.00     3680.00
01864           -1040.00     3680.00
01865           -1040.00     3680.00
01866           -1040.00     3600.00
01867           -1020.00     3520.00
01868           -1020.00     3520.00
01869           -1000.00     3520.00
01870           -1020.00     3520.00
01871           -1000.00     3440.00
01872           -1000.00     3440.00
01873            -980.00     3440.00
01874            -980.00     3360.00
01875            -960.00     3360.00
01876            -940.00     3360.00
01877            -940.00     3280.00
01878            -940.00     3200.00
01879            -940.00     3200.00
01880            -940.00     3200.00
01881            -920.00     3120.00
01882            -920.00     3120.00
01883            -900.00     3120.00
01884            -900.00     3040.00
01885            -900.00     3040.00
01886            -860.00     2960.00
01887            -860.00     2960.00
01888            -860.00     2880.00
01889            -860.00     2880.00
01890            -840.00     2880.00
01891            -840.00     2800.00
01892            -840.00     2800.00
01893            -820.00     2800.00
01894            -820.00     2800.00
01895            -820.00     2720.00
01896            -780.00     2720.00
01897            -780.00     2640.00
01898            -760.00     2560.00
01899            -780.00     2560.00
01900            -760.00     2560.00
01901            -760.00     2480.00
01902            -740.00     2480.00
01903            -740.00     2480.00
01904            -740.00     2400.00
01905            -700.00     2400.00
01906            -700.00     2400.00
01907            -700.00     2240.00
01908            -680.00     2240.00
01909            -700.00     2240.00
01910            -680.00     2240.00
01911            -660.00     2160.00
01912            -680.00     2160.00
01913            -660.00     2080.00
01914            -620.00     2080.00
01915            -640.00     2000.00
01916            -620.00     1920.00
01917            -620.00     1920.00
01918            -600.00     1840.00
01919            -600.00     1920.00
01920            -580.00     1840.00
01921            -580.00     1840.00
01922            -580.00     1760.00
01923            -580.00     1760.00
01924            -580.00     1760.00
01925            -540.00     1600.00
01926            -540.00     1600.00
01927            -540.00     1600.00
01928            -520.00     1520.00
01929            -520.00     1440.00
01930            -500.00     1520.00
01931            -500.00     1440.00
01932            -500.00     1440.00
01933            -460.00     1440.00
01934            -460.00     1360.00
01935            -460.00     1280.00
01936            -460.00     1280.00
01937            -440.00     1200.00
01938            -440.00     1200.00
01939            -420.00     1120.00
01940            -420.00     1120.00
01941            -420.00     1120.00
01942            -420.00     1120.00
01943            -380.00     1040.00
01944            -380.00      960.00
01945            -380.00      960.00
01946            -360.00      880.00
01947            -360.00      880.00
01948            -340.00      880.00
01949            -340.00      800.00
01950            -340.00      800.00
01951            -300.00      720.00
01952            -300.00      720.00
01953            -300.00      640.00
01954            -280.00      720.00
01955            -280.00      560.00
01956            -280.00      560.00
01957            -260.00      560.00
01958            -260.00      480.00
01959            -260.00      400.00
01960            -220.00      480.00
01961            -220.00      320.00
01962            -220.00      320.00
01963            -200.00      320.00
01964            -200.00      240.00
01965            -180.00      240.00
01966            -180.00      160.00
01967            -180.00      160.00
01968            -140.00       80.00
01969            -140.00       80.00
01970            -120.00        0.00
01971            -120.00        0.00
01972            -120.00        0.00
01973            -100.00      -80.00
01974            -100.00      -80.00
01975             -80.00     -160.00
01976             -60.00     -160.00
01977             -60.00     -160.00
01978             -60.00     -240.00
01979             -60.00     -320.00
01980             -40.00     -320.00
01981             -40.00     -320.00
01982              20.00     -400.00
01983             -20.00     -400.00
01984              20.00     -640.00
01985             -20.00     -640.00
01986              20.00     -480.00
01987              40.00     -400.00
01988              40.00     -640.00
01989              20.00     -720.00
01990              60.00     -640.00
01991              60.00     -640.00
01992              40.00     -800.00
01993              60.00     -800.00
01994             100.00     -800.00
01995             100.00     -960.00
01996             100.00     -960.00
01997             120.00     -960.00
01998             120.00    -1040.00
01999             120.00    -1040.00
02000             140.00    -1040.00
02001             180.00    -1120.00
02002             140.00    -1200.00
02003             180.00    -1120.00
02004             200.00    -1200.00
02005             180.00    -1280.00
02006             200.00    -1280.00
02007             200.00    -1360.00
02008             220.00    -1440.00
02009             220.00    -1360.00
02010             220.00    -1440.00
02011             240.00    -1520.00
02012             260.00    -1440.00
02013             280.00    -1520.00
02014             260.00    -1600.00
02015             280.00    -1600.00
02016             280.00    -1600.00
02017             320.00    -1760.00
02018             340.00    -1680.00
02019             340.00    -1760.00
02020             340.00    -1760.00
02021             360.00    -1760.00
02022             360.00    -1920.00
02023             360.00    -1840.00
02024             380.00    -2000.00
02025             380.00    -1920.00
02026             380.00    -2000.00
02027             420.00    -2080.00
02028             420.00    -2000.00
02029             420.00    -2080.00
02030             420.00    -2160.00
02031             440.00    -2240.00
02032             460.00    -2240.00
02033             460.00    -2240.00
02034             460.00    -2320.00
02035             480.00    -2320.00
02036             500.00    -2400.00
02037             500.00    -2400.00
02038             500.00    -2400.00
02039             520.00    -2480.00
02040             520.00    -2480.00
02041             540.00    -2560.00
02042             560.00    -2560.00
02043             540.00    -2640.00
02044             580.00    -2640.00
02045             580.00    -2720.00
02046             580.00    -2720.00
02047             600.00    -2720.00
02048             600.00    -2720.00
02049             600.00    -2800.00
02050             620.00    -2800.00
02051             620.00    -2880.00
02052             620.00    -2880.00
02053             640.00    -2960.00
02054             660.00    -2960.00
02055             660.00    -2960.00
02056             660.00    -3040.00
02057             680.00    -3040.00
02058             680.00    -3040.00
02059             680.00    -3040.00
02060             700.00    -3200.00
02061             700.00    -3200.00
02062             700.00    -3200.00
02063             720.00    -3280.00
02064             720.00    -3280.00
02065             740.00    -3360.00
02066             760.00    -3360.00
02067             760.00    -3360.00
02068             760.00    -3440.00
02069             780.00    -3440.00
02070             780.00    -3520.00
02071             800.00    -3520.00
02072             820.00    -3600.00
02073             820.00    -3600.00
02074             820.00    -3600.00
02075             820.00    -3600.00
02076             840.00    -3600.00
02077             840.00    -3680.00
02078             840.00    -3680.00
02079             860.00    -3680.00
02080             900.00    -3760.00
02081             860.00    -3760.00
02082             880.00    -3840.00
02083             900.00    -3840.00
02084             900.00    -3840.00
02085             900.00    -3920.00
02086             920.00    -3920.00
02087             900.00    -3920.00
02088             920.00    -4000.00
02089             940.00    -4000.00
02090             940.00    -4000.00
02091             940.00    -4080.00
02092             980.00    -4000.00
02093             980.00    -4160.00
02094             980.00    -4160.00
02095            1000.00    -4160.00
02096            1000.00    -4240.00
02097            1000.00    -4240.00
02098            1000.00    -4240.00
02099            1020.00    -4240.00
02100            1020.00    -4320.00
02101            1040.00    -4320.00
02102            1060.00    -4400.00
02103            1060.00    -4320.00
02104            1060.00    -4320.00
02105            1060.00    -4480.00
02106            1080.00    -4400.00
02107            1060.00    -4400.00
02108            1080.00    -4480.00
02109            1080.00    -4560.00
02110            1100.00    -4560.00
02111            1100.00    -4560.00
02112            1100.00    -4560.00
02113            1120.00    -4640.00
02114            1120.00    -4640.00
02115            1140.00    -4640.00
02116            1140.00    -4640.00
02117            1140.00    -4720.00
02118            1160.00    -4720.00
02119            1140.00    -4800.00
02120            1160.00    -4800.00
02121            1160.00    -4880.00
02122            1160.00    -4800.00
02123            1160.00    -4880.00
02124            1180.00    -4960.00
02125            1180.00    -4880.00
02126            1180.00    -4960.00
02127            1180.00    -4960.00
02128            1220.00    -4960.00
02129            1220.00    -4960.00
02130            1220.00    -5040.00
02131            1220.00    -5040.00
02132            1220.00    -5120.00
02133            1240.00    -5120.00
02134            1240.00    -5120.00
02135            1240.00    -5120.00
02136            1240.00    -5120.00
02137            1260.00    -5200.00
02138            1260.00    -5120.00
02139            1260.00    -5200.00
02140            1260.00    -5200.00
02141            1260.00    -5200.00
02142            1280.00    -5200.00
02143            1300.00    -5280.00
02144            1300.00    -5280.00
02145            1300.00    -5280.00
02146            1300.00    -5280.00
02147            1300.00    -5280.00
02148            1320.00    -5280.00
02149            1300.00    -5360.00
02150            1320.00    -5360.00
02151            1340.00    -5440.00
02152            1340.00    -5440.00
02153            1340.00    -5440.00
02154            1340.00    -5440.00
02155            1340.00    -5440.00
02156            1340.00    -5520.00
02157            1380.00    -5440.00
02158            1380.00    -5520.00
02159            1360.00    -5520.00
02160            1380.00    -5520.00
02161            1380.00    -5520.00
02162            1380.00    -5520.00
02163            1400.00    -5520.00
02164            1380.00    -5600.00
02165            1400.00    -5600.00
02166            1400.00    -5600.00
02167            1420.00    -5600.00
02168            1400.00    -5600.00
02169            1420.00    -5600.00
02170            1420.00    -5600.00
02171            1420.00    -5600.00
02172            1420.00    -5760.00
02173            1420.00    -5760.00
02174            1420.00    -5760.00
02175            1420.00    -5760.00
02176            1440.00    -5760.00
02177            1460.00    -5760.00
02178            1460.00    -5760.00
02179            1460.00    -5760.00
02180            1460.00    -5760.00
02181            1460.00    -5840.00
02182            1460.00    -5760.00
02183            1460.00    -5840.00
02184            1480.00    -5840.00
02185            1480.00    -5840.00
02186            1460.00    -5840.00
02187            1480.00    -5840.00
02188            1460.00    -5840.00
02189            1480.00    -5840.00
02190            1480.00    -5840.00
02191            1480.00    -5840.00
02192            1480.00    -5920.00
02193            1500.00    -5840.00
02194            1480.00    -5920.00
02195            1500.00    -5920.00
02196            1480.00    -5840.00
02197            1480.00    -5920.00
02198            1500.00    -5920.00
02199            1500.00    -5840.00
02200            1500.00    -5920.00
02201            1500.00    -5920.00
02202            1520.00    -5920.00
02203            1500.00    -5920.00
02204            1520.00    -5920.00
02205            1500.00    -5920.00
02206            1520.00    -5920.00
02207            1520.00    -5920.00
02208            1520.00    -5920.00
02209            1540.00    -5920.00
02210            1520.00    -5920.00
02211            1540.00    -5920.00
02212            1540.00    -5920.00
02213            1540.00    -5920.00
02214            1540.00    -5920.00
02215            1540.00    -5920.00
02216            1540.00    -6000.00
02217            1540.00    -5920.00
02218            1540.00    -5920.00
02219            1540.00    -6000.00
02220            1540.00    -5920.00
02221            1540.00    -6000.00
02222            1540.00    -6000.00
02223            1540.00    -5920.00
02224            1540.00    -5920.00
02225            1540.00    -6000.00
02226            1540.00    -5920.00
02227            1540.00    -5920.00
02228            1540.00    -5920.00
02229            1540.00    -5920.00
02230            1540.00    -6000.00
02231            1560.00    -5920.00
02232            1560.00    -5920.00
02233            1560.00    -5920.00
02234            1540.00    -5920.00
02235            1560.00    -5920.00
02236            1560.00    -5920.00
02237            1540.00    -5920.00
02238            1560.00    -5920.00
02239            1560.00    -5920.00
02240            1560.00    -5920.00
02241            1540.00    -5920.00
02242            1540.00    -5920.00
02243            1540.00    -5920.00
02244            1540.00    -5920.00
02245            1540.00    -5920.00
02246            1540.00    -5920.00
02247            1540.00    -5920.00
02248            1560.00    -5920.00
02249            1540.00    -5920.00
02250            1540.00    -5840.00
02251            1540.00    -5840.00
02252            1540.00    -5840.00
02253            1540.00    -5840.00
02254            1540.00    -5840.00
02255            1540.00    -5840.00
02256            1540.00    -5840.00
02257            1540.00    -5760.00
02258            1540.00    -5840.00
02259            1540.00    -5760.00
02260            1520.00    -5840.00
02261            1520.00    -5760.00
02262            1540.00    -5760.00
02263            1520.00    -5760.00
02264            1500.00    -5840.00
02265            1540.00    -5840.00
02266            1540.00    -5760.00
02267            1520.00    -5760.00
02268            1500.00    -5760.00
02269            1500.00    -5760.00
02270            1500.00    -5760.00
02271            1500.00    -5680.00
02272            1500.00    -5680.00
02273            1500.00    -5760.00
02274            1480.00    -5600.00
02275            1500.00    -5600.00
02276            1500.00    -5600.00
02277            1500.00    -5600.00
02278            1480.00    -5520.00
02279            1500.00    -5600.00
02280            1480.00    -5600.00
02281            1480.00    -5520.00
02282            1480.00    -5520.00
02283            1480.00    -5520.00
02284            1480.00    -5520.00
02285            1480.00    -5520.00
02286            1480.00    -5520.00
02287            1460.00    -5520.00
02288            1480.00    -5440.00
02289            1480.00    -5520.00
02290            1480.00    -5440.00
02291            1480.00    -5440.00
02292            1460.00    -5440.00
02293            1460.00    -5440.00
02294            1460.00    -5440.00
02295            1460.00    -5360.00
02296            1460.00    -5440.00
02297            1420.00    -5280.00
02298            1460.00    -5280.00
02299            1440.00    -5280.00
02300            1420.00    -5280.00
02301            1420.00    -5280.00
02302            1420.00    -5200.00
02303            1420.00    -5200.00
02304            1420.00    -5200.00
02305            1420.00    -5200.00
02306            1400.00    -5200.00
02307            1400.00    -5200.00
02308            1400.00    -5120.00
02309            1400.00    -5120.00
02310            1400.00    -5120.00
02311            1380.00    -5120.00
02312            1400.00    -5120.00
02313            1380.00    -5120.00
02314            1380.00    -5040.00
02315            1380.00    -5040.00
02316            1380.00    -4960.00
02317            1360.00    -4960.00
02318            1340.00    -4960.00
02319            1340.00    -4960.00
02320            1340.00    -4880.00
02321            1320.00    -4880.00
02322            1340.00    -4880.00
02323            1320.00    -4800.00
02324            1320.00    -4880.00
02325            1320.00    -4800.00
02326            1300.00    -4800.00
02327            1300.00    -4800.00
02328            1320.00    -4720.00
02329            1300.00    -4800.00
02330            1300.00    -4640.00
02331            1300.00    -4640.00
02332            1300.00    -4560.00
02333            1260.00    -4640.00
02334            1260.00    -4560.00
02335            1260.00    -4560.00
02336            1260.00    -4480.00
02337            1260.00    -4560.00
02338            1240.00    -4400.00
02339            1240.00    -4400.00
02340            1240.00    -4480.00
02341            1220.00    -4320.00
02342            1220.00    -4320.00
02343            1220.00    -4320.00
02344            1220.00    -4320.00
02345            1220.00    -4320.00
02346            1220.00    -4320.00
02347            1220.00    -4240.00
02348            1180.00    -4240.00
02349            1200.00    -4160.00
02350            1180.00    -4160.00
02351            1180.00    -4160.00
02352            1160.00    -4160.00
02353            1180.00    -4080.00
02354            1160.00    -4000.00
02355            1160.00    -4000.00
02356            1160.00    -4000.00
02357            1140.00    -4000.00
02358            1140.00    -4000.00
02359            1140.00    -3920.00
02360            1100.00    -3920.00
02361            1100.00    -3840.00
02362            1100.00    -3840.00
02363            1100.00    -3840.00
02364            1100.00    -3840.00
02365            1100.00    -3840.00
02366            1080.00    -3680.00
02367            1080.00    -3680.00
02368            1060.00    -3680.00
02369            1060.00    -3680.00
02370            1060.00    -3680.00
02371            1040.00    -3600.00
02372            1060.00    -3520.00
02373            1020.00    -3600.00
02374            1020.00    -3600.00
02375            1020.00    -3520.00
02376            1000.00    -3520.00
02377            1000.00    -3440.00
02378            1000.00    -3440.00
02379            1000.00    -3360.00
02380             980.00    -3360.00
02381             980.00    -3280.00
02382             940.00    -3360.00
02383             960.00    -3280.00
02384             940.00    -3280.00
02385             940.00    -3200.00
02386             920.00    -3280.00
02387             920.00    -3200.00
02388             920.00    -3200.00
02389             900.00    -3120.00
02390             900.00    -3040.00
02391             900.00    -2960.00
02392             880.00    -2960.00
02393             900.00    -2880.00
02394             860.00    -2960.00
02395             840.00    -2880.00
02396             840.00    -2880.00
02397             840.00    -2800.00
02398             820.00    -2720.00
02399             820.00    -2720.00
02400             820.00    -2720.00
02401             820.00    -2640.00
02402             820.00    -2640.00
02403             780.00    -2720.00
02404             780.00    -2560.00
02405             780.00    -2560.00
02406             760.00    -2560.00
02407             760.00    -2480.00
02408             760.00    -2560.00
02409             740.00    -2480.00
02410             740.00    -2400.00
02411             720.00    -2400.00
02412             740.00    -2320.00
02413             740.00    -2320.00
02414             720.00    -2320.00
02415             720.00    -2240.00
02416             680.00    -2240.00
02417             680.00    -2240.00
02418             660.00    -2160.00
02419             680.00    -2000.00
02420             660.00    -2080.00
02421             660.00    -2000.00
02422             660.00    -2000.00
02423             640.00    -1920.00
02424             640.00    -1840.00
02425             620.00    -1840.00
02426             620.00    -1760.00
02427             600.00    -1760.00
02428             580.00    -1760.00
02429             580.00    -1680.00
02430             600.00    -1680.00
02431             580.00    -1680.00
02432             560.00    -1600.00
02433             560.00    -1600.00
02434             540.00    -1600.00
02435             520.00    -1520.00
02436             520.00    -1520.00
02437             520.00    -1440.00
02438             520.00    -1440.00
02439             500.00    -1360.00
02440             500.00    -1360.00
02441             460.00    -1280.00
02442             480.00    -1280.00
02443             460.00    -1280.00
02444             440.00    -1200.00
02445             440.00    -1200.00
02446             420.00    -1120.00
02447             420.00    -1120.00
02448             420.00    -1040.00
02449             380.00    -1040.00
02450             380.00     -960.00
02451             380.00     -960.00
02452             360.00     -960.00
02453             360.00     -880.00
02454             360.00     -800.00
02455             340.00     -800.00
02456             340.00     -720.00
02457             320.00     -720.00
02458             320.00     -720.00
02459             300.00     -640.00
02460             300.00     -640.00
02461             280.00     -640.00
02462             260.00     -640.00
02463             280.00     -480.00
02464             260.00     -480.00
02465             260.00     -400.00
02466             260.00     -400.00
02467             220.00     -400.00
02468             220.00     -320.00
02469             220.00     -320.00
02470             200.00     -320.00
02471             200.00     -160.00
02472             180.00     -160.00
02473             180.00     -160.00
02474             180.00      -80.00
02475             180.00      -80.00
02476             180.00      -80.00
02477             140.00        0.00
02478             140.00        0.00
02479             120.00       80.00
02480             100.00       80.00
02481             100.00      160.00
02482              60.00      160.00
02483             100.00      160.00
02484              60.00      240.00
02485              60.00      320.00
02486              60.00      320.00
02487              40.00      320.00
02488              40.00      320.00
02489              40.00      480.00
02490              40.00      480.00
02491              40.00      560.00
02492             -20.00      480.00
02493             -20.00      480.00
02494             -20.00      720.00
02495              20.00      800.00
02496             -60.00      560.00
02497             -60.00      720.00
02498             -20.00      880.00
02499             -60.00      800.00
02500            -100.00      800.00
02501             -60.00      960.00
02502             -60.00     1040.00
02503            -120.00      880.00
02504            -120.00      960.00
02505            -100.00     1120.00
02506            -120.00     1040.00
02507            -120.00     1120.00
02508            -120.00     1200.00
02509            -180.00     1120.00
02510            -180.00     1200.00
02511            -180.00     1280.00
02512            -200.00     1280.00
02513            -200.00     1280.00
02514            -200.00     1360.00
02515            -220.00     1360.00
02516            -220.00     1440.00
02517            -220.00     1440.00
02518            -240.00     1440.00
02519            -260.00     1600.00
02520            -260.00     1600.00
02521            -280.00     1600.00
02522            -300.00     1680.00
02523            -280.00     1760.00
02524            -300.00     1680.00
02525            -300.00     1760.00
02526            -340.00     1760.00
02527            -360.00     1840.00
02528            -340.00     1920.00
02529            -360.00     1920.00
02530            -360.00     1920.00
02531            -380.00     1920.00
02532            -380.00     2000.00
02533            -380.00     2080.00
02534            -400.00     2080.00
02535            -420.00     2080.00
02536            -420.00     2160.00
02537            -440.00     2240.00
02538            -440.00     2240.00
02539            -440.00     2240.00
02540            -460.00     2320.00
02541            -460.00     2400.00
02542            -460.00     2400.00
02543            -480.00     2400.00
02544            -500.00     2400.00
02545            -500.00     2480.00
02546            -500.00     2480.00
02547            -520.00     2480.00
02548            -540.00     2560.00
02549            -540.00     2640.00
02550            -540.00     2560.00
02551            -540.00     2720.00
02552            -580.00     2720.00
02553            -560.00     2720.00
02554            -580.00     2800.00
02555            -600.00     2800.00
02556            -600.00     2880.00
02557            -600.00     2880.00
02558            -620.00     2880.00
02559            -620.00     2960.00
02560            -640.00     2960.00
02561            -640.00     3040.00
02562            -620.00     3040.00
02563            -660.00     3040.00
02564            -660.00     3120.00
02565            -680.00     3040.00
02566            -680.00     3120.00
02567            -680.00     3200.00
02568            -700.00     3280.00
02569            -700.00     3280.00
02570            -740.00     3360.00
02571            -740.00     3360.00
02572            -740.00     3360.00
02573            -760.00     3440.00
02574            -760.00     3440.00
02575            -760.00     3440.00
02576            -760.00     3440.00
02577            -780.00     3440.00
02578            -780.00     3520.00
02579            -820.00     3600.00
02580            -820.00     3520.00
02581            -840.00     3680.00
02582            -840.00     3680.00
02583            -860.00     3680.00
02584            -840.00     3680.00
02585            -860.00     3760.00
02586            -860.00     3840.00
02587            -860.00     3840.00
02588            -860.00     3840.00
02589            -880.00     3840.00
02590            -900.00     3840.00
02591            -900.00     3920.00
02592            -920.00     4000.00
02593            -920.00     4000.00
02594            -920.00     4000.00
02595            -940.00     4000.00
02596            -940.00     4160.00
02597            -940.00     4080.00
02598            -940.00     4160.00
02599            -940.00     4160.00
02600            -980.00     4160.00
02601            -980.00     4160.00
02602           -1000.00     4320.00
02603           -1000.00     4320.00
02604           -1000.00     4320.00
02605           -1000.00     4320.00
02606            -980.00     4320.00
02607           -1020.00     4400.00
02608           -1020.00     4400.00
02609           -1020.00     4400.00
02610           -1040.00     4480.00
02611           -1060.00     4480.00
02612           -1060.00     4480.00
02613           -1080.00     4480.00
02614           -1060.00     4560.00
02615           -1060.00     4560.00
02616           -1080.00     4640.00
02617           -1080.00     4640.00
02618           -1100.00     4640.00
02619           -1080.00     4720.00
02620           -1100.00     4720.00
02621           -1100.00     4720.00
02622           -1120.00     4720.00
02623           -1140.00     4720.00
02624           -1100.00     4800.00
02625           -1140.00     4800.00
02626           -1140.00     4800.00
02627           -1160.00     4880.00
02628           -1160.00     4960.00
02629           -1160.00     4960.00
02630           -1160.00     4960.00
02631           -1160.00     4960.00
02632           -1180.00     4960.00
02633           -1180.00     4960.00
02634           -1180.00     4960.00
02635           -1220.00     5040.00
02636           -1220.00     5040.00
02637           -1220.00     5120.00
02638           -1220.00     5120.00
02639           -1220.00     5040.00
02640           -1240.00     5120.00
02641           -1240.00     5120.00
02642           -1240.00     5120.00
02643           -1260.00     5200.00
02644           -1260.00     5280.00
02645           -1260.00     5200.00
02646           -1260.00     5280.00
02647           -1300.00     5280.00
02648           -1280.00     5360.00
02649           -1300.00     5280.00
02650           -1260.00     5280.00
02651           -1320.00     5280.00
02652           -1300.00     5360.00
02653           -1320.00     5360.00
02654           -1320.00     5440.00
02655           -1320.00     5440.00
02656           -1340.00     5360.00
02657           -1340.00     5440.00
02658           -1340.00     5440.00
02659           -1340.00     5440.00
02660           -1340.00     5440.00
02661           -1340.00     5440.00
02662           -1340.00     5520.00
02663           -1340.00     5520.00
02664           -1340.00     5520.00
02665           -1360.00     5600.00
02666           -1360.00     5600.00
02667           -1380.00     5600.00
02668           -1380.00     5600.00
02669           -1380.00     5600.00
02670           -1380.00     5600.00
02671           -1400.00     5600.00
02672           -1400.00     5600.00
02673           -1400.00     5680.00
02674           -1400.00     5680.00
02675           -1400.00     5680.00
02676           -1400.00     5680.00
02677           -1400.00     5760.00
02678           -1400.00     5680.00
02679           -1420.00     5840.00
02680           -1400.00     5760.00
02681           -1420.00     5760.00
02682           -1420.00     5840.00
02683           -1440.00     5760.00
02684           -1420.00     5840.00
02685           -1440.00     5760.00
02686           -1460.00     5840.00
02687           -1440.00     5840.00
02688           -1440.00     5840.00
02689           -1460.00     5840.00
02690           -1460.00     5840.00
02691           -1460.00     5920.00
02692           -1460.00     5920.00
02693           -1460.00     5920.00
02694           -1460.00     5920.00
02695           -1460.00     5920.00
02696           -1480.00     5920.00
02697           -1480.00     5920.00
02698           -1480.00     5920.00
02699           -1500.00     5920.00
02700           -1480.00     5920.00
02701           -1500.00     6000.00
02702           -1480.00     5920.00
02703           -1500.00     6000.00
02704           -1480.00     6000.00
02705           -1500.00     6000.00
02706           -1500.00     6000.00
02707           -1500.00     6000.00
02708           -1500.00     6000.00
02709           -1500.00     5920.00
02710           -1500.00     6000.00
02711           -1500.00     6000.00
02712           -1520.00     5920.00
02713           -1500.00     6000.00
02714           -1520.00     6000.00
02715           -1500.00     6000.00
02716           -1520.00     6080.00
02717           -1520.00     6000.00
02718           -1540.00     6000.00
02719           -1520.00     6000.00
02720           -1540.00     6000.00
02721           -1540.00     6080.00
02722           -1520.00     6000.00
02723           -1540.00     6080.00
02724           -1540.00     6080.00
02725           -1540.00     6080.00
02726           -1540.00     6080.00
02727           -1560.00     6000.00
02728           -1560.00     6000.00
02729           -1540.00     6080.00
02730           -1560.00     6000.00
02731           -1560.00     6080.00
02732           -1540.00     6000.00
02733           -1560.00     6000.00
02734           -1540.00     6080.00
02735           -1560.00     6080.00
02736           -1560.00     6080.00
02737           -1540.00     6080.00
02738           -1560.00     6080.00
02739           -1540.00     6080.00
02740           -1560.00     6000.00
02741           -1560.00     6000.00
02742           -1560.00     6000.00
02743           -1540.00     6000.00
02744           -1540.00     6000.00
02745           -1560.00     6000.00
02746           -1560.00     6000.00
02747           -1540.00     6080.00
02748           -1540.00     6000.00
02749           -1540.00     6080.00
02750           -1540.00     6000.00
02751           -1560.00     6000.00
02752           -1540.00     6000.00
02753           -1560.00     6000.00
02754           -1540.00     6000.00
02755           -1540.00     6000.00
02756           -1540.00     5920.00
02757           -1540.00     5920.00
02758           -1540.00     6000.00
02759           -1540.00     6000.00
02760           -1540.00     6000.00
02761           -1540.00     6000.00
02762           -1540.00     5920.00
02763           -1500.00     5920.00
02764           -1540.00     5920.00
02765           -1540.00     5920.00
02766           -1540.00     5920.00
02767           -1540.00     5920.00
02768           -1540.00     5920.00
02769           -1500.00     5920.00
02770           -1520.00     5920.00
02771           -1540.00     5920.00
02772           -1500.00     5840.00
02773           -1520.00     5840.00
02774           -1520.00     5840.00
02775           -1540.00     5840.00
02776           -1500.00     5840.00
02777           -1540.00     5840.00
02778           -1540.00     5760.00
02779           -1520.00     5840.00
02780           -1500.00     5760.00
02781           -1500.00     5760.00
02782           -1500.00     5840.00
02783           -1500.00     5760.00
02784           -1500.00     5760.00
02785           -1500.00     5680.00
02786           -1500.00     5680.00
02787           -1480.00     5760.00
02788           -1500.00     5680.00
02789           -1500.00     5680.00
02790           -1480.00     5680.00
02791           -1480.00     5680.00
02792           -1500.00     5680.00
02793           -1480.00     5600.00
02794           -1480.00     5600.00
02795           -1480.00     5600.00
02796           -1480.00     5600.00
02797           -1480.00     5600.00
02798           -1480.00     5520.00
02799           -1480.00     5520.00
02800           -1480.00     5520.00
02801           -1440.00     5520.00
02802           -1460.00     5440.00
02803           -1440.00     5440.00
02804           -1460.00     5440.00
02805           -1420.00     5440.00
02806           -1420.00     5440.00
02807           -1420.00     5360.00
02808           -1420.00     5360.00
02809           -1420.00     5360.00
02810           -1420.00     5280.00
02811           -1400.00     5280.00
02812           -1420.00     5360.00
02813           -1400.00     5280.00
02814           -1400.00     5280.00
02815           -1400.00     5280.00
02816           -1400.00     5280.00
02817           -1400.00     5200.00
02818           -1400.00     5200.00
02819           -1380.00     5200.00
02820           -1380.00     5200.00
02821           -1400.00     5120.00
02822           -1380.00     5120.00
02823           -1380.00     5120.00
02824           -1340.00     5040.00
02825           -1340.00     5040.00
02826           -1340.00     5040.00
02827           -1340.00     5040.00
02828           -1340.00     4960.00
02829           -1340.00     4960.00
02830           -1340.00     4960.00
02831           -1340.00     4960.00
02832           -1340.00     4960.00
02833           -1320.00     4960.00
02834           -1320.00     4880.00
02835           -1320.00     4880.00
02836           -1320.00     4800.00
02837           -1320.00     4800.00
02838           -1300.00     4800.00
02839           -1300.00     4800.00
02840           -1300.00     4720.00
02841           -1300.00     4720.00
02842           -1260.00     4720.00
02843           -1260.00     4640.00
02844           -1260.00     4720.00
02845           -1260.00     4640.00
02846           -1260.00     4640.00
02847           -1260.00     4640.00
02848           -1260.00     4480.00
02849           -1240.00     4480.00
02850           -1240.00     4480.00
02851           -1240.00     4480.00
02852           -1220.00     4400.00
02853           -1220.00     4400.00
02854           -1220.00     4400.00
02855           -1200.00     4400.00
02856           -1180.00     4320.00
02857           -1200.00     4320.00
02858           -1180.00     4240.00
02859           -1180.00     4320.00
02860           -1180.00     4320.00
02861           -1160.00     4160.00
02862           -1160.00     4240.00
02863           -1160.00     4160.00
02864           -1160.00     4160.00
02865           -1160.00     4080.00
02866           -1120.00     4080.00
02867           -1140.00     4080.00
02868           -1120.00     4000.00
02869           -1100.00     4000.00
02870           -1100.00     4000.00
02871           -1100.00     3920.00
02872           -1080.00     3840.00
02873           -1100.00     3840.00
02874           -1080.00     3840.00
02875           -1080.00     3840.00
02876           -1080.00     3840.00
02877           -1060.00     3760.00
02878           -1060.00     3760.00
02879           -1060.00     3680.00
02880           -1020.00     3680.00
02881           -1020.00     3680.00
02882           -1020.00     3680.00
02883           -1000.00     3520.00
02884           -1020.00     3520.00
02885           -1000.00     3520.00
02886           -1000.00     3520.00
02887            -980.00     3440.00
02888            -980.00     3440.00
02889            -960.00     3360.00
02890            -980.00     3360.00
02891            -940.00     3360.00
02892            -940.00     3360.00
02893            -940.00     3280.00
02894            -920.00     3280.00
02895            -920.00     3280.00
02896            -920.00     3200.00
02897            -920.00     3120.00
02898            -920.00     3120.00
02899            -900.00     3120.00
02900            -900.00     3120.00
02901            -900.00     3040.00
02902            -880.00     3040.00
02903            -860.00     2960.00
02904            -860.00     2960.00
02905            -860.00     2880.00
02906            -860.00     2880.00
02907            -860.00     2880.00
02908            -840.00     2800.00
02909            -840.00     2720.00
02910            -820.00     2800.00
02911            -820.00     2720.00
02912            -820.00     2720.00
02913            -780.00     2640.00
02914            -780.00     2560.00
02915            -760.00     2560.00
02916            -760.00     2560.00
02917            -760.00     2560.00
02918            -760.00     2480.00
02919            -760.00     2400.00
02920            -760.00     2400.00
02921            -740.00     2320.00
02922            -740.00     2400.00
02923            -700.00     2320.00
02924            -720.00     2320.00
02925            -680.00     2240.00
02926            -700.00     2240.00
02927            -680.00     2160.00
02928            -680.00     2160.00
02929            -660.00     2080.00
02930            -660.00     2080.00
02931            -660.00     2000.00
02932            -620.00     2000.00
02933            -620.00     1920.00
02934            -620.00     1920.00
02935            -600.00     1920.00
02936            -600.00     1840.00
02937            -600.00     1840.00
02938            -600.00     1760.00
02939            -580.00     1760.00
02940            -580.00     1760.00
02941            -540.00     1760.00
02942            -540.00     1600.00
02943            -520.00     1600.00
02944            -520.00     1600.00
02945            -520.00     1520.00
02946            -500.00     1440.00
02947            -500.00     1440.00
02948            -460.00     1440.00
02949            -480.00     1440.00
02950            -460.00     1440.00
02951            -460.00     1280.00
02952            -440.00     1280.00
02953            -440.00     1280.00
02954            -440.00     1200.00
02955            -420.00     1200.00
02956            -420.00     1120.00
02957            -420.00     1120.00
02958            -380.00     1120.00
02959            -380.00     1040.00
02960            -380.00      960.00
02961            -360.00      960.00
02962            -360.00      960.00
02963            -360.00      880.00
02964            -340.00      880.00
02965            -340.00      880.00
02966            -340.00      800.00
02967            -320.00      800.00
02968            -320.00      720.00
02969            -300.00      640.00
02970            -300.00      640.00
02971            -300.00      640.00
02972            -280.00      640.00
02973            -280.00      560.00
02974            -260.00      480.00
02975            -220.00      480.00
02976            -240.00      480.00
02977            -220.00      400.00
02978            -220.00      320.00
02979            -200.00      320.00
02980            -220.00      240.00
02981            -200.00      240.00
02982            -180.00      240.00
02983            -180.00      160.00
02984            -180.00      160.00
02985            -180.00      160.00
02986            -140.00       80.00
02987            -140.00        0.00
02988            -120.00        0.00
02989            -120.00      -80.00
02990            -120.00      -80.00
02991            -100.00     -160.00
02992            -100.00     -160.00
02993            -100.00     -160.00
02994             -60.00     -160.00
02995             -60.00     -240.00
02996             -40.00     -320.00
02997             -40.00     -320.00
02998             -40.00     -320.00
02999               0.00     -320.00
03000             -20.00     -480.00
03001             -20.00     -640.00
03002             -20.00     -640.00
03003              20.00     -480.00
03004              40.00     -480.00
03005              40.00     -720.00
03006              20.00     -800.00
03007             100.00     -640.00
03008              60.00     -800.00
03009              40.00     -800.00
03010             100.00     -800.00
03011             120.00     -800.00
03012             100.00     -960.00
03013             120.00     -960.00
03014             120.00     -960.00
03015             120.00    -1040.00
03016             140.00    -1040.00
03017             160.00    -1040.00
03018             160.00    -1120.00
03019             160.00    -1200.00
03020             180.00    -1200.00
03021             200.00    -1280.00
03022             200.00    -1280.00
03023             220.00    -1280.00
03024             220.00    -1360.00
03025             220.00    -1440.00
03026             260.00    -1360.00
03027             260.00    -1440.00
03028             260.00    -1520.00
03029             260.00    -1520.00
03030             280.00    -1600.00
03031             280.00    -1600.00
03032             300.00    -1680.00
03033             300.00    -1680.00
03034             300.00    -1680.00
03035             320.00    -1760.00
03036             340.00    -1760.00
03037             340.00    -1760.00
03038             340.00    -1760.00
03039             360.00    -1840.00
03040             360.00    -1920.00
03041             360.00    -1920.00
03042             380.00    -2000.00
03043             380.00    -2000.00
03044             420.00    -2080.00
03045             420.00    -2080.00
03046             420.00    -2080.00
03047             420.00    -2240.00
03048             440.00    -2240.00
03049             460.00    -2240.00
03050             460.00    -2240.00
03051             500.00    -2320.00
03052             480.00    -2400.00
03053             500.00    -2400.00
03054             520.00    -2400.00
03055             520.00    -2480.00
03056             520.00    -2400.00
03057             520.00    -2480.00
03058             540.00    -2560.00
03059             560.00    -2560.00
03060             540.00    -2640.00
03061             580.00    -2640.00
03062             580.00    -2720.00
03063             580.00    -2720.00
03064             580.00    -2720.00
03065             600.00    -2800.00
03066             600.00    -2800.00
03067             620.00    -2880.00
03068             620.00    -2880.00
03069             620.00    -2960.00
03070             660.00    -2960.00
03071             660.00    -2960.00
03072             680.00    -3040.00
03073             680.00    -3040.00
03074             680.00    -3040.00
03075             680.00    -3120.00
03076             700.00    -3040.00
03077             700.00    -3200.00
03078             740.00    -3200.00
03079             720.00    -3200.00
03080             740.00    -3280.00
03081             740.00    -3360.00
03082             760.00    -3360.00
03083             780.00    -3360.00
03084             760.00    -3360.00
03085             780.00    -3360.00
03086             780.00    -3440.00
03087             820.00    -3520.00
03088             800.00    -3520.00
03089             820.00    -3520.00
03090             820.00    -3600.00
03091             840.00    -3520.00
03092             840.00    -3600.00
03093             840.00    -3680.00
03094             840.00    -3680.00
03095             860.00    -3680.00
03096             860.00    -3680.00
03097             860.00    -3760.00
03098             860.00    -3840.00
03099             900.00    -3840.00
03100             900.00    -3840.00
03101             900.00    -3840.00
03102             920.00    -3920.00
03103             920.00    -3920.00
03104             920.00    -3920.00
03105             920.00    -4000.00
03106             940.00    -4000.00
03107             940.00    -4000.00
03108             940.00    -4000.00
03109             960.00    -4080.00
03110             980.00    -4160.00
03111             980.00    -4160.00
03112             980.00    -4160.00
03113             980.00    -4240.00
03114            1000.00    -4240.00
03115            1000.00    -4240.00
03116            1000.00    -4240.00
03117            1000.00    -4320.00
03118            1020.00    -4320.00
03119            1020.00    -4320.00
03120            1040.00    -4400.00
03121            1060.00    -4400.00
03122            1060.00    -4480.00
03123            1060.00    -4480.00
03124            1060.00    -4480.00
03125            1080.00    -4480.00
03126            1080.00    -4560.00
03127            1100.00    -4560.00
03128            1100.00    -4640.00
03129            1100.00    -4560.00
03130            1120.00    -4640.00
03131            1100.00    -4640.00
03132            1140.00    -4720.00
03133            1120.00    -4640.00
03134            1140.00    -4720.00
03135            1160.00    -4720.00
03136            1160.00    -4800.00
03137            1160.00    -4880.00
03138            1180.00    -4800.00
03139            1180.00    -4800.00
03140            1180.00    -4880.00
03141            1180.00    -4880.00
03142            1200.00    -4880.00
03143            1180.00    -4960.00
03144            1220.00    -4960.00
03145            1220.00    -4960.00
03146            1220.00    -5040.00
03147            1220.00    -4960.00
03148            1240.00    -5040.00
03149            1240.00    -5040.00
03150            1240.00    -5120.00
03151            1260.00    -5120.00
03152            1260.00    -5120.00
03153            1260.00    -5120.00
03154            1260.00    -5200.00
03155            1260.00    -5120.00
03156            1280.00    -5200.00
03157            1300.00    -5200.00
03158            1300.00    -5200.00
03159            1300.00    -5280.00
03160            1300.00    -5280.00
03161            1320.00    -5280.00
03162            1320.00    -5280.00
03163            1300.00    -5280.00
03164            1320.00    -5280.00
03165            1320.00    -5360.00
03166            1320.00    -5360.00
03167            1320.00    -5360.00
03168            1320.00    -5360.00
03169            1320.00    -5360.00
03170            1320.00    -5360.00
03171            1360.00    -5440.00
03172            1320.00    -5440.00
03173            1360.00    -5440.00
03174            1380.00    -5440.00
03175            1340.00    -5520.00
03176            1380.00    -5520.00
03177            1380.00    -5440.00
03178            1380.00    -5520.00
03179            1380.00    -5600.00
03180            1380.00    -5520.00
03181            1400.00    -5600.00
03182            1400.00    -5600.00
03183            1400.00    -5600.00
03184            1400.00    -5600.00
03185            1400.00    -5600.00
03186            1400.00    -5600.00
03187            1400.00    -5600.00
03188            1420.00    -5600.00
03189            1420.00    -5760.00
03190            1420.00    -5760.00
03191            1420.00    -5760.00
03192            1440.00    -5760.00
03193            1420.00    -5760.00
03194            1460.00    -5760.00
03195            1440.00    -5760.00
03196            1460.00    -5760.00
03197            1460.00    -5840.00
03198            1480.00    -5760.00
03199            1460.00    -5760.00
03200            1460.00    -5840.00
03201            1480.00    -5760.00
03202            1460.00    -5760.00
03203            1480.00    -5840.00
03204            1480.00    -5840.00
03205            1480.00    -5840.00
03206            1480.00    -5840.00
03207            1480.00    -5840.00
03208            1500.00    -5840.00
03209            1480.00    -5840.00
03210            1480.00    -5840.00
03211            1500.00    -5840.00
03212            1500.00    -5840.00
03213            1500.00    -5840.00
03214            1500.00    -5920.00
03215            1500.00    -5840.00
03216            1500.00    -5920.00
03217            1500.00    -5920.00
03218            1500.00    -5920.00
03219            1540.00    -5920.00
03220            1520.00    -5920.00
03221            1540.00    -5920.00
03222            1520.00    -5920.00
03223            1540.00    -5920.00
03224            1540.00    -5920.00
03225            1540.00    -5920.00
03226            1540.00    -5920.00
03227            1540.00    -6000.00
03228            1540.00    -5920.00
03229            1520.00    -5920.00
03230            1540.00    -5920.00
03231            1540.00    -5920.00
03232            1540.00    -5920.00
03233            1540.00    -5920.00
03234            1540.00    -5920.00
03235            1540.00    -5920.00
03236            1520.00    -5920.00
03237            1540.00    -5920.00
03238            1540.00    -5920.00
03239            1540.00    -5920.00
03240            1540.00    -5920.00
03241            1540.00    -5920.00
03242            1540.00    -5920.00
03243            1540.00    -5920.00
03244            1540.00    -5920.00
03245            1540.00    -5920.00
03246            1540.00    -5920.00
03247            1540.00    -5920.00
03248            1540.00    -5920.00
03249            1560.00    -5920.00
03250            1540.00    -5920.00
03251            1540.00    -5920.00
03252            1540.00    -5920.00
03253            1540.00    -5920.00
03254            1540.00    -5920.00
03255            1540.00    -5920.00
03256            1540.00    -5920.00
03257            1540.00    -5920.00
03258            1540.00    -5920.00
03259            1540.00    -5920.00
03260            1540.00    -5920.00
03261            1560.00    -5920.00
03262            1540.00    -5920.00
03263            1540.00    -5840.00
03264            1540.00    -5920.00
03265            1540.00    -5920.00
03266            1540.00    -5920.00
03267            1560.00    -5920.00
03268            1540.00    -5920.00
03269            1540.00    -5920.00
03270            1540.00    -5920.00
03271            1540.00    -5840.00
03272            1540.00    -5840.00
03273            1540.00    -5840.00
03274            1540.00    -5840.00
03275            1540.00    -5840.00
03276            1540.00    -5840.00
03277            1540.00    -5760.00
03278            1540.00    -5840.00
03279            1540.00    -5840.00
03280            1540.00    -5760.00
03281            1540.00    -5760.00
03282            1540.00    -5760.00
03283            1520.00    -5760.00
03284            1540.00    -5760.00
03285            1540.00    -5760.00
03286            1520.00    -5680.00
03287            1540.00    -5760.00
03288            1540.00    -5600.00
03289            1520.00    -5680.00
03290            1500.00    -5680.00
03291            1500.00    -5680.00
03292            1500.00    -5680.00
03293            1500.00    -5600.00
03294            1500.00    -5600.00
03295            1500.00    -5600.00
03296            1480.00    -5600.00
03297            1480.00    -5600.00
03298            1480.00    -5600.00
03299            1480.00    -5520.00
03300            1480.00    -5520.00
03301            1480.00    -5520.00
03302            1480.00    -5520.00
03303            1460.00    -5520.00
03304            1460.00    -5520.00
03305            1480.00    -5440.00
03306            1460.00    -5440.00
03307            1460.00    -5440.00
03308            1460.00    -5440.00
03309            1460.00    -5440.00
03310            1460.00    -5360.00
03311            1440.00    -5440.00
03312            1440.00    -5360.00
03313            1420.00    -5360.00
03314            1440.00    -5360.00
03315            1420.00    -5280.00
03316            1420.00    -5280.00
03317            1400.00    -5280.00
03318            1420.00    -5280.00
03319            1420.00    -5280.00
03320            1400.00    -5280.00
03321            1400.00    -5200.00
03322            1400.00    -5200.00
03323            1400.00    -5200.00
03324            1400.00    -5200.00
03325            1400.00    -5120.00
03326            1400.00    -5120.00
03327            1380.00    -5120.00
03328            1400.00    -5120.00
03329            1380.00    -5120.00
03330            1380.00    -5040.00
03331            1380.00    -5040.00
03332            1380.00    -4960.00
03333            1380.00    -4960.00
03334            1360.00    -4960.00
03335            1380.00    -4880.00
03336            1360.00    -4960.00
03337            1340.00    -4880.00
03338            1340.00    -4880.00
03339            1320.00    -4880.00
03340            1340.00    -4800.00
03341            1320.00    -4800.00
03342            1320.00    -4800.00
03343            1300.00    -4800.00
03344            1320.00    -4800.00
03345            1300.00    -4720.00
03346            1300.00    -4800.00
03347            1300.00    -4640.00
03348            1280.00    -4640.00
03349            1280.00    -4640.00
03350            1280.00    -4560.00
03351            1260.00    -4560.00
03352            1260.00    -4560.00
03353            1260.00    -4480.00
03354            1260.00    -4400.00
03355            1240.00    -4480.00
03356            1240.00    -4400.00
03357            1240.00    -4480.00
03358            1220.00    -4320.00
03359            1220.00    -4320.00
03360            1220.00    -4400.00
03361            1220.00    -4320.00
03362            1220.00    -4320.00
03363            1200.00    -4320.00
03364            1200.00    -4240.00
03365            1180.00    -4240.00
03366            1200.00    -4240.00
03367            1160.00    -4160.00
03368            1160.00    -4160.00
03369            1160.00    -4160.00
03370            1160.00    -4000.00
03371            1160.00    -4160.00
03372            1140.00    -4000.00
03373            1120.00    -4000.00
03374            1140.00    -4000.00
03375            1100.00    -3920.00
03376            1140.00    -3920.00
03377            1100.00    -3920.00
03378            1100.00    -3840.00
03379            1080.00    -3840.00
03380            1080.00    -3840.00
03381            1080.00    -3840.00
03382            1080.00    -3840.00
03383            1080.00    -3680.00
03384            1060.00    -3680.00
03385            1060.00    -3680.00
03386            1060.00    -3600.00
03387            1060.00    -3680.00
03388            1060.00    -3600.00
03389            1020.00    -3600.00
03390            1020.00    -3600.00
03391            1040.00    -3520.00
03392            1020.00    -3520.00
03393            1000.00    -3520.00
03394             980.00    -3440.00
03395            1000.00    -3360.00
03396            1000.00    -3360.00
03397             980.00    -3360.00
03398             980.00    -3360.00
03399             980.00    -3280.00
03400             980.00    -3280.00
03401             940.00    -3200.00
03402             940.00    -3200.00
03403             920.00    -3200.00
03404             920.00    -3200.00
03405             920.00    -3040.00
03406             900.00    -3040.00
03407             900.00    -3040.00
03408             900.00    -2960.00
03409             900.00    -2960.00
03410             860.00    -2960.00
03411             900.00    -2880.00
03412             860.00    -2880.00
03413             840.00    -2800.00
03414             840.00    -2800.00
03415             840.00    -2720.00
03416             840.00    -2720.00
03417             820.00    -2720.00
03418             820.00    -2640.00
03419             820.00    -2640.00
03420             820.00    -2560.00
03421             820.00    -2560.00
03422             780.00    -2560.00
03423             780.00    -2480.00
03424             760.00    -2480.00
03425             760.00    -2400.00
03426             760.00    -2400.00
03427             740.00    -2400.00
03428             740.00    -2320.00
03429             720.00    -2320.00
03430             700.00    -2320.00
03431             700.00    -2240.00
03432             700.00    -2240.00
03433             680.00    -2240.00
03434             680.00    -2080.00
03435             680.00    -2080.00
03436             660.00    -2080.00
03437             660.00    -2080.00
03438             640.00    -2000.00
03439             640.00    -1920.00
03440             620.00    -1920.00
03441             600.00    -1840.00
03442             600.00    -1760.00
03443             600.00    -1840.00
03444             580.00    -1840.00
03445             580.00    -1760.00
03446             580.00    -1680.00
03447             540.00    -1680.00
03448             580.00    -1680.00
03449             540.00    -1680.00
03450             520.00    -1600.00
03451             520.00    -1600.00
03452             540.00    -1520.00
03453             520.00    -1440.00
03454             520.00    -1440.00
03455             520.00    -1440.00
03456             500.00    -1360.00
03457             480.00    -1280.00
03458             460.00    -1280.00
03459             460.00    -1280.00
03460             460.00    -1280.00
03461             440.00    -1200.00
03462             440.00    -1200.00
03463             440.00    -1120.00
03464             420.00    -1040.00
03465             420.00     -960.00
03466             420.00    -1040.00
03467             380.00     -960.00
03468             360.00     -960.00
03469             360.00     -880.00
03470             360.00     -960.00
03471             360.00     -880.00
03472             340.00     -720.00
03473             340.00     -800.00
03474             340.00     -720.00
03475             320.00     -640.00
03476             300.00     -720.00
03477             300.00     -640.00
03478             280.00     -640.00
03479             280.00     -480.00
03480             260.00     -480.00
03481             260.00     -480.00
03482             260.00     -400.00
03483             260.00     -400.00
03484             260.00     -400.00
03485             220.00     -320.00
03486             200.00     -320.00
03487             200.00     -240.00
03488             200.00     -160.00
03489             180.00     -160.00
03490             180.00      -80.00
03491             180.00      -80.00
03492             140.00      -80.00
03493             140.00        0.00
03494             120.00        0.00
03495             120.00        0.00
03496             120.00        0.00
03497             100.00      160.00
03498             100.00      160.00
03499              80.00      240.00
03500              60.00      240.00
03501              60.00      240.00
03502              60.00      320.00
03503              60.00      320.00
03504              40.00      400.00
03505              40.00      400.00
03506              40.00      480.00
03507              20.00      560.00
03508              20.00      480.00
03509             -40.00      400.00
03510             -40.00      560.00
03511             -20.00      800.00
03512             -40.00      800.00
03513             -60.00      560.00
03514             -60.00      800.00
03515             -40.00      880.00
03516            -100.00      720.00
03517             -60.00      800.00
03518             -60.00      960.00
03519            -100.00      960.00
03520            -120.00      880.00
03521            -100.00     1120.00
03522            -120.00     1040.00
03523            -140.00     1040.00
03524            -120.00     1200.00
03525            -140.00     1120.00
03526            -180.00     1120.00
03527            -180.00     1200.00
03528            -180.00     1280.00
03529            -200.00     1280.00
03530            -200.00     1440.00
03531            -220.00     1360.00
03532            -220.00     1440.00
03533            -220.00     1520.00
03534            -220.00     1520.00
03535            -260.00     1440.00
03536            -260.00     1600.00
03537            -280.00     1600.00
03538            -280.00     1600.00
03539            -280.00     1680.00
03540            -300.00     1760.00
03541            -300.00     1760.00
03542            -300.00     1840.00
03543            -300.00     1760.00
03544            -360.00     1840.00
03545            -340.00     1920.00
03546            -360.00     1920.00
03547            -360.00     1920.00
03548            -360.00     1920.00
03549            -380.00     2000.00
03550            -380.00     2080.00
03551            -400.00     2080.00
03552            -420.00     2160.00
03553            -420.00     2160.00
03554            -440.00     2160.00
03555            -440.00     2240.00
03556            -460.00     2240.00
03557            -460.00     2320.00
03558            -460.00     2400.00
03559            -460.00     2400.00
03560            -500.00     2400.00
03561            -500.00     2480.00
03562            -520.00     2480.00
03563            -520.00     2560.00
03564            -520.00     2560.00
03565            -540.00     2560.00
03566            -540.00     2640.00
03567            -540.00     2640.00
03568            -580.00     2720.00
03569            -580.00     2720.00
03570            -600.00     2800.00
03571            -600.00     2800.00
03572            -600.00     2800.00
03573            -600.00     2800.00
03574            -620.00     2880.00
03575            -620.00     2880.00
03576            -640.00     2960.00
03577            -640.00     2960.00
03578            -660.00     3040.00
03579            -680.00     3040.00
03580            -680.00     3040.00
03581            -680.00     3120.00
03582            -680.00     3200.00
03583            -700.00     3280.00
03584            -700.00     3200.00
03585            -700.00     3280.00
03586            -700.00     3360.00
03587            -700.00     3360.00
03588            -740.00     3360.00
03589            -740.00     3360.00
03590            -760.00     3360.00
03591            -760.00     3440.00
03592            -760.00     3520.00
03593            -780.00     3520.00
03594            -780.00     3600.00
03595            -780.00     3520.00
03596            -820.00     3600.00
03597            -820.00     3600.00
03598            -820.00     3680.00
03599            -840.00     3680.00
03600            -840.00     3680.00
03601            -840.00     3760.00
03602            -860.00     3760.00
03603            -860.00     3760.00
03604            -860.00     3760.00
03605            -860.00     3840.00
03606            -880.00     3840.00
03607            -880.00     3840.00
03608            -900.00     4000.00
03609            -900.00     4000.00
03610            -920.00     4000.00
03611            -920.00     4000.00
03612            -920.00     4080.00
03613            -920.00     4080.00
03614            -940.00     4080.00
03615            -940.00     4160.00
03616            -960.00     4160.00
03617            -940.00     4160.00
03618            -940.00     4240.00
03619            -980.00     4240.00
03620            -980.00     4240.00
03621           -1000.00     4320.00
03622           -1020.00     4320.00
03623           -1020.00     4320.00
03624           -1020.00     4320.00
03625           -1020.00     4400.00
03626           -1060.00     4400.00
03627           -1040.00     4400.00
03628           -1060.00     4480.00
03629           -1060.00     4480.00
03630           -1060.00     4560.00
03631           -1080.00     4560.00
03632           -1080.00     4640.00
03633           -1080.00     4640.00
03634           -1080.00     4560.00
03635           -1100.00     4720.00
03636           -1100.00     4640.00
03637           -1120.00     4720.00
03638           -1100.00     4720.00
03639           -1140.00     4720.00
03640           -1120.00     4800.00
03641           -1140.00     4800.00
03642           -1160.00     4800.00
03643           -1160.00     4800.00
03644           -1160.00     4960.00
03645           -1160.00     4880.00
03646           -1160.00     4960.00
03647           -1180.00     4960.00
03648           -1180.00     4960.00
03649           -1180.00     5040.00
03650           -1180.00     5040.00
03651           -1180.00     5040.00
03652           -1220.00     5040.00
03653           -1220.00     5040.00
03654           -1240.00     5120.00
03655           -1240.00     5120.00
03656           -1240.00     5120.00
03657           -1240.00     5120.00
03658           -1240.00     5120.00
03659           -1240.00     5120.00
03660           -1240.00     5200.00
03661           -1260.00     5200.00
03662           -1260.00     5200.00
03663           -1280.00     5280.00
03664           -1260.00     5280.00
03665           -1300.00     5280.00
03666           -1260.00     5280.00
03667           -1300.00     5360.00
03668           -1300.00     5280.00
03669           -1300.00     5360.00
03670           -1320.00     5360.00
03671           -1300.00     5440.00
03672           -1300.00     5440.00
03673           -1320.00     5360.00
03674           -1320.00     5440.00
03675           -1340.00     5440.00
03676           -1340.00     5440.00
03677           -1340.00     5520.00
03678           -1340.00     5440.00
03679           -1340.00     5440.00
03680           -1340.00     5520.00
03681           -1340.00     5600.00
03682           -1340.00     5520.00
03683           -1380.00     5600.00
03684           -1380.00     5600.00
03685           -1380.00     5600.00
03686           -1380.00     5600.00
03687           -1400.00     5600.00
03688           -1400.00     5680.00
03689           -1400.00     5600.00
03690           -1400.00     5680.00
03691           -1400.00     5680.00
03692           -1400.00     5760.00
03693           -1400.00     5680.00
03694           -1420.00     5680.00
03695           -1420.00     5680.00
03696           -1440.00     5840.00
03697           -1440.00     5760.00
03698           -1440.00     5840.00
03699           -1420.00     5840.00
03700           -1460.00     5760.00
03701           -1460.00     5840.00
03702           -1460.00     5840.00
03703           -1460.00     5840.00
03704           -1460.00     5920.00
03705           -1460.00     5840.00
03706           -1480.00     5920.00
03707           -1460.00     5920.00
03708           -1480.00     5920.00
03709           -1480.00     5920.00
03710           -1480.00     5920.00
03711           -1480.00     5920.00
03712           -1480.00     5920.00
03713           -1480.00     5920.00
03714           -1500.00     5920.00
03715           -1480.00     5920.00
03716           -1500.00     5920.00
03717           -1500.00     5920.00
03718           -1480.00     6000.00
03719           -1500.00     5920.00
03720           -1500.00     6000.00
03721           -1500.00     6000.00
03722           -1480.00     6000.00
03723           -1500.00     6000.00
03724           -1500.00     6000.00
03725           -1480.00     6000.00
03726           -1500.00     6000.00
03727           -1500.00     6000.00
03728           -1500.00     6000.00
03729           -1500.00     6000.00
03730           -1500.00     6080.00
03731           -1500.00     6000.00
03732           -1520.00     6000.00
03733           -1520.00     6000.00
03734           -1540.00     6080.00
03735           -1500.00     6000.00
03736           -1540.00     6080.00
03737           -1540.00     6000.00
03738           -1540.00     6000.00
03739           -1540.00     6080.00
03740           -1540.00     6000.00
03741           -1540.00     6080.00
03742           -1540.00     6080.00
03743           -1540.00     6000.00
03744           -1500.00     6000.00
03745           -1540.00     6080.00
03746           -1560.00     6080.00
03747           -1540.00     6080.00
03748           -1560.00     6000.00
03749           -1540.00     6080.00
03750           -1560.00     6000.00
03751           -1540.00     6080.00
03752           -1540.00     6080.00
03753           -1540.00     6080.00
03754           -1560.00     6080.00
03755           -1560.00     6080.00
03756           -1560.00     6000.00
03757           -1560.00     6000.00
03758           -1560.00     6080.00
03759           -1560.00     6000.00
03760           -1540.00     6080.00
03761           -1540.00     6000.00
03762           -1560.00     6000.00
03763           -1540.00     6000.00
03764           -1560.00     6000.00
03765           -1560.00     6000.00
03766           -1560.00     6000.00
03767           -1540.00     6000.00
03768           -1560.00     6000.00
03769           -1540.00     6000.00
03770           -1560.00     6000.00
03771           -1560.00     6000.00
03772           -1560.00     6000.00
03773           -1540.00     5920.00
03774           -1540.00     5920.00
03775           -1560.00     5920.00
03776           -1540.00     5920.00
03777           -1560.00     5920.00
03778           -1540.00     5920.00
03779           -1540.00     6000.00
03780           -1540.00     5920.00
03781           -1540.00     5920.00
03782           -1520.00     5920.00
03783           -1540.00     5840.00
03784           -1540.00     5920.00
03785           -1540.00     5920.00
03786           -1540.00     5920.00
03787           -1540.00     5920.00
03788           -1520.00     5920.00
03789           -1540.00     5840.00
03790           -1500.00     5840.00
03791           -1520.00     5920.00
03792           -1500.00     5840.00
03793           -1540.00     5840.00
03794           -1500.00     5760.00
03795           -1500.00     5840.00
03796           -1500.00     5840.00
03797           -1500.00     5760.00
03798           -1500.00     5840.00
03799           -1500.00     5760.00
03800           -1500.00     5760.00
03801           -1500.00     5760.00
03802           -1500.00     5680.00
03803           -1500.00     5680.00
03804           -1480.00     5680.00
03805           -1480.00     5680.00
03806           -1480.00     5760.00
03807           -1480.00     5680.00
03808           -1480.00     5600.00
03809           -1480.00     5680.00
03810           -1480.00     5600.00
03811           -1480.00     5600.00
03812           -1460.00     5680.00
03813           -1480.00     5600.00
03814           -1480.00     5520.00
03815           -1460.00     5520.00
03816           -1460.00     5600.00
03817           -1460.00     5600.00
03818           -1460.00     5440.00
03819           -1460.00     5440.00
03820           -1440.00     5440.00
03821           -1460.00     5440.00
03822           -1460.00     5440.00
03823           -1460.00     5360.00
03824           -1460.00     5360.00
03825           -1460.00     5360.00
03826           -1420.00     5360.00
03827           -1420.00     5360.00
03828           -1420.00     5280.00
03829           -1420.00     5280.00
03830           -1420.00     5280.00
03831           -1400.00     5200.00
03832           -1400.00     5280.00
03833           -1400.00     5280.00
03834           -1400.00     5280.00
03835           -1400.00     5120.00
03836           -1400.00     5120.00
03837           -1400.00     5120.00
03838           -1400.00     5120.00
03839           -1400.00     5120.00
03840           -1360.00     5040.00
03841           -1380.00     5040.00
03842           -1380.00     5040.00
03843           -1340.00     5040.00
03844           -1340.00     5040.00
03845           -1340.00     4960.00
03846           -1360.00     4960.00
03847           -1340.00     4960.00
03848           -1340.00     4960.00
03849           -1320.00     4960.00
03850           -1320.00     4960.00
03851           -1320.00     4880.00
03852           -1320.00     4880.00
03853           -1300.00     4800.00
03854           -1300.00     4800.00
03855           -1300.00     4800.00
03856           -1300.00     4800.00
03857           -1280.00     4800.00
03858           -1260.00     4720.00
03859           -1260.00     4720.00
03860           -1260.00     4640.00
03861           -1260.00     4720.00
03862           -1260.00     4640.00
03863           -1240.00     4560.00
03864           -1240.00     4640.00
03865           -1240.00     4480.00
03866           -1240.00     4480.00
03867           -1220.00     4480.00
03868           -1220.00     4480.00
03869           -1180.00     4400.00
03870           -1220.00     4400.00
03871           -1220.00     4400.00
03872           -1200.00     4400.00
03873           -1180.00     4400.00
03874           -1160.00     4320.00
03875           -1180.00     4320.00
03876           -1180.00     4320.00
03877           -1160.00     4240.00
03878           -1160.00     4160.00
03879           -1160.00     4160.00
03880           -1140.00     4160.00
03881           -1160.00     4160.00
03882           -1160.00     4080.00
03883           -1140.00     4000.00
03884           -1140.00     4080.00
03885           -1140.00     4000.00
03886           -1100.00     4000.00
03887           -1100.00     3920.00
03888           -1100.00     3920.00
03889           -1080.00     3840.00
03890           -1100.00     3840.00
03891           -1080.00     3840.00
03892           -1080.00     3840.00
03893           -1080.00     3760.00
03894           -1080.00     3760.00
03895           -1060.00     3680.00
03896           -1060.00     3680.00
03897           -1020.00     3680.00
03898           -1060.00     3680.00
03899           -1020.00     3520.00
03900           -1020.00     3600.00
03901           -1020.00     3520.00
03902           -1020.00     3520.00
03903           -1000.00     3520.00
03904           -1000.00     3440.00
03905           -1000.00     3360.00
03906            -980.00     3360.00
03907            -980.00     3360.00
03908            -940.00     3360.00
03909            -940.00     3360.00
03910            -940.00     3200.00
03911            -920.00     3280.00
03912            -920.00     3280.00
03913            -920.00     3280.00
03914            -920.00     3120.00
03915            -900.00     3120.00
03916            -920.00     3120.00
03917            -900.00     3120.00
03918            -880.00     3040.00
03919            -880.00     2960.00
03920            -860.00     2960.00
03921            -860.00     2960.00
03922            -860.00     2880.00
03923            -840.00     2880.00
03924            -840.00     2880.00
03925            -820.00     2800.00
03926            -840.00     2800.00
03927            -820.00     2720.00
03928            -800.00     2720.00
03929            -780.00     2720.00
03930            -780.00     2560.00
03931            -760.00     2640.00
03932            -760.00     2560.00
03933            -760.00     2560.00
03934            -760.00     2480.00
03935            -740.00     2480.00
03936            -740.00     2480.00
03937            -700.00     2400.00
03938            -720.00     2400.00
03939            -700.00     2400.00
03940            -700.00     2240.00
03941            -700.00     2320.00
03942            -700.00     2240.00
03943            -680.00     2240.00
03944            -660.00     2160.00
03945            -680.00     2160.00
03946            -660.00     2160.00
03947            -660.00     2080.00
03948            -660.00     2080.00
03949            -620.00     1920.00
03950            -620.00     1920.00
03951            -620.00     1920.00
03952            -600.00     1840.00
03953            -600.00     1840.00
03954            -600.00     1840.00
03955            -580.00     1840.00
03956            -580.00     1760.00
03957            -580.00     1760.00
03958            -540.00     1680.00
03959            -540.00     1600.00
03960            -540.00     1600.00
03961            -540.00     1600.00
03962            -520.00     1520.00
03963            -500.00     1520.00
03964            -500.00     1440.00
03965            -500.00     1440.00
03966            -480.00     1440.00
03967            -460.00     1360.00
03968            -460.00     1280.00
03969            -440.00     1280.00
03970            -460.00     1200.00
03971            -440.00     1280.00
03972            -420.00     1200.00
03973            -420.00     1200.00
03974            -420.00     1120.00
03975            -400.00     1120.00
03976            -380.00     1120.00
03977            -380.00     1040.00
03978            -380.00      960.00
03979            -360.00      960.00
03980            -340.00      880.00
03981            -340.00      800.00
03982            -340.00      800.00
03983            -320.00      800.00
03984            -300.00      800.00
03985            -300.00      720.00
03986            -300.00      640.00
03987            -300.00      640.00
03988            -280.00      560.00
03989            -280.00      560.00
03990            -260.00      560.00
03991            -260.00      560.00
03992            -220.00      400.00
03993            -220.00      400.00
03994            -220.00      320.00
03995            -200.00      320.00
03996            -200.00      320.00
03997            -180.00      240.00
03998            -200.00      160.00
03999            -180.00      160.00
04000            -160.00      160.00
04001            -160.00      160.00
04002            -120.00       80.00
04003            -140.00        0.00
04004            -120.00        0.00
04005            -120.00        0.00
04006            -100.00      -80.00
04007            -100.00      -80.00
04008            -100.00     -160.00
04009             -80.00     -160.00
04010             -60.00     -160.00
04011             -60.00     -240.00
04012             -60.00     -320.00
04013             -60.00     -320.00
04014             -40.00     -320.00
04015             -20.00     -320.00
04016             -20.00     -400.00
04017               0.00     -560.00
04018             -40.00     -640.00
04019             -20.00     -640.00
04020              20.00     -480.00
04021              40.00     -560.00
04022              20.00     -800.00
04023              20.00     -720.00
04024              60.00     -640.00
04025              40.00     -800.00
04026              60.00     -800.00
04027             100.00     -800.00
04028             100.00     -960.00
04029             100.00     -960.00
04030             120.00     -880.00
04031             120.00    -1040.00
04032             120.00    -1120.00
04033             140.00    -1040.00
04034             140.00    -1120.00
04035             180.00    -1200.00
04036             160.00    -1120.00
04037             180.00    -1200.00
04038             200.00    -1280.00
04039             200.00    -1280.00
04040             200.00    -1360.00
04041             200.00    -1360.00
04042             260.00    -1440.00
04043             240.00    -1440.00
04044             260.00    -1440.00
04045             260.00    -1440.00
04046             280.00    -1520.00
04047             260.00    -1600.00
04048             280.00    -1600.00
04049             300.00    -1600.00
04050             300.00    -1680.00
04051             340.00    -1680.00
04052             320.00    -1760.00
04053             340.00    -1760.00
04054             360.00    -1840.00
04055             360.00    -1840.00
04056             360.00    -1840.00
04057             360.00    -1920.00
04058             400.00    -1920.00
04059             380.00    -2000.00
04060             420.00    -2000.00
04061             440.00    -2080.00
04062             420.00    -2080.00
04063             440.00    -2080.00
04064             420.00    -2240.00
04065             440.00    -2240.00
04066             460.00    -2240.00
04067             460.00    -2320.00
04068             500.00    -2320.00
04069             500.00    -2400.00
04070             500.00    -2400.00
04071             520.00    -2400.00
04072             520.00    -2560.00
04073             520.00    -2480.00
04074             540.00    -2480.00
04075             540.00    -2560.00
04076             540.00    -2560.00
04077             560.00    -2640.00
04078             580.00    -2640.00
04079             580.00    -2720.00
04080             580.00    -2720.00
04081             580.00    -2720.00
04082             600.00    -2720.00
04083             600.00    -2880.00
04084             620.00    -2880.00
04085             620.00    -2880.00
04086             620.00    -2960.00
04087             660.00    -2960.00
04088             660.00    -2960.00
04089             660.00    -3040.00
04090             680.00    -3040.00
04091             680.00    -3120.00
04092             680.00    -3120.00
04093             680.00    -3200.00
04094             700.00    -3200.00
04095             700.00    -3200.00
04096             720.00    -3280.00
04097             740.00    -3280.00
04098             740.00    -3280.00
04099             760.00    -3360.00
04100             760.00    -3360.00
04101             760.00    -3360.00
04102             760.00    -3360.00
04103             780.00    -3520.00
04104             800.00    -3520.00
04105             780.00    -3520.00
04106             820.00    -3520.00
04107             820.00    -3600.00
04108             840.00    -3600.00
04109             840.00    -3680.00
04110             860.00    -3600.00
04111             860.00    -3680.00
04112             840.00    -3680.00
04113             860.00    -3840.00
04114             880.00    -3680.00
04115             900.00    -3840.00
04116             880.00    -3840.00
04117             920.00    -3840.00
04118             900.00    -3920.00
04119             920.00    -3920.00
04120             940.00    -3920.00
04121             920.00    -4000.00
04122             940.00    -4000.00
04123             940.00    -4000.00
04124             940.00    -4000.00
04125             980.00    -4160.00
04126             980.00    -4160.00
04127            1000.00    -4160.00
04128            1000.00    -4160.00
04129            1000.00    -4240.00
04130            1000.00    -4240.00
04131            1000.00    -4240.00
04132            1060.00    -4320.00
04133            1020.00    -4320.00
04134            1020.00    -4320.00
04135            1040.00    -4320.00
04136            1060.00    -4320.00
04137            1060.00    -4320.00
04138            1060.00    -4400.00
04139            1080.00    -4480.00
04140            1060.00    -4480.00
04141            1060.00    -4480.00
04142            1100.00    -4560.00
04143            1080.00    -4560.00
04144            1080.00    -4560.00
04145            1100.00    -4640.00
04146            1100.00    -4640.00
04147            1100.00    -4640.00
04148            1120.00    -4640.00
04149            1140.00    -4640.00
04150            1140.00    -4720.00
04151            1140.00    -4720.00
04152            1160.00    -4800.00
04153            1160.00    -4800.00
04154            1140.00    -4800.00
04155            1160.00    -4800.00
04156            1160.00    -4880.00
04157            1180.00    -4880.00
04158            1160.00    -4880.00
04159            1180.00    -4880.00
04160            1200.00    -4960.00
04161            1220.00    -4960.00
04162            1220.00    -4960.00
04163            1220.00    -4960.00
04164            1240.00    -5040.00
04165            1220.00    -5120.00
04166            1220.00    -5040.00
04167            1240.00    -5120.00
04168            1260.00    -5120.00
04169            1260.00    -5120.00
04170            1260.00    -5120.00
04171            1260.00    -5120.00
04172            1260.00    -5200.00
04173            1280.00    -5200.00
04174            1300.00    -5200.00
04175            1300.00    -5200.00
04176            1300.00    -5280.00
04177            1300.00    -5280.00
04178            1300.00    -5280.00
04179            1320.00    -5280.00
04180            1320.00    -5280.00
04181            1300.00    -5280.00
04182            1320.00    -5280.00
04183            1340.00    -5280.00
04184            1320.00    -5440.00
04185            1340.00    -5360.00
04186            1340.00    -5360.00
04187            1340.00    -5440.00
04188            1380.00    -5440.00
04189            1340.00    -5440.00
04190            1360.00    -5520.00
04191            1380.00    -5520.00
04192            1380.00    -5520.00
04193            1380.00    -5520.00
04194            1380.00    -5520.00
04195            1400.00    -5520.00
04196            1400.00    -5600.00
04197            1400.00    -5520.00
04198            1400.00    -5600.00
04199            1400.00    -5600.00
04200            1400.00    -5600.00
04201            1400.00    -5680.00
04202            1420.00    -5600.00
04203            1400.00    -5600.00
04204            1420.00    -5600.00
04205            1420.00    -5680.00
04206            1440.00    -5680.00
04207            1440.00    -5760.00
04208            1420.00    -5760.00
04209            1460.00    -5760.00
04210            1420.00    -5760.00
04211            1440.00    -5760.00
04212            1460.00    -5760.00
04213            1460.00    -5760.00
04214            1460.00    -5760.00
04215            1460.00    -5760.00
04216            1460.00    -5760.00
04217            1460.00    -5840.00
04218            1480.00    -5760.00
04219            1480.00    -5840.00
04220            1460.00    -5840.00
04221            1460.00    -5920.00
04222            1460.00    -5840.00
04223            1480.00    -5840.00
04224            1480.00    -5920.00
04225            1480.00    -5840.00
04226            1480.00    -5840.00
04227            1480.00    -5840.00
04228            1480.00    -5920.00
04229            1500.00    -5920.00
04230            1500.00    -5920.00
04231            1480.00    -5920.00
04232            1500.00    -5840.00
04233            1480.00    -5920.00
04234            1520.00    -5920.00
04235            1500.00    -5920.00
04236            1500.00    -5920.00
04237            1500.00    -5920.00
04238            1520.00    -5920.00
04239            1540.00    -5920.00
04240            1540.00    -5920.00
04241            1500.00    -5920.00
04242            1540.00    -5920.00
04243            1540.00    -5920.00
04244            1520.00    -5920.00
04245            1540.00    -5920.00
04246            1540.00    -5920.00
04247            1540.00    -5920.00
04248            1540.00    -5920.00
04249            1540.00    -5920.00
04250            1540.00    -5920.00
04251            1540.00    -5920.00
04252            1540.00    -5920.00
04253            1540.00    -5920.00
04254            1540.00    -5920.00
04255            1540.00    -5920.00
04256            1540.00    -5920.00
04257            1560.00    -5920.00
04258            1540.00    -6000.00
04259            1560.00    -5920.00
04260            1540.00    -6000.00
04261            1560.00    -5920.00
04262            1540.00    -5920.00
04263            1560.00    -5920.00
04264            1540.00    -5920.00
04265            1560.00    -5920.00
04266            1540.00    -5920.00
04267            1560.00    -5920.00
04268            1540.00    -5920.00
04269            1540.00    -5920.00
04270            1560.00    -5920.00
04271            1540.00    -5920.00
04272            1560.00    -5920.00
04273            1540.00    -5920.00
04274            1540.00    -5920.00
04275            1540.00    -5920.00
04276            1540.00    -5920.00
04277            1540.00    -5920.00
04278            1540.00    -5840.00
04279            1540.00    -5920.00
04280            1540.00    -5920.00
04281            1540.00    -5920.00
04282            1540.00    -5920.00
04283            1540.00    -5840.00
04284            1540.00    -5920.00
04285            1540.00    -5840.00
04286            1540.00    -5840.00
04287            1540.00    -5840.00
04288            1540.00    -5840.00
04289            1540.00    -5840.00
04290            1540.00    -5840.00
04291            1540.00    -5840.00
04292            1540.00    -5840.00
04293            1540.00    -5840.00
04294            1540.00    -5840.00
04295            1540.00    -5760.00
04296            1540.00    -5760.00
04297            1540.00    -5760.00
04298            1540.00    -5760.00
04299            1520.00    -5760.00
04300            1540.00    -5760.00
04301            1520.00    -5760.00
04302            1540.00    -5760.00
04303            1520.00    -5760.00
04304            1500.00    -5680.00
04305            1500.00    -5760.00
04306            1500.00    -5680.00
04307            1540.00    -5600.00
04308            1480.00    -5680.00
04309            1500.00    -5600.00
04310            1500.00    -5600.00
04311            1480.00    -5680.00
04312            1500.00    -5600.00
04313            1500.00    -5520.00
04314            1500.00    -5520.00
04315            1480.00    -5600.00
04316            1480.00    -5520.00
04317            1480.00    -5600.00
04318            1480.00    -5520.00
04319            1480.00    -5520.00
04320            1480.00    -5440.00
04321            1480.00    -5520.00
04322            1480.00    -5440.00
04323            1480.00    -5440.00
04324            1460.00    -5440.00
04325            1480.00    -5440.00
04326            1460.00    -5440.00
04327            1460.00    -5360.00
04328            1460.00    -5280.00
04329            1460.00    -5360.00
04330            1440.00    -5360.00
04331            1460.00    -5280.00
04332            1440.00    -5280.00
04333            1440.00    -5280.00
04334            1420.00    -5280.00
04335            1420.00    -5280.00
04336            1420.00    -5200.00
04337            1420.00    -5200.00
04338            1400.00    -5200.00
04339            1400.00    -5200.00
04340            1400.00    -5120.00
04341            1400.00    -5120.00
04342            1380.00    -5120.00
04343            1380.00    -5120.00
04344            1380.00    -5200.00
04345            1380.00    -5120.00
04346            1380.00    -5040.00
04347            1380.00    -5120.00
04348            1380.00    -5040.00
04349            1360.00    -4960.00
04350            1360.00    -4960.00
04351            1340.00    -4960.00
04352            1340.00    -4960.00
04353            1340.00    -4880.00
04354            1320.00    -4880.00
04355            1320.00    -4800.00
04356            1320.00    -4880.00
04357            1320.00    -4800.00
04358            1320.00    -4880.00
04359            1320.00    -4800.00
04360            1300.00    -4800.00
04361            1300.00    -4800.00
04362            1260.00    -4800.00
04363            1300.00    -4640.00
04364            1300.00    -4640.00
04365            1280.00    -4640.00
04366            1260.00    -4640.00
04367            1260.00    -4640.00
04368            1260.00    -4560.00
04369            1260.00    -4560.00
04370            1260.00    -4560.00
04371            1260.00    -4400.00
04372            1240.00    -4480.00
04373            1220.00    -4400.00
04374            1240.00    -4480.00
04375            1240.00    -4400.00
04376            1220.00    -4400.00
04377            1220.00    -4320.00
04378            1220.00    -4320.00
04379            1220.00    -4320.00
04380            1220.00    -4320.00
04381            1220.00    -4240.00
04382            1180.00    -4240.00
04383            1180.00    -4240.00
04384            1180.00    -4160.00
04385            1180.00    -4160.00
04386            1160.00    -4160.00
04387            1160.00    -4000.00
04388            1160.00    -4080.00
04389            1140.00    -4000.00
04390            1160.00    -4000.00
04391            1140.00    -4000.00
04392            1140.00    -4000.00
04393            1140.00    -3920.00
04394            1120.00    -3920.00
04395            1100.00    -3840.00
04396            1100.00    -3840.00
04397            1080.00    -3840.00
04398            1080.00    -3840.00
04399            1080.00    -3760.00
04400            1080.00    -3680.00
04401            1060.00    -3680.00
04402            1060.00    -3680.00
04403            1060.00    -3680.00
04404            1060.00    -3600.00
04405            1020.00    -3600.00
04406            1020.00    -3600.00
04407            1020.00    -3520.00
04408            1000.00    -3520.00
04409            1000.00    -3520.00
04410            1000.00    -3440.00
04411             980.00    -3440.00
04412             980.00    -3360.00
04413             960.00    -3360.00
04414             980.00    -3280.00
04415             940.00    -3360.00
04416             940.00    -3280.00
04417             960.00    -3200.00
04418             940.00    -3200.00
04419             920.00    -3200.00
04420             900.00    -3200.00
04421             920.00    -3200.00
04422             900.00    -3040.00
04423             900.00    -3040.00
04424             900.00    -2960.00
04425             900.00    -3040.00
04426             860.00    -2960.00
04427             860.00    -2960.00
04428             860.00    -2880.00
04429             840.00    -2880.00
04430             840.00    -2880.00
04431             840.00    -2800.00
04432             840.00    -2720.00
04433             820.00    -2720.00
04434             820.00    -2720.00
04435             820.00    -2720.00
04436             820.00    -2640.00
04437             780.00    -2640.00
04438             780.00    -2560.00
04439             780.00    -2480.00
04440             780.00    -2480.00
04441             760.00    -2480.00
04442             760.00    -2400.00
04443             740.00    -2400.00
04444             740.00    -2400.00
04445             740.00    -2320.00
04446             720.00    -2240.00
04447             680.00    -2320.00
04448             720.00    -2240.00
04449             700.00    -2240.00
04450             700.00    -2160.00
04451             680.00    -2080.00
04452             680.00    -2080.00
04453             660.00    -2080.00
04454             660.00    -2000.00
04455             660.00    -2000.00
04456             620.00    -1840.00
04457             640.00    -1840.00
04458             620.00    -1920.00
04459             600.00    -1840.00
04460             600.00    -1760.00
04461             600.00    -1760.00
04462             580.00    -1680.00
04463             580.00    -1680.00
04464             580.00    -1680.00
04465             580.00    -1600.00
04466             560.00    -1600.00
04467             540.00    -1600.00
04468             540.00    -1520.00
04469             520.00    -1520.00
04470             520.00    -1440.00
04471             520.00    -1440.00
04472             500.00    -1360.00
04473             460.00    -1360.00
04474             460.00    -1280.00
04475             460.00    -1360.00
04476             440.00    -1280.00
04477             440.00    -1200.00
04478             420.00    -1200.00
04479             420.00    -1120.00
04480             420.00    -1120.00
04481             400.00    -1120.00
04482             420.00    -1040.00
04483             380.00    -1040.00
04484             380.00     -960.00
04485             360.00     -960.00
04486             360.00     -880.00
04487             360.00     -800.00
04488             340.00     -800.00
04489             340.00     -800.00
04490             340.00     -720.00
04491             340.00     -720.00
04492             320.00     -640.00
04493             280.00     -640.00
04494             300.00     -640.00
04495             280.00     -560.00
04496             260.00     -480.00
04497             260.00     -480.00
04498             260.00     -480.00
04499             260.00     -400.00
04500             240.00     -320.00
04501             220.00     -400.00
04502             220.00     -320.00
04503             220.00     -320.00
04504             200.00     -240.00
04505             200.00     -160.00
04506             180.00     -160.00
04507             200.00      -80.00
04508             180.00      -80.00
04509             140.00      -80.00
04510             140.00        0.00
04511             120.00        0.00
04512             120.00        0.00
04513             120.00       80.00
04514             100.00      160.00
04515             100.00      160.00
04516             100.00      240.00
04517             100.00      240.00
04518              80.00      240.00
04519              60.00      320.00
04520              60.00      320.00
04521              40.00      320.00
04522              40.00      480.00
04523              40.00      480.00
04524              20.00      560.00
04525               0.00      480.00
04526             -40.00      400.00
04527               0.00      640.00
04528              20.00      800.00
04529             -40.00      640.00
04530             -60.00      640.00
04531             -40.00      880.00
04532             -40.00      800.00
04533            -100.00      800.00
04534             -60.00      960.00
04535             -60.00     1040.00
04536            -100.00      880.00
04537            -120.00      960.00
04538            -100.00     1120.00
04539            -140.00     1040.00
04540            -140.00     1040.00
04541            -140.00     1200.00
04542            -140.00     1120.00
04543            -180.00     1200.00
04544            -180.00     1280.00
04545            -200.00     1280.00
04546            -200.00     1280.00
04547            -200.00     1440.00
04548            -220.00     1280.00
04549            -220.00     1440.00
04550            -220.00     1520.00
04551            -260.00     1520.00
04552            -280.00     1520.00
04553            -260.00     1600.00
04554            -280.00     1600.00
04555            -300.00     1680.00
04556            -300.00     1600.00
04557            -300.00     1680.00
04558            -300.00     1760.00
04559            -320.00     1760.00
04560            -340.00     1840.00
04561            -360.00     1840.00
04562            -360.00     1920.00
04563            -360.00     2000.00
04564            -380.00     1920.00
04565            -380.00     2080.00
04566            -380.00     2080.00
04567            -380.00     2080.00
04568            -420.00     2160.00
04569            -420.00     2160.00
04570            -440.00     2240.00
04571            -440.00     2240.00
04572            -440.00     2240.00
04573            -440.00     2240.00
04574            -460.00     2400.00
04575            -460.00     2400.00
04576            -460.00     2480.00
04577            -480.00     2400.00
04578            -500.00     2480.00
04579            -520.00     2480.00
04580            -520.00     2560.00
04581            -540.00     2560.00
04582            -520.00     2560.00
04583            -540.00     2640.00
04584            -540.00     2720.00
04585            -580.00     2720.00
04586            -580.00     2720.00
04587            -580.00     2800.00
04588            -600.00     2800.00
04589            -620.00     2800.00
04590            -600.00     2880.00
04591            -600.00     2880.00
04592            -620.00     2960.00
04593            -620.00     3040.00
04594            -660.00     3040.00
04595            -640.00     3040.00
04596            -660.00     3040.00
04597            -660.00     3120.00
04598            -680.00     3120.00
04599            -680.00     3280.00
04600            -700.00     3280.00
04601            -700.00     3200.00
04602            -700.00     3280.00
04603            -740.00     3280.00
04604            -740.00     3360.00
04605            -740.00     3360.00
04606            -760.00     3360.00
04607            -760.00     3440.00
04608            -760.00     3440.00
04609            -780.00     3440.00
04610            -780.00     3520.00
04611            -800.00     3520.00
04612            -820.00     3520.00
04613            -820.00     3600.00
04614            -820.00     3680.00
04615            -820.00     3680.00
04616            -840.00     3680.00
04617            -840.00     3760.00
04618            -860.00     3760.00
04619            -860.00     3760.00
04620            -860.00     3760.00
04621            -860.00     3840.00
04622            -900.00     3840.00
04623            -900.00     3840.00
04624            -900.00     3840.00
04625            -920.00     4000.00
04626            -920.00     4000.00
04627            -920.00     4000.00
04628            -920.00     4080.00
04629            -940.00     4080.00
04630            -940.00     4080.00
04631            -940.00     4080.00
04632            -940.00     4080.00
04633            -960.00     4160.00
04634            -980.00     4160.00
04635            -980.00     4240.00
04636            -980.00     4240.00
04637            -980.00     4320.00
04638           -1000.00     4320.00
04639           -1000.00     4320.00
04640           -1000.00     4400.00
04641           -1020.00     4400.00
04642           -1020.00     4400.00
04643           -1020.00     4400.00
04644           -1040.00     4480.00
04645           -1060.00     4480.00
04646           -1060.00     4480.00
04647           -1080.00     4480.00
04648           -1080.00     4560.00
04649           -1080.00     4640.00
04650           -1080.00     4640.00
04651           -1080.00     4640.00
04652           -1080.00     4640.00
04653           -1100.00     4720.00
04654           -1100.00     4640.00
04655           -1120.00     4800.00
04656           -1100.00     4800.00
04657           -1140.00     4800.00
04658           -1140.00     4800.00
04659           -1140.00     4800.00
04660           -1140.00     4880.00
04661           -1160.00     4800.00
04662           -1160.00     4880.00
04663           -1160.00     4960.00
04664           -1180.00     4960.00
04665           -1180.00     5040.00
04666           -1180.00     4960.00
04667           -1200.00     5040.00
04668           -1200.00     5040.00
04669           -1220.00     5040.00
04670           -1220.00     5120.00
04671           -1220.00     5040.00
04672           -1220.00     5040.00
04673           -1240.00     5120.00
04674           -1240.00     5200.00
04675           -1260.00     5120.00
04676           -1240.00     5120.00
04677           -1260.00     5200.00
04678           -1260.00     5280.00
04679           -1260.00     5200.00
04680           -1280.00     5200.00
04681           -1300.00     5280.00
04682           -1280.00     5280.00
04683           -1260.00     5280.00
04684           -1320.00     5360.00
04685           -1300.00     5280.00
04686           -1320.00     5440.00
04687           -1320.00     5360.00
04688           -1320.00     5440.00
04689           -1320.00     5440.00
04690           -1340.00     5440.00
04691           -1320.00     5360.00
04692           -1340.00     5440.00
04693           -1340.00     5440.00
04694           -1340.00     5440.00
04695           -1340.00     5520.00
04696           -1340.00     5520.00
04697           -1340.00     5600.00
04698           -1340.00     5520.00
04699           -1380.00     5600.00
04700           -1380.00     5600.00
04701           -1380.00     5600.00
04702           -1380.00     5600.00
04703           -1380.00     5600.00
04704           -1380.00     5680.00
04705           -1380.00     5600.00
04706           -1400.00     5680.00
04707           -1400.00     5680.00
04708           -1400.00     5680.00
04709           -1400.00     5680.00
04710           -1400.00     5840.00
04711           -1420.00     5680.00
04712           -1400.00     5760.00
04713           -1400.00     5760.00
04714           -1420.00     5760.00
04715           -1420.00     5840.00
04716           -1420.00     5760.00
04717           -1420.00     5840.00
04718           -1460.00     5920.00
04719           -1420.00     5840.00
04720           -1460.00     5840.00
04721           -1460.00     5840.00
04722           -1460.00     5920.00
04723           -1460.00     5920.00
04724           -1460.00     5840.00
04725           -1480.00     5920.00
04726           -1460.00     5920.00
04727           -1480.00     5920.00
04728           -1480.00     5920.00
04729           -1480.00     5920.00
04730           -1480.00     5920.00
04731           -1480.00     5920.00
04732           -1480.00     6000.00
04733           -1500.00     5920.00
04734           -1500.00     5920.00
04735           -1500.00     6000.00
04736           -1500.00     6000.00
04737           -1500.00     6000.00
04738           -1500.00     6000.00
04739           -1500.00     5920.00
04740           -1500.00     5920.00
04741           -1500.00     6000.00
04742           -1500.00     6000.00
04743           -1500.00     5920.00
04744           -1500.00     6000.00
04745           -1520.00     6000.00
04746           -1540.00     6000.00
04747           -1540.00     6000.00
04748           -1520.00     6000.00
04749           -1540.00     6000.00
04750           -1540.00     6000.00
04751           -1520.00     6000.00
04752           -1540.00     6080.00
04753           -1540.00     6080.00
04754           -1540.00     6000.00
04755           -1540.00     6080.00
04756           -1560.00     6000.00
04757           -1560.00     6080.00
04758           -1540.00     6000.00
04759           -1540.00     6000.00
04760           -1540.00     6080.00
04761           -1560.00     6000.00
04762           -1540.00     6000.00
04763           -1540.00     6080.00
04764           -1560.00     6000.00
04765           -1560.00     6000.00
04766           -1540.00     6080.00
04767           -1560.00     6080.00
04768           -1560.00     6080.00
04769           -1540.00     6000.00
04770           -1540.00     6080.00
04771           -1540.00     6000.00
04772           -1560.00     6000.00
04773           -1540.00     6080.00
04774           -1560.00     6000.00
04775           -1540.00     6080.00
04776           -1540.00     6000.00
04777           -1540.00     6000.00
04778           -1540.00     6080.00
04779           -1540.00     6080.00
04780           -1560.00     6000.00
04781           -1540.00     6000.00
04782           -1540.00     6000.00
04783           -1540.00     6000.00
04784           -1560.00     6000.00
04785           -1540.00     6000.00
04786           -1560.00     5920.00
04787           -1540.00     6000.00
04788           -1540.00     6000.00
04789           -1540.00     6000.00
04790           -1540.00     6000.00
04791           -1540.00     5920.00
04792           -1540.00     6000.00
04793           -1560.00     6000.00
04794           -1540.00     6000.00
04795           -1560.00     5920.00
04796           -1540.00     5920.00
04797           -1540.00     5920.00
04798           -1540.00     5920.00
04799           -1540.00     5920.00
04800           -1560.00     5920.00
04801           -1560.00     5920.00
04802           -1540.00     5840.00
04803           -1520.00     5920.00
04804           -1540.00     5840.00
04805           -1540.00     5920.00
04806           -1540.00     5840.00
04807           -1540.00     5840.00
04808           -1520.00     5840.00
04809           -1520.00     5840.00
04810           -1500.00     5760.00
04811           -1540.00     5840.00
04812           -1500.00     5840.00
04813           -1500.00     5840.00
04814           -1500.00     5760.00
04815           -1500.00     5760.00
04816           -1500.00     5840.00
04817           -1520.00     5760.00
04818           -1500.00     5680.00
04819           -1500.00     5680.00
04820           -1500.00     5680.00
04821           -1480.00     5680.00
04822           -1500.00     5680.00
04823           -1480.00     5680.00
04824           -1500.00     5600.00
04825           -1480.00     5680.00
04826           -1480.00     5680.00
04827           -1480.00     5600.00
04828           -1500.00     5600.00
04829           -1460.00     5600.00
04830           -1480.00     5600.00
04831           -1480.00     5600.00
04832           -1460.00     5600.00
04833           -1460.00     5440.00
04834           -1460.00     5520.00
04835           -1460.00     5440.00
04836           -1460.00     5440.00
04837           -1440.00     5440.00
04838           -1440.00     5440.00
04839           -1420.00     5440.00
04840           -1420.00     5360.00
04841           -1420.00     5440.00
04842           -1420.00     5360.00
04843           -1420.00     5360.00
04844           -1400.00     5280.00
04845           -1420.00     5280.00
04846           -1400.00     5280.00
04847           -1400.00     5280.00
04848           -1400.00     5280.00
04849           -1400.00     5200.00
04850           -1400.00     5280.00
04851           -1400.00     5120.00
04852           -1380.00     5200.00
04853           -1380.00     5120.00
04854           -1380.00     5120.00
04855           -1380.00     5120.00
04856           -1360.00     5120.00
04857           -1380.00     5120.00
04858           -1340.00     5120.00
04859           -1340.00     5040.00
04860           -1340.00     5040.00
04861           -1340.00     5040.00
04862           -1340.00     5040.00
04863           -1340.00     4960.00
04864           -1340.00     4960.00
04865           -1340.00     4960.00
04866           -1320.00     4960.00
04867           -1320.00     4960.00
04868           -1340.00     4880.00
04869           -1320.00     4800.00
04870           -1320.00     4800.00
04871           -1320.00     4800.00
04872           -1300.00     4800.00
04873           -1300.00     4720.00
04874           -1300.00     4720.00
04875           -1260.00     4720.00
04876           -1280.00     4720.00
04877           -1300.00     4640.00
04878           -1260.00     4640.00
04879           -1260.00     4560.00
04880           -1260.00     4560.00
04881           -1260.00     4480.00
04882           -1240.00     4480.00
04883           -1240.00     4480.00
04884           -1240.00     4480.00
04885           -1240.00     4400.00
04886           -1200.00     4480.00
04887           -1220.00     4400.00
04888           -1220.00     4320.00
04889           -1200.00     4320.00
04890           -1200.00     4320.00
04891           -1180.00     4320.00
04892           -1160.00     4320.00
04893           -1180.00     4320.00
04894           -1160.00     4240.00
04895           -1160.00     4160.00
04896           -1160.00     4160.00
04897           -1140.00     4160.00
04898           -1160.00     4080.00
04899           -1140.00     4080.00
04900           -1120.00     4080.00
04901           -1120.00     4080.00
04902           -1120.00     4000.00
04903           -1100.00     4000.00
04904           -1080.00     4000.00
04905           -1100.00     3920.00
04906           -1100.00     3920.00
04907           -1080.00     3840.00
04908           -1080.00     3840.00
04909           -1080.00     3840.00
04910           -1080.00     3760.00
04911           -1040.00     3760.00
04912           -1060.00     3680.00
04913           -1020.00     3680.00
04914           -1020.00     3680.00
04915           -1020.00     3680.00
04916           -1020.00     3600.00
04917           -1000.00     3520.00
04918           -1000.00     3520.00
04919           -1000.00     3520.00
04920           -1000.00     3440.00
04921           -1000.00     3440.00
04922            -980.00     3360.00
04923            -980.00     3440.00
04924            -980.00     3360.00
04925            -940.00     3360.00
04926            -960.00     3360.00
04927            -940.00     3280.00
04928            -940.00     3200.00
04929            -940.00     3280.00
04930            -920.00     3200.00
04931            -920.00     3120.00
04932            -920.00     3120.00
04933            -900.00     3120.00
04934            -900.00     3040.00
04935            -880.00     3040.00
04936            -880.00     2960.00
04937            -880.00     2960.00
04938            -860.00     2880.00
04939            -860.00     2880.00
04940            -860.00     2800.00
04941            -860.00     2800.00
04942            -840.00     2800.00
04943            -820.00     2720.00
04944            -840.00     2720.00
04945            -820.00     2720.00
04946            -800.00     2640.00
04947            -780.00     2640.00
04948            -780.00     2640.00
04949            -780.00     2560.00
04950            -760.00     2560.00
04951            -760.00     2480.00
04952            -760.00     2480.00
04953            -720.00     2480.00
04954            -740.00     2400.00
04955            -700.00     2400.00
04956            -700.00     2400.00
04957            -700.00     2240.00
04958            -700.00     2240.00
04959            -700.00     2160.00
04960            -680.00     2240.00
04961            -680.00     2160.00
04962            -660.00     2160.00
04963            -620.00     2080.00
04964            -660.00     2000.00
04965            -620.00     2000.00
04966            -620.00     1920.00
04967            -600.00     1920.00
04968            -600.00     1840.00
04969            -600.00     1920.00
04970            -600.00     1840.00
04971            -600.00     1760.00
04972            -580.00     1760.00
04973            -560.00     1760.00
04974            -540.00     1600.00
04975            -540.00     1600.00
04976            -540.00     1600.00
04977            -520.00     1600.00
04978            -520.00     1520.00
04979            -500.00     1600.00
04980            -500.00     1440.00
04981            -480.00     1440.00
04982            -460.00     1440.00
04983            -460.00     1440.00
04984            -440.00     1280.00
04985            -460.00     1280.00
04986            -440.00     1280.00
04987            -440.00     1200.00
04988            -440.00     1200.00
04989            -420.00     1120.00
04990            -420.00     1120.00
04991            -380.00     1120.00
04992            -400.00     1040.00
04993            -380.00     1120.00
04994            -380.00      960.00
04995            -380.00      880.00
04996            -380.00      880.00
04997            -340.00      880.00
04998            -340.00      880.00
04999            -340.00      800.00
05000            -340.00      800.00
