Unit:(mV)
                     CH1         CH2
Frequency              ?  98.396 kHz
00001             180.00    -2400.00
00002             180.00    -2480.00
00003             180.00    -2560.00
00004             200.00    -2560.00
00005             180.00    -2640.00
00006             200.00    -2720.00
00007             200.00    -2720.00
00008             200.00    -2720.00
00009             200.00    -2800.00
00010             220.00    -2800.00
00011             200.00    -2880.00
00012             220.00    -2880.00
00013             220.00    -2880.00
00014             220.00    -2960.00
00015             220.00    -3040.00
00016             220.00    -3040.00
00017             220.00    -3120.00
00018             240.00    -3200.00
00019             220.00    -3200.00
00020             220.00    -3280.00
00021             240.00    -3280.00
00022             260.00    -3360.00
00023             260.00    -3280.00
00024             260.00    -3360.00
00025             260.00    -3360.00
00026             260.00    -3520.00
00027             280.00    -3440.00
00028             260.00    -3520.00
00029             260.00    -3600.00
00030             280.00    -3520.00
00031             260.00    -3600.00
00032             280.00    -3600.00
00033             280.00    -3680.00
00034             280.00    -3760.00
00035             300.00    -3760.00
00036             300.00    -3840.00
00037             300.00    -3840.00
00038             300.00    -3840.00
00039             300.00    -3920.00
00040             300.00    -3920.00
00041             340.00    -4000.00
00042             300.00    -4000.00
00043             340.00    -4000.00
00044             340.00    -4000.00
00045             340.00    -4160.00
00046             340.00    -4080.00
00047             340.00    -4160.00
00048             340.00    -4240.00
00049             360.00    -4240.00
00050             360.00    -4240.00
00051             360.00    -4320.00
00052             360.00    -4320.00
00053             360.00    -4320.00
00054             360.00    -4400.00
00055             360.00    -4480.00
00056             360.00    -4480.00
00057             380.00    -4560.00
00058             380.00    -4560.00
00059             400.00    -4560.00
00060             380.00    -4560.00
00061             380.00    -4640.00
00062             420.00    -4640.00
00063             420.00    -4720.00
00064             400.00    -4720.00
00065             420.00    -4800.00
00066             420.00    -4800.00
00067             420.00    -4800.00
00068             420.00    -4880.00
00069             420.00    -4880.00
00070             420.00    -4880.00
00071             420.00    -4960.00
00072             440.00    -4960.00
00073             420.00    -5040.00
00074             440.00    -4960.00
00075             440.00    -5120.00
00076             440.00    -5120.00
00077             440.00    -5120.00
00078             460.00    -5120.00
00079             440.00    -5200.00
00080             440.00    -5200.00
00081             460.00    -5200.00
00082             460.00    -5280.00
00083             460.00    -5280.00
00084             460.00    -5280.00
00085             460.00    -5280.00
00086             440.00    -5360.00
00087             460.00    -5440.00
00088             480.00    -5440.00
00089             480.00    -5440.00
00090             500.00    -5520.00
00091             480.00    -5440.00
00092             500.00    -5520.00
00093             500.00    -5520.00
00094             500.00    -5520.00
00095             500.00    -5600.00
00096             460.00    -5520.00
00097             480.00    -5600.00
00098             500.00    -5680.00
00099             520.00    -5760.00
00100             500.00    -5760.00
00101             500.00    -5840.00
00102             520.00    -5760.00
00103             520.00    -5840.00
00104             520.00    -5760.00
00105             520.00    -5760.00
00106             520.00    -5840.00
00107             520.00    -5920.00
00108             520.00    -5920.00
00109             520.00    -5920.00
00110             540.00    -5920.00
00111             520.00    -5920.00
00112             520.00    -5920.00
00113             540.00    -6080.00
00114             540.00    -6000.00
00115             540.00    -6080.00
00116             540.00    -6080.00
00117             580.00    -6080.00
00118             540.00    -6080.00
00119             580.00    -6080.00
00120             560.00    -6160.00
00121             580.00    -6160.00
00122             540.00    -6160.00
00123             580.00    -6160.00
00124             560.00    -6240.00
00125             580.00    -6240.00
00126             580.00    -6240.00
00127             580.00    -6240.00
00128             580.00    -6320.00
00129             580.00    -6240.00
00130             580.00    -6240.00
00131             600.00    -6320.00
00132             580.00    -6320.00
00133             580.00    -6400.00
00134             580.00    -6400.00
00135             600.00    -6400.00
00136             580.00    -6400.00
00137             600.00    -6400.00
00138             580.00    -6480.00
00139             600.00    -6400.00
00140             600.00    -6480.00
00141             620.00    -6480.00
00142             600.00    -6480.00
00143             620.00    -6560.00
00144             600.00    -6560.00
00145             620.00    -6560.00
00146             600.00    -6560.00
00147             600.00    -6560.00
00148             620.00    -6560.00
00149             620.00    -6560.00
00150             620.00    -6560.00
00151             600.00    -6560.00
00152             620.00    -6720.00
00153             620.00    -6640.00
00154             620.00    -6640.00
00155             620.00    -6640.00
00156             600.00    -6720.00
00157             620.00    -6640.00
00158             600.00    -6720.00
00159             620.00    -6720.00
00160             620.00    -6720.00
00161             620.00    -6720.00
00162             620.00    -6720.00
00163             620.00    -6720.00
00164             620.00    -6720.00
00165             620.00    -6720.00
00166             660.00    -6800.00
00167             620.00    -6720.00
00168             620.00    -6720.00
00169             660.00    -6720.00
00170             660.00    -6720.00
00171             640.00    -6800.00
00172             620.00    -6800.00
00173             640.00    -6800.00
00174             660.00    -6720.00
00175             660.00    -6800.00
00176             660.00    -6800.00
00177             620.00    -6800.00
00178             660.00    -6800.00
00179             660.00    -6800.00
00180             660.00    -6800.00
00181             660.00    -6800.00
00182             660.00    -6800.00
00183             660.00    -6880.00
00184             660.00    -6880.00
00185             660.00    -6800.00
00186             660.00    -6800.00
00187             660.00    -6880.00
00188             660.00    -6880.00
00189             660.00    -6880.00
00190             680.00    -6800.00
00191             660.00    -6880.00
00192             680.00    -6880.00
00193             660.00    -6800.00
00194             680.00    -6800.00
00195             660.00    -6880.00
00196             660.00    -6800.00
00197             680.00    -6880.00
00198             660.00    -6880.00
00199             660.00    -6880.00
00200             660.00    -6800.00
00201             680.00    -6880.00
00202             680.00    -6800.00
00203             660.00    -6800.00
00204             680.00    -6800.00
00205             680.00    -6800.00
00206             680.00    -6800.00
00207             680.00    -6800.00
00208             680.00    -6800.00
00209             680.00    -6800.00
00210             660.00    -6800.00
00211             660.00    -6800.00
00212             680.00    -6800.00
00213             680.00    -6800.00
00214             680.00    -6800.00
00215             660.00    -6720.00
00216             660.00    -6800.00
00217             660.00    -6720.00
00218             660.00    -6800.00
00219             660.00    -6800.00
00220             660.00    -6720.00
00221             660.00    -6800.00
00222             680.00    -6800.00
00223             660.00    -6720.00
00224             660.00    -6720.00
00225             660.00    -6720.00
00226             660.00    -6720.00
00227             680.00    -6720.00
00228             660.00    -6720.00
00229             660.00    -6720.00
00230             660.00    -6720.00
00231             660.00    -6720.00
00232             660.00    -6640.00
00233             660.00    -6640.00
00234             660.00    -6640.00
00235             660.00    -6640.00
00236             660.00    -6560.00
00237             660.00    -6640.00
00238             660.00    -6560.00
00239             660.00    -6560.00
00240             660.00    -6560.00
00241             660.00    -6560.00
00242             660.00    -6560.00
00243             660.00    -6560.00
00244             640.00    -6560.00
00245             660.00    -6480.00
00246             660.00    -6480.00
00247             660.00    -6480.00
00248             660.00    -6400.00
00249             620.00    -6480.00
00250             640.00    -6480.00
00251             640.00    -6400.00
00252             660.00    -6400.00
00253             660.00    -6400.00
00254             660.00    -6320.00
00255             660.00    -6400.00
00256             620.00    -6320.00
00257             660.00    -6320.00
00258             660.00    -6240.00
00259             620.00    -6240.00
00260             660.00    -6240.00
00261             620.00    -6240.00
00262             640.00    -6240.00
00263             660.00    -6240.00
00264             660.00    -6160.00
00265             640.00    -6160.00
00266             620.00    -6160.00
00267             620.00    -6080.00
00268             620.00    -6080.00
00269             620.00    -6080.00
00270             620.00    -6080.00
00271             620.00    -6080.00
00272             620.00    -6000.00
00273             620.00    -6080.00
00274             620.00    -6000.00
00275             600.00    -6000.00
00276             620.00    -5920.00
00277             600.00    -5920.00
00278             620.00    -5920.00
00279             620.00    -5920.00
00280             600.00    -5840.00
00281             600.00    -5840.00
00282             600.00    -5840.00
00283             600.00    -5840.00
00284             600.00    -5840.00
00285             580.00    -5760.00
00286             580.00    -5760.00
00287             580.00    -5760.00
00288             580.00    -5760.00
00289             580.00    -5600.00
00290             580.00    -5600.00
00291             580.00    -5600.00
00292             580.00    -5600.00
00293             580.00    -5520.00
00294             580.00    -5520.00
00295             580.00    -5520.00
00296             580.00    -5520.00
00297             580.00    -5440.00
00298             580.00    -5440.00
00299             580.00    -5440.00
00300             580.00    -5440.00
00301             580.00    -5440.00
00302             580.00    -5360.00
00303             540.00    -5280.00
00304             580.00    -5280.00
00305             580.00    -5200.00
00306             540.00    -5280.00
00307             540.00    -5280.00
00308             540.00    -5200.00
00309             540.00    -5120.00
00310             540.00    -5120.00
00311             560.00    -5120.00
00312             540.00    -5120.00
00313             540.00    -5120.00
00314             520.00    -5040.00
00315             540.00    -5040.00
00316             520.00    -4960.00
00317             520.00    -4960.00
00318             540.00    -4880.00
00319             520.00    -4800.00
00320             540.00    -4880.00
00321             520.00    -4880.00
00322             520.00    -4800.00
00323             500.00    -4720.00
00324             520.00    -4720.00
00325             520.00    -4720.00
00326             500.00    -4640.00
00327             520.00    -4560.00
00328             500.00    -4640.00
00329             500.00    -4560.00
00330             520.00    -4560.00
00331             520.00    -4480.00
00332             500.00    -4400.00
00333             500.00    -4400.00
00334             500.00    -4400.00
00335             500.00    -4320.00
00336             500.00    -4400.00
00337             500.00    -4320.00
00338             500.00    -4240.00
00339             460.00    -4240.00
00340             460.00    -4240.00
00341             460.00    -4160.00
00342             460.00    -4160.00
00343             460.00    -4080.00
00344             460.00    -4000.00
00345             440.00    -4000.00
00346             440.00    -4000.00
00347             440.00    -4000.00
00348             440.00    -3920.00
00349             440.00    -3840.00
00350             440.00    -3840.00
00351             420.00    -3840.00
00352             420.00    -3760.00
00353             420.00    -3760.00
00354             420.00    -3680.00
00355             420.00    -3680.00
00356             420.00    -3600.00
00357             420.00    -3680.00
00358             420.00    -3600.00
00359             420.00    -3520.00
00360             380.00    -3520.00
00361             400.00    -3440.00
00362             420.00    -3520.00
00363             380.00    -3440.00
00364             380.00    -3360.00
00365             380.00    -3360.00
00366             380.00    -3360.00
00367             400.00    -3280.00
00368             380.00    -3200.00
00369             380.00    -3200.00
00370             360.00    -3200.00
00371             360.00    -3120.00
00372             360.00    -3120.00
00373             360.00    -3040.00
00374             360.00    -3040.00
00375             360.00    -2960.00
00376             360.00    -2960.00
00377             360.00    -2960.00
00378             340.00    -2880.00
00379             360.00    -2800.00
00380             340.00    -2720.00
00381             340.00    -2720.00
00382             340.00    -2640.00
00383             340.00    -2640.00
00384             340.00    -2640.00
00385             340.00    -2640.00
00386             300.00    -2560.00
00387             340.00    -2560.00
00388             300.00    -2480.00
00389             300.00    -2400.00
00390             300.00    -2400.00
00391             300.00    -2320.00
00392             300.00    -2320.00
00393             300.00    -2240.00
00394             280.00    -2240.00
00395             300.00    -2240.00
00396             300.00    -2080.00
00397             280.00    -2160.00
00398             280.00    -2080.00
00399             260.00    -2000.00
00400             300.00    -2000.00
00401             260.00    -1920.00
00402             260.00    -1840.00
00403             260.00    -1840.00
00404             260.00    -1760.00
00405             260.00    -1840.00
00406             220.00    -1760.00
00407             260.00    -1680.00
00408             260.00    -1680.00
00409             220.00    -1600.00
00410             220.00    -1600.00
00411             220.00    -1600.00
00412             220.00    -1440.00
00413             220.00    -1440.00
00414             200.00    -1440.00
00415             200.00    -1440.00
00416             200.00    -1360.00
00417             180.00    -1280.00
00418             200.00    -1280.00
00419             180.00    -1280.00
00420             180.00    -1120.00
00421             200.00    -1120.00
00422             180.00    -1120.00
00423             160.00    -1040.00
00424             180.00    -1040.00
00425             180.00     -960.00
00426             180.00     -960.00
00427             160.00     -880.00
00428             140.00     -800.00
00429             140.00     -800.00
00430             140.00     -800.00
00431             140.00     -720.00
00432             140.00     -640.00
00433             140.00     -640.00
00434             140.00     -640.00
00435             120.00     -560.00
00436             120.00     -480.00
00437             100.00     -480.00
00438             120.00     -400.00
00439             100.00     -400.00
00440             100.00     -320.00
00441             100.00     -240.00
00442             100.00     -240.00
00443             100.00     -160.00
00444             100.00     -160.00
00445             100.00      -80.00
00446              60.00      -80.00
00447              80.00      -80.00
00448              60.00        0.00
00449              60.00        0.00
00450              60.00       80.00
00451              60.00      160.00
00452              60.00      160.00
00453              60.00      160.00
00454              60.00      240.00
00455              40.00      320.00
00456              40.00      320.00
00457              40.00      320.00
00458              40.00      400.00
00459              40.00      480.00
00460              40.00      480.00
00461              40.00      640.00
00462              40.00      560.00
00463             -20.00      560.00
00464              20.00      560.00
00465              20.00      880.00
00466              40.00      880.00
00467             -20.00      720.00
00468              20.00      880.00
00469              20.00      960.00
00470             -20.00      880.00
00471             -20.00      880.00
00472              20.00     1120.00
00473               0.00     1120.00
00474             -40.00      960.00
00475             -20.00     1120.00
00476             -20.00     1200.00
00477             -60.00     1200.00
00478             -40.00     1280.00
00479             -20.00     1280.00
00480             -60.00     1280.00
00481             -60.00     1360.00
00482             -60.00     1520.00
00483             -60.00     1440.00
00484             -60.00     1520.00
00485             -60.00     1600.00
00486             -80.00     1520.00
00487             -80.00     1680.00
00488            -100.00     1600.00
00489            -100.00     1680.00
00490             -80.00     1840.00
00491            -100.00     1760.00
00492            -100.00     1840.00
00493            -100.00     1920.00
00494            -120.00     1920.00
00495            -120.00     1920.00
00496            -120.00     2080.00
00497            -120.00     2000.00
00498            -120.00     2080.00
00499            -120.00     2160.00
00500            -140.00     2160.00
00501            -140.00     2240.00
00502            -140.00     2240.00
00503            -140.00     2240.00
00504            -140.00     2400.00
00505            -140.00     2400.00
00506            -160.00     2480.00
00507            -180.00     2480.00
00508            -140.00     2480.00
00509            -180.00     2560.00
00510            -180.00     2560.00
00511            -180.00     2640.00
00512            -180.00     2720.00
00513            -200.00     2720.00
00514            -200.00     2720.00
00515            -180.00     2800.00
00516            -200.00     2800.00
00517            -200.00     2800.00
00518            -200.00     2880.00
00519            -200.00     2880.00
00520            -220.00     3040.00
00521            -220.00     3040.00
00522            -220.00     3040.00
00523            -220.00     3120.00
00524            -220.00     3120.00
00525            -260.00     3120.00
00526            -220.00     3280.00
00527            -240.00     3280.00
00528            -240.00     3280.00
00529            -240.00     3360.00
00530            -260.00     3360.00
00531            -240.00     3440.00
00532            -260.00     3440.00
00533            -280.00     3440.00
00534            -260.00     3520.00
00535            -260.00     3520.00
00536            -280.00     3600.00
00537            -280.00     3680.00
00538            -280.00     3680.00
00539            -280.00     3680.00
00540            -280.00     3760.00
00541            -300.00     3760.00
00542            -300.00     3760.00
00543            -300.00     3760.00
00544            -300.00     3840.00
00545            -300.00     3920.00
00546            -320.00     4000.00
00547            -320.00     4000.00
00548            -300.00     4000.00
00549            -340.00     4000.00
00550            -340.00     4080.00
00551            -340.00     4080.00
00552            -340.00     4080.00
00553            -340.00     4160.00
00554            -340.00     4240.00
00555            -340.00     4320.00
00556            -340.00     4320.00
00557            -380.00     4320.00
00558            -360.00     4320.00
00559            -380.00     4400.00
00560            -380.00     4400.00
00561            -360.00     4480.00
00562            -380.00     4480.00
00563            -360.00     4480.00
00564            -380.00     4560.00
00565            -360.00     4640.00
00566            -380.00     4640.00
00567            -380.00     4640.00
00568            -380.00     4720.00
00569            -380.00     4720.00
00570            -380.00     4800.00
00571            -400.00     4800.00
00572            -420.00     4880.00
00573            -420.00     4800.00
00574            -420.00     4880.00
00575            -420.00     4880.00
00576            -440.00     4960.00
00577            -420.00     4960.00
00578            -420.00     4960.00
00579            -420.00     5040.00
00580            -420.00     5040.00
00581            -440.00     5120.00
00582            -440.00     5120.00
00583            -440.00     5120.00
00584            -440.00     5200.00
00585            -440.00     5200.00
00586            -440.00     5120.00
00587            -440.00     5280.00
00588            -460.00     5280.00
00589            -440.00     5280.00
00590            -440.00     5280.00
00591            -440.00     5360.00
00592            -460.00     5360.00
00593            -460.00     5440.00
00594            -460.00     5440.00
00595            -460.00     5440.00
00596            -460.00     5600.00
00597            -480.00     5520.00
00598            -460.00     5600.00
00599            -480.00     5600.00
00600            -480.00     5600.00
00601            -460.00     5600.00
00602            -500.00     5600.00
00603            -500.00     5680.00
00604            -500.00     5680.00
00605            -500.00     5760.00
00606            -500.00     5840.00
00607            -520.00     5760.00
00608            -500.00     5760.00
00609            -540.00     5840.00
00610            -520.00     5920.00
00611            -520.00     5920.00
00612            -540.00     5920.00
00613            -520.00     5920.00
00614            -520.00     5920.00
00615            -540.00     6000.00
00616            -520.00     6000.00
00617            -540.00     6000.00
00618            -540.00     6000.00
00619            -540.00     6000.00
00620            -560.00     6080.00
00621            -540.00     6080.00
00622            -560.00     6080.00
00623            -540.00     6160.00
00624            -540.00     6160.00
00625            -580.00     6160.00
00626            -540.00     6240.00
00627            -580.00     6240.00
00628            -560.00     6240.00
00629            -580.00     6240.00
00630            -580.00     6240.00
00631            -560.00     6240.00
00632            -580.00     6320.00
00633            -580.00     6320.00
00634            -560.00     6320.00
00635            -580.00     6400.00
00636            -580.00     6400.00
00637            -580.00     6400.00
00638            -580.00     6400.00
00639            -600.00     6400.00
00640            -580.00     6400.00
00641            -600.00     6400.00
00642            -580.00     6480.00
00643            -600.00     6480.00
00644            -600.00     6480.00
00645            -600.00     6560.00
00646            -600.00     6560.00
00647            -600.00     6560.00
00648            -600.00     6560.00
00649            -600.00     6560.00
00650            -600.00     6560.00
00651            -600.00     6560.00
00652            -600.00     6560.00
00653            -600.00     6640.00
00654            -600.00     6640.00
00655            -620.00     6720.00
00656            -620.00     6640.00
00657            -600.00     6640.00
00658            -620.00     6640.00
00659            -620.00     6720.00
00660            -620.00     6720.00
00661            -620.00     6720.00
00662            -620.00     6720.00
00663            -620.00     6720.00
00664            -600.00     6720.00
00665            -620.00     6720.00
00666            -620.00     6720.00
00667            -620.00     6800.00
00668            -620.00     6720.00
00669            -620.00     6880.00
00670            -620.00     6720.00
00671            -620.00     6880.00
00672            -620.00     6880.00
00673            -640.00     6800.00
00674            -620.00     6880.00
00675            -660.00     6880.00
00676            -640.00     6880.00
00677            -660.00     6880.00
00678            -660.00     6800.00
00679            -660.00     6880.00
00680            -660.00     6880.00
00681            -660.00     6880.00
00682            -680.00     6960.00
00683            -660.00     6880.00
00684            -660.00     6880.00
00685            -660.00     6880.00
00686            -660.00     6880.00
00687            -660.00     6880.00
00688            -660.00     6880.00
00689            -660.00     6880.00
00690            -660.00     6880.00
00691            -660.00     6880.00
00692            -660.00     6880.00
00693            -660.00     6960.00
00694            -680.00     6880.00
00695            -660.00     6960.00
00696            -680.00     6960.00
00697            -660.00     6960.00
00698            -680.00     6960.00
00699            -660.00     6960.00
00700            -660.00     6880.00
00701            -660.00     6960.00
00702            -660.00     6960.00
00703            -660.00     6880.00
00704            -660.00     6880.00
00705            -660.00     6880.00
00706            -660.00     6960.00
00707            -680.00     6960.00
00708            -680.00     6880.00
00709            -660.00     6880.00
00710            -660.00     6880.00
00711            -680.00     6880.00
00712            -660.00     6880.00
00713            -660.00     6960.00
00714            -660.00     6880.00
00715            -660.00     6880.00
00716            -660.00     6880.00
00717            -660.00     6960.00
00718            -680.00     6880.00
00719            -660.00     6880.00
00720            -660.00     6880.00
00721            -660.00     6880.00
00722            -660.00     6880.00
00723            -660.00     6880.00
00724            -660.00     6880.00
00725            -660.00     6880.00
00726            -680.00     6880.00
00727            -680.00     6880.00
00728            -680.00     6880.00
00729            -660.00     6880.00
00730            -660.00     6880.00
00731            -660.00     6880.00
00732            -640.00     6880.00
00733            -680.00     6720.00
00734            -640.00     6880.00
00735            -660.00     6720.00
00736            -660.00     6720.00
00737            -660.00     6720.00
00738            -660.00     6720.00
00739            -660.00     6720.00
00740            -660.00     6720.00
00741            -680.00     6720.00
00742            -680.00     6720.00
00743            -660.00     6640.00
00744            -680.00     6720.00
00745            -680.00     6720.00
00746            -680.00     6640.00
00747            -660.00     6640.00
00748            -660.00     6640.00
00749            -660.00     6560.00
00750            -640.00     6640.00
00751            -660.00     6640.00
00752            -660.00     6640.00
00753            -660.00     6560.00
00754            -680.00     6560.00
00755            -660.00     6560.00
00756            -660.00     6560.00
00757            -660.00     6560.00
00758            -660.00     6560.00
00759            -660.00     6480.00
00760            -660.00     6560.00
00761            -640.00     6560.00
00762            -660.00     6400.00
00763            -660.00     6400.00
00764            -660.00     6400.00
00765            -640.00     6400.00
00766            -640.00     6320.00
00767            -660.00     6400.00
00768            -620.00     6320.00
00769            -620.00     6320.00
00770            -620.00     6320.00
00771            -620.00     6320.00
00772            -620.00     6320.00
00773            -620.00     6320.00
00774            -620.00     6240.00
00775            -620.00     6240.00
00776            -620.00     6240.00
00777            -620.00     6240.00
00778            -620.00     6160.00
00779            -620.00     6160.00
00780            -600.00     6160.00
00781            -620.00     6080.00
00782            -620.00     6080.00
00783            -620.00     6160.00
00784            -600.00     6000.00
00785            -600.00     6000.00
00786            -620.00     6000.00
00787            -600.00     6000.00
00788            -600.00     6000.00
00789            -600.00     5920.00
00790            -600.00     5920.00
00791            -600.00     5920.00
00792            -600.00     5920.00
00793            -600.00     5920.00
00794            -600.00     5760.00
00795            -600.00     5840.00
00796            -600.00     5840.00
00797            -600.00     5760.00
00798            -580.00     5760.00
00799            -580.00     5680.00
00800            -600.00     5680.00
00801            -580.00     5680.00
00802            -600.00     5600.00
00803            -580.00     5600.00
00804            -600.00     5600.00
00805            -580.00     5600.00
00806            -600.00     5600.00
00807            -600.00     5440.00
00808            -580.00     5440.00
00809            -580.00     5520.00
00810            -580.00     5360.00
00811            -580.00     5440.00
00812            -580.00     5360.00
00813            -580.00     5360.00
00814            -580.00     5360.00
00815            -560.00     5280.00
00816            -560.00     5280.00
00817            -540.00     5280.00
00818            -540.00     5200.00
00819            -540.00     5200.00
00820            -540.00     5120.00
00821            -540.00     5120.00
00822            -540.00     5120.00
00823            -540.00     5040.00
00824            -540.00     5120.00
00825            -540.00     5040.00
00826            -540.00     4960.00
00827            -540.00     4960.00
00828            -520.00     4960.00
00829            -520.00     4880.00
00830            -520.00     4960.00
00831            -520.00     4880.00
00832            -520.00     4800.00
00833            -520.00     4800.00
00834            -500.00     4720.00
00835            -500.00     4720.00
00836            -520.00     4720.00
00837            -520.00     4720.00
00838            -520.00     4640.00
00839            -500.00     4640.00
00840            -500.00     4640.00
00841            -500.00     4480.00
00842            -460.00     4480.00
00843            -460.00     4480.00
00844            -480.00     4400.00
00845            -460.00     4400.00
00846            -460.00     4320.00
00847            -460.00     4320.00
00848            -460.00     4320.00
00849            -460.00     4320.00
00850            -460.00     4240.00
00851            -460.00     4160.00
00852            -440.00     4160.00
00853            -460.00     4160.00
00854            -440.00     4080.00
00855            -440.00     4080.00
00856            -440.00     4000.00
00857            -440.00     4000.00
00858            -440.00     4000.00
00859            -440.00     3920.00
00860            -440.00     3920.00
00861            -440.00     3840.00
00862            -440.00     3840.00
00863            -420.00     3760.00
00864            -420.00     3760.00
00865            -420.00     3760.00
00866            -420.00     3760.00
00867            -420.00     3680.00
00868            -420.00     3600.00
00869            -400.00     3520.00
00870            -400.00     3520.00
00871            -400.00     3520.00
00872            -380.00     3440.00
00873            -380.00     3440.00
00874            -380.00     3440.00
00875            -380.00     3440.00
00876            -380.00     3360.00
00877            -380.00     3360.00
00878            -380.00     3200.00
00879            -380.00     3280.00
00880            -380.00     3200.00
00881            -380.00     3120.00
00882            -360.00     3120.00
00883            -380.00     3120.00
00884            -360.00     3040.00
00885            -360.00     3040.00
00886            -360.00     2880.00
00887            -340.00     2880.00
00888            -360.00     2880.00
00889            -360.00     2800.00
00890            -360.00     2800.00
00891            -340.00     2720.00
00892            -340.00     2720.00
00893            -340.00     2720.00
00894            -340.00     2640.00
00895            -340.00     2560.00
00896            -340.00     2560.00
00897            -320.00     2560.00
00898            -300.00     2560.00
00899            -300.00     2480.00
00900            -300.00     2400.00
00901            -300.00     2400.00
00902            -300.00     2400.00
00903            -280.00     2320.00
00904            -280.00     2240.00
00905            -280.00     2160.00
00906            -280.00     2160.00
00907            -280.00     2160.00
00908            -280.00     2080.00
00909            -260.00     2080.00
00910            -260.00     1920.00
00911            -260.00     1920.00
00912            -260.00     1920.00
00913            -260.00     1840.00
00914            -240.00     1840.00
00915            -260.00     1840.00
00916            -220.00     1760.00
00917            -220.00     1680.00
00918            -240.00     1600.00
00919            -220.00     1600.00
00920            -220.00     1600.00
00921            -200.00     1600.00
00922            -220.00     1440.00
00923            -220.00     1440.00
00924            -220.00     1440.00
00925            -200.00     1440.00
00926            -200.00     1360.00
00927            -200.00     1280.00
00928            -200.00     1280.00
00929            -200.00     1200.00
00930            -200.00     1200.00
00931            -200.00     1120.00
00932            -180.00     1120.00
00933            -200.00     1120.00
00934            -180.00     1040.00
00935            -180.00      960.00
00936            -180.00      960.00
00937            -180.00      880.00
00938            -180.00      880.00
00939            -140.00      800.00
00940            -160.00      800.00
00941            -140.00      720.00
00942            -140.00      720.00
00943            -140.00      720.00
00944            -140.00      560.00
00945            -120.00      560.00
00946            -120.00      480.00
00947            -120.00      480.00
00948            -120.00      480.00
00949            -120.00      400.00
00950            -120.00      320.00
00951            -120.00      320.00
00952            -100.00      240.00
00953            -100.00      160.00
00954            -100.00      160.00
00955            -100.00      160.00
00956            -100.00      160.00
00957            -100.00        0.00
00958            -100.00        0.00
00959             -60.00        0.00
00960             -60.00      -80.00
00961             -60.00      -80.00
00962             -60.00     -160.00
00963             -60.00     -160.00
00964             -60.00     -240.00
00965             -40.00     -320.00
00966             -60.00     -320.00
00967             -60.00     -320.00
00968             -40.00     -400.00
00969             -40.00     -400.00
00970             -20.00     -480.00
00971             -20.00     -640.00
00972             -40.00     -720.00
00973             -20.00     -640.00
00974              20.00     -480.00
00975              20.00     -640.00
00976             -20.00     -960.00
00977             -20.00     -800.00
00978              40.00     -720.00
00979              20.00     -960.00
00980              20.00     -960.00
00981              20.00     -880.00
00982              40.00    -1040.00
00983              20.00    -1120.00
00984              40.00    -1040.00
00985              40.00    -1120.00
00986              40.00    -1280.00
00987              60.00    -1200.00
00988              40.00    -1280.00
00989              40.00    -1360.00
00990              40.00    -1360.00
00991              80.00    -1360.00
00992              60.00    -1440.00
00993              60.00    -1440.00
00994             100.00    -1520.00
00995              60.00    -1600.00
00996              80.00    -1600.00
00997             100.00    -1600.00
00998             100.00    -1680.00
00999              60.00    -1760.00
01000             100.00    -1760.00
01001             100.00    -1760.00
01002             100.00    -1760.00
01003             100.00    -1840.00
01004             120.00    -1920.00
01005             120.00    -2000.00
01006             120.00    -2000.00
01007             120.00    -2000.00
01008             120.00    -2080.00
01009             120.00    -2080.00
01010             120.00    -2240.00
01011             120.00    -2240.00
01012             140.00    -2240.00
01013             140.00    -2320.00
01014             160.00    -2320.00
01015             140.00    -2400.00
01016             140.00    -2480.00
01017             160.00    -2480.00
01018             180.00    -2560.00
01019             180.00    -2560.00
01020             180.00    -2640.00
01021             180.00    -2640.00
01022             180.00    -2720.00
01023             180.00    -2640.00
01024             200.00    -2720.00
01025             180.00    -2720.00
01026             200.00    -2800.00
01027             200.00    -2800.00
01028             220.00    -2880.00
01029             200.00    -2880.00
01030             220.00    -2960.00
01031             220.00    -2960.00
01032             220.00    -3040.00
01033             220.00    -3040.00
01034             220.00    -3120.00
01035             240.00    -3200.00
01036             220.00    -3200.00
01037             260.00    -3200.00
01038             260.00    -3280.00
01039             260.00    -3280.00
01040             260.00    -3360.00
01041             260.00    -3360.00
01042             260.00    -3360.00
01043             280.00    -3440.00
01044             260.00    -3520.00
01045             260.00    -3520.00
01046             280.00    -3600.00
01047             280.00    -3600.00
01048             280.00    -3680.00
01049             300.00    -3680.00
01050             300.00    -3680.00
01051             300.00    -3760.00
01052             300.00    -3760.00
01053             300.00    -3840.00
01054             300.00    -3840.00
01055             340.00    -3840.00
01056             320.00    -3920.00
01057             340.00    -3920.00
01058             300.00    -4000.00
01059             340.00    -4000.00
01060             340.00    -4000.00
01061             340.00    -4080.00
01062             340.00    -4160.00
01063             340.00    -4080.00
01064             360.00    -4160.00
01065             340.00    -4240.00
01066             340.00    -4240.00
01067             340.00    -4320.00
01068             360.00    -4320.00
01069             340.00    -4320.00
01070             360.00    -4320.00
01071             380.00    -4400.00
01072             360.00    -4480.00
01073             360.00    -4480.00
01074             380.00    -4480.00
01075             380.00    -4560.00
01076             380.00    -4640.00
01077             380.00    -4560.00
01078             380.00    -4640.00
01079             380.00    -4720.00
01080             380.00    -4800.00
01081             420.00    -4720.00
01082             420.00    -4800.00
01083             420.00    -4800.00
01084             380.00    -4880.00
01085             420.00    -4880.00
01086             420.00    -4880.00
01087             420.00    -4960.00
01088             420.00    -4960.00
01089             420.00    -4960.00
01090             440.00    -5040.00
01091             420.00    -5040.00
01092             440.00    -5040.00
01093             440.00    -5120.00
01094             440.00    -5120.00
01095             440.00    -5120.00
01096             440.00    -5200.00
01097             440.00    -5200.00
01098             440.00    -5200.00
01099             460.00    -5280.00
01100             460.00    -5280.00
01101             460.00    -5280.00
01102             460.00    -5360.00
01103             460.00    -5440.00
01104             500.00    -5280.00
01105             480.00    -5440.00
01106             460.00    -5440.00
01107             500.00    -5440.00
01108             500.00    -5440.00
01109             500.00    -5520.00
01110             500.00    -5600.00
01111             480.00    -5520.00
01112             500.00    -5600.00
01113             500.00    -5600.00
01114             520.00    -5680.00
01115             520.00    -5600.00
01116             520.00    -5760.00
01117             520.00    -5760.00
01118             520.00    -5760.00
01119             520.00    -5760.00
01120             520.00    -5840.00
01121             520.00    -5840.00
01122             520.00    -5840.00
01123             520.00    -5840.00
01124             540.00    -5920.00
01125             520.00    -5920.00
01126             540.00    -5920.00
01127             540.00    -5920.00
01128             520.00    -6000.00
01129             540.00    -6080.00
01130             540.00    -6000.00
01131             540.00    -6080.00
01132             520.00    -6000.00
01133             540.00    -6080.00
01134             560.00    -6080.00
01135             580.00    -6080.00
01136             560.00    -6080.00
01137             540.00    -6160.00
01138             560.00    -6160.00
01139             560.00    -6160.00
01140             540.00    -6240.00
01141             560.00    -6240.00
01142             560.00    -6240.00
01143             580.00    -6240.00
01144             580.00    -6320.00
01145             580.00    -6240.00
01146             580.00    -6320.00
01147             580.00    -6320.00
01148             580.00    -6320.00
01149             580.00    -6320.00
01150             580.00    -6400.00
01151             580.00    -6400.00
01152             580.00    -6480.00
01153             580.00    -6400.00
01154             580.00    -6480.00
01155             600.00    -6400.00
01156             600.00    -6480.00
01157             600.00    -6480.00
01158             580.00    -6480.00
01159             600.00    -6480.00
01160             600.00    -6480.00
01161             600.00    -6480.00
01162             620.00    -6560.00
01163             620.00    -6560.00
01164             600.00    -6560.00
01165             620.00    -6560.00
01166             620.00    -6560.00
01167             620.00    -6640.00
01168             620.00    -6720.00
01169             620.00    -6720.00
01170             620.00    -6560.00
01171             620.00    -6560.00
01172             620.00    -6720.00
01173             640.00    -6640.00
01174             620.00    -6720.00
01175             620.00    -6640.00
01176             640.00    -6720.00
01177             620.00    -6720.00
01178             620.00    -6720.00
01179             660.00    -6720.00
01180             660.00    -6720.00
01181             660.00    -6720.00
01182             660.00    -6720.00
01183             640.00    -6720.00
01184             640.00    -6800.00
01185             660.00    -6720.00
01186             660.00    -6800.00
01187             660.00    -6720.00
01188             660.00    -6800.00
01189             660.00    -6800.00
01190             660.00    -6800.00
01191             660.00    -6800.00
01192             640.00    -6720.00
01193             640.00    -6800.00
01194             660.00    -6800.00
01195             660.00    -6800.00
01196             660.00    -6800.00
01197             640.00    -6800.00
01198             660.00    -6800.00
01199             660.00    -6800.00
01200             660.00    -6800.00
01201             660.00    -6880.00
01202             660.00    -6800.00
01203             660.00    -6800.00
01204             680.00    -6800.00
01205             660.00    -6800.00
01206             660.00    -6880.00
01207             660.00    -6800.00
01208             660.00    -6880.00
01209             660.00    -6880.00
01210             680.00    -6800.00
01211             660.00    -6880.00
01212             660.00    -6800.00
01213             660.00    -6800.00
01214             660.00    -6800.00
01215             660.00    -6800.00
01216             660.00    -6880.00
01217             660.00    -6880.00
01218             660.00    -6880.00
01219             660.00    -6880.00
01220             660.00    -6880.00
01221             660.00    -6800.00
01222             680.00    -6800.00
01223             660.00    -6800.00
01224             680.00    -6800.00
01225             660.00    -6800.00
01226             680.00    -6800.00
01227             660.00    -6800.00
01228             660.00    -6800.00
01229             660.00    -6720.00
01230             680.00    -6720.00
01231             660.00    -6800.00
01232             660.00    -6720.00
01233             680.00    -6800.00
01234             680.00    -6800.00
01235             660.00    -6720.00
01236             680.00    -6720.00
01237             680.00    -6800.00
01238             680.00    -6720.00
01239             680.00    -6720.00
01240             660.00    -6720.00
01241             660.00    -6720.00
01242             680.00    -6720.00
01243             680.00    -6720.00
01244             660.00    -6720.00
01245             660.00    -6720.00
01246             660.00    -6720.00
01247             660.00    -6640.00
01248             660.00    -6720.00
01249             660.00    -6560.00
01250             660.00    -6640.00
01251             680.00    -6640.00
01252             660.00    -6560.00
01253             660.00    -6560.00
01254             680.00    -6560.00
01255             660.00    -6560.00
01256             660.00    -6560.00
01257             660.00    -6560.00
01258             660.00    -6560.00
01259             660.00    -6560.00
01260             660.00    -6480.00
01261             660.00    -6480.00
01262             660.00    -6560.00
01263             640.00    -6480.00
01264             660.00    -6480.00
01265             660.00    -6480.00
01266             640.00    -6480.00
01267             640.00    -6400.00
01268             640.00    -6400.00
01269             660.00    -6400.00
01270             640.00    -6400.00
01271             660.00    -6400.00
01272             620.00    -6320.00
01273             660.00    -6320.00
01274             660.00    -6240.00
01275             620.00    -6240.00
01276             640.00    -6240.00
01277             660.00    -6240.00
01278             620.00    -6240.00
01279             620.00    -6240.00
01280             620.00    -6240.00
01281             620.00    -6160.00
01282             620.00    -6160.00
01283             620.00    -6160.00
01284             600.00    -6080.00
01285             620.00    -6080.00
01286             620.00    -6080.00
01287             620.00    -6080.00
01288             620.00    -6080.00
01289             620.00    -6000.00
01290             620.00    -6080.00
01291             600.00    -6000.00
01292             620.00    -5920.00
01293             600.00    -5920.00
01294             600.00    -5840.00
01295             620.00    -5920.00
01296             600.00    -5840.00
01297             600.00    -5840.00
01298             600.00    -5920.00
01299             600.00    -5760.00
01300             600.00    -5840.00
01301             620.00    -5760.00
01302             600.00    -5760.00
01303             600.00    -5760.00
01304             600.00    -5760.00
01305             580.00    -5680.00
01306             580.00    -5600.00
01307             580.00    -5600.00
01308             580.00    -5600.00
01309             580.00    -5600.00
01310             580.00    -5520.00
01311             580.00    -5520.00
01312             580.00    -5520.00
01313             580.00    -5440.00
01314             580.00    -5440.00
01315             580.00    -5440.00
01316             580.00    -5440.00
01317             580.00    -5360.00
01318             580.00    -5360.00
01319             580.00    -5360.00
01320             560.00    -5280.00
01321             560.00    -5280.00
01322             560.00    -5280.00
01323             540.00    -5200.00
01324             540.00    -5200.00
01325             540.00    -5200.00
01326             540.00    -5200.00
01327             540.00    -5120.00
01328             540.00    -5120.00
01329             540.00    -5120.00
01330             520.00    -4960.00
01331             540.00    -5040.00
01332             520.00    -4960.00
01333             520.00    -4960.00
01334             520.00    -4880.00
01335             540.00    -4880.00
01336             520.00    -4880.00
01337             520.00    -4800.00
01338             520.00    -4800.00
01339             500.00    -4800.00
01340             520.00    -4720.00
01341             520.00    -4640.00
01342             520.00    -4640.00
01343             500.00    -4640.00
01344             520.00    -4640.00
01345             500.00    -4560.00
01346             500.00    -4560.00
01347             500.00    -4480.00
01348             480.00    -4480.00
01349             480.00    -4400.00
01350             500.00    -4320.00
01351             500.00    -4400.00
01352             480.00    -4320.00
01353             480.00    -4320.00
01354             460.00    -4320.00
01355             460.00    -4240.00
01356             460.00    -4160.00
01357             460.00    -4240.00
01358             440.00    -4160.00
01359             460.00    -4160.00
01360             460.00    -4000.00
01361             440.00    -4000.00
01362             460.00    -4000.00
01363             440.00    -3920.00
01364             440.00    -3920.00
01365             440.00    -3920.00
01366             440.00    -3840.00
01367             440.00    -3840.00
01368             440.00    -3840.00
01369             420.00    -3840.00
01370             420.00    -3760.00
01371             420.00    -3680.00
01372             420.00    -3680.00
01373             420.00    -3680.00
01374             420.00    -3600.00
01375             380.00    -3600.00
01376             420.00    -3520.00
01377             420.00    -3520.00
01378             420.00    -3440.00
01379             380.00    -3520.00
01380             420.00    -3360.00
01381             380.00    -3360.00
01382             380.00    -3360.00
01383             380.00    -3280.00
01384             380.00    -3280.00
01385             380.00    -3200.00
01386             380.00    -3200.00
01387             380.00    -3040.00
01388             380.00    -3120.00
01389             380.00    -3040.00
01390             360.00    -2960.00
01391             360.00    -2960.00
01392             360.00    -2960.00
01393             360.00    -2880.00
01394             340.00    -2880.00
01395             340.00    -2720.00
01396             340.00    -2720.00
01397             340.00    -2720.00
01398             340.00    -2720.00
01399             340.00    -2640.00
01400             340.00    -2640.00
01401             300.00    -2640.00
01402             320.00    -2640.00
01403             300.00    -2560.00
01404             300.00    -2560.00
01405             300.00    -2400.00
01406             300.00    -2400.00
01407             300.00    -2400.00
01408             300.00    -2320.00
01409             280.00    -2240.00
01410             280.00    -2320.00
01411             300.00    -2160.00
01412             280.00    -2160.00
01413             280.00    -2080.00
01414             280.00    -2080.00
01415             260.00    -2080.00
01416             260.00    -2000.00
01417             260.00    -1920.00
01418             260.00    -1840.00
01419             260.00    -1920.00
01420             260.00    -1760.00
01421             260.00    -1760.00
01422             240.00    -1760.00
01423             260.00    -1760.00
01424             260.00    -1680.00
01425             260.00    -1600.00
01426             220.00    -1600.00
01427             240.00    -1600.00
01428             220.00    -1600.00
01429             220.00    -1440.00
01430             200.00    -1360.00
01431             220.00    -1440.00
01432             220.00    -1360.00
01433             200.00    -1360.00
01434             200.00    -1280.00
01435             200.00    -1280.00
01436             180.00    -1200.00
01437             200.00    -1120.00
01438             200.00    -1120.00
01439             180.00    -1040.00
01440             200.00     -960.00
01441             180.00     -960.00
01442             180.00     -960.00
01443             200.00     -960.00
01444             180.00     -880.00
01445             180.00     -800.00
01446             180.00     -800.00
01447             160.00     -720.00
01448             180.00     -720.00
01449             140.00     -720.00
01450             140.00     -560.00
01451             140.00     -480.00
01452             140.00     -480.00
01453             120.00     -480.00
01454             120.00     -400.00
01455             100.00     -400.00
01456             100.00     -400.00
01457             120.00     -320.00
01458             100.00     -240.00
01459             100.00     -160.00
01460             100.00     -160.00
01461              80.00     -160.00
01462             100.00     -160.00
01463             100.00        0.00
01464              60.00        0.00
01465              60.00        0.00
01466              60.00        0.00
01467              60.00      160.00
01468              40.00      160.00
01469              40.00      160.00
01470              60.00      240.00
01471              40.00      240.00
01472              40.00      320.00
01473              40.00      320.00
01474              40.00      320.00
01475              20.00      480.00
01476              40.00      560.00
01477              40.00      640.00
01478              20.00      560.00
01479             -20.00      560.00
01480              20.00      560.00
01481              20.00      800.00
01482              40.00      880.00
01483             -20.00      720.00
01484               0.00      800.00
01485              20.00      960.00
01486             -20.00      880.00
01487             -40.00      800.00
01488             -20.00     1120.00
01489             -20.00     1120.00
01490             -60.00      960.00
01491             -40.00     1120.00
01492             -20.00     1280.00
01493             -40.00     1120.00
01494             -40.00     1280.00
01495             -40.00     1280.00
01496             -40.00     1280.00
01497             -60.00     1280.00
01498             -60.00     1440.00
01499             -60.00     1440.00
01500             -60.00     1440.00
01501             -60.00     1520.00
01502             -60.00     1520.00
01503             -60.00     1600.00
01504             -60.00     1760.00
01505             -60.00     1600.00
01506            -100.00     1760.00
01507            -100.00     1760.00
01508            -100.00     1840.00
01509            -100.00     1920.00
01510            -100.00     1920.00
01511            -120.00     1920.00
01512            -120.00     2000.00
01513            -100.00     2080.00
01514            -120.00     2080.00
01515            -120.00     2160.00
01516            -120.00     2160.00
01517            -120.00     2160.00
01518            -120.00     2240.00
01519            -140.00     2320.00
01520            -140.00     2400.00
01521            -140.00     2400.00
01522            -140.00     2400.00
01523            -160.00     2480.00
01524            -180.00     2560.00
01525            -180.00     2560.00
01526            -180.00     2560.00
01527            -180.00     2560.00
01528            -180.00     2720.00
01529            -200.00     2640.00
01530            -200.00     2720.00
01531            -200.00     2800.00
01532            -200.00     2880.00
01533            -220.00     2880.00
01534            -220.00     2880.00
01535            -220.00     2960.00
01536            -220.00     2880.00
01537            -220.00     3040.00
01538            -220.00     3120.00
01539            -220.00     3120.00
01540            -240.00     3120.00
01541            -240.00     3200.00
01542            -220.00     3200.00
01543            -260.00     3280.00
01544            -220.00     3280.00
01545            -260.00     3280.00
01546            -280.00     3360.00
01547            -260.00     3360.00
01548            -260.00     3440.00
01549            -280.00     3440.00
01550            -260.00     3440.00
01551            -280.00     3520.00
01552            -280.00     3600.00
01553            -280.00     3600.00
01554            -280.00     3680.00
01555            -280.00     3680.00
01556            -280.00     3680.00
01557            -280.00     3760.00
01558            -300.00     3760.00
01559            -300.00     3840.00
01560            -300.00     3840.00
01561            -300.00     3840.00
01562            -300.00     3920.00
01563            -300.00     4000.00
01564            -300.00     4000.00
01565            -300.00     4080.00
01566            -300.00     4080.00
01567            -320.00     4080.00
01568            -340.00     4160.00
01569            -340.00     4160.00
01570            -340.00     4160.00
01571            -340.00     4320.00
01572            -340.00     4320.00
01573            -360.00     4320.00
01574            -340.00     4400.00
01575            -360.00     4400.00
01576            -360.00     4400.00
01577            -360.00     4400.00
01578            -380.00     4480.00
01579            -380.00     4480.00
01580            -360.00     4560.00
01581            -360.00     4560.00
01582            -380.00     4640.00
01583            -380.00     4640.00
01584            -380.00     4720.00
01585            -400.00     4720.00
01586            -420.00     4720.00
01587            -420.00     4720.00
01588            -380.00     4800.00
01589            -420.00     4800.00
01590            -380.00     4800.00
01591            -420.00     4880.00
01592            -420.00     4960.00
01593            -420.00     4960.00
01594            -420.00     4960.00
01595            -440.00     5040.00
01596            -420.00     5120.00
01597            -440.00     5040.00
01598            -440.00     5120.00
01599            -440.00     5120.00
01600            -440.00     5120.00
01601            -440.00     5200.00
01602            -440.00     5200.00
01603            -460.00     5280.00
01604            -460.00     5280.00
01605            -460.00     5280.00
01606            -460.00     5360.00
01607            -460.00     5360.00
01608            -460.00     5360.00
01609            -460.00     5440.00
01610            -460.00     5440.00
01611            -460.00     5440.00
01612            -480.00     5440.00
01613            -460.00     5520.00
01614            -480.00     5520.00
01615            -460.00     5600.00
01616            -460.00     5600.00
01617            -500.00     5600.00
01618            -500.00     5680.00
01619            -500.00     5680.00
01620            -500.00     5680.00
01621            -500.00     5680.00
01622            -500.00     5760.00
01623            -520.00     5840.00
01624            -500.00     5840.00
01625            -500.00     5840.00
01626            -500.00     5840.00
01627            -520.00     5920.00
01628            -520.00     5920.00
01629            -520.00     5920.00
01630            -520.00     5920.00
01631            -520.00     6000.00
01632            -520.00     5920.00
01633            -520.00     6000.00
01634            -520.00     6000.00
01635            -540.00     6080.00
01636            -540.00     6080.00
01637            -540.00     6000.00
01638            -540.00     6080.00
01639            -540.00     6080.00
01640            -540.00     6160.00
01641            -540.00     6080.00
01642            -540.00     6160.00
01643            -540.00     6240.00
01644            -540.00     6240.00
01645            -540.00     6240.00
01646            -540.00     6240.00
01647            -540.00     6320.00
01648            -560.00     6240.00
01649            -560.00     6320.00
01650            -580.00     6320.00
01651            -560.00     6320.00
01652            -580.00     6320.00
01653            -580.00     6400.00
01654            -600.00     6400.00
01655            -600.00     6400.00
01656            -600.00     6400.00
01657            -600.00     6400.00
01658            -600.00     6400.00
01659            -600.00     6400.00
01660            -600.00     6400.00
01661            -600.00     6560.00
01662            -600.00     6560.00
01663            -600.00     6560.00
01664            -600.00     6560.00
01665            -600.00     6560.00
01666            -620.00     6560.00
01667            -600.00     6560.00
01668            -600.00     6560.00
01669            -620.00     6560.00
01670            -620.00     6640.00
01671            -620.00     6640.00
01672            -620.00     6640.00
01673            -620.00     6640.00
01674            -620.00     6640.00
01675            -620.00     6640.00
01676            -620.00     6720.00
01677            -600.00     6720.00
01678            -620.00     6720.00
01679            -620.00     6720.00
01680            -640.00     6720.00
01681            -620.00     6720.00
01682            -620.00     6720.00
01683            -620.00     6720.00
01684            -620.00     6800.00
01685            -620.00     6720.00
01686            -620.00     6800.00
01687            -620.00     6800.00
01688            -640.00     6880.00
01689            -620.00     6800.00
01690            -640.00     6880.00
01691            -640.00     6800.00
01692            -620.00     6880.00
01693            -640.00     6800.00
01694            -620.00     6800.00
01695            -620.00     6880.00
01696            -640.00     6880.00
01697            -640.00     6880.00
01698            -660.00     6800.00
01699            -660.00     6880.00
01700            -620.00     6880.00
01701            -660.00     6880.00
01702            -640.00     6880.00
01703            -660.00     6880.00
01704            -660.00     6880.00
01705            -640.00     6880.00
01706            -660.00     6960.00
01707            -660.00     6960.00
01708            -660.00     6880.00
01709            -660.00     6880.00
01710            -660.00     6880.00
01711            -660.00     6880.00
01712            -660.00     6880.00
01713            -640.00     6960.00
01714            -680.00     6880.00
01715            -660.00     6880.00
01716            -680.00     6960.00
01717            -660.00     6880.00
01718            -680.00     6960.00
01719            -680.00     6880.00
01720            -660.00     6960.00
01721            -680.00     6880.00
01722            -660.00     6960.00
01723            -680.00     6880.00
01724            -660.00     6960.00
01725            -680.00     6880.00
01726            -680.00     6880.00
01727            -680.00     6880.00
01728            -660.00     6960.00
01729            -680.00     6960.00
01730            -680.00     6880.00
01731            -680.00     6880.00
01732            -660.00     6880.00
01733            -680.00     6960.00
01734            -680.00     6880.00
01735            -680.00     6880.00
01736            -680.00     6960.00
01737            -680.00     6880.00
01738            -680.00     6880.00
01739            -680.00     6880.00
01740            -660.00     6880.00
01741            -680.00     6800.00
01742            -660.00     6880.00
01743            -660.00     6880.00
01744            -680.00     6880.00
01745            -660.00     6720.00
01746            -660.00     6880.00
01747            -680.00     6800.00
01748            -680.00     6720.00
01749            -680.00     6800.00
01750            -660.00     6720.00
01751            -660.00     6720.00
01752            -680.00     6800.00
01753            -660.00     6720.00
01754            -660.00     6720.00
01755            -660.00     6720.00
01756            -660.00     6720.00
01757            -660.00     6720.00
01758            -660.00     6720.00
01759            -660.00     6720.00
01760            -660.00     6720.00
01761            -660.00     6720.00
01762            -660.00     6640.00
01763            -620.00     6640.00
01764            -660.00     6640.00
01765            -640.00     6640.00
01766            -640.00     6640.00
01767            -660.00     6560.00
01768            -620.00     6640.00
01769            -640.00     6560.00
01770            -620.00     6560.00
01771            -620.00     6560.00
01772            -660.00     6560.00
01773            -620.00     6560.00
01774            -620.00     6560.00
01775            -620.00     6560.00
01776            -620.00     6480.00
01777            -620.00     6480.00
01778            -640.00     6400.00
01779            -620.00     6400.00
01780            -620.00     6400.00
01781            -620.00     6400.00
01782            -620.00     6320.00
01783            -660.00     6400.00
01784            -640.00     6400.00
01785            -660.00     6320.00
01786            -640.00     6320.00
01787            -620.00     6320.00
01788            -620.00     6320.00
01789            -620.00     6240.00
01790            -620.00     6240.00
01791            -620.00     6240.00
01792            -620.00     6240.00
01793            -620.00     6240.00
01794            -620.00     6240.00
01795            -620.00     6080.00
01796            -600.00     6080.00
01797            -620.00     6080.00
01798            -620.00     6080.00
01799            -620.00     6080.00
01800            -620.00     6080.00
01801            -620.00     6000.00
01802            -600.00     6000.00
01803            -620.00     5920.00
01804            -600.00     6000.00
01805            -620.00     5920.00
01806            -600.00     5920.00
01807            -600.00     5920.00
01808            -620.00     5920.00
01809            -600.00     5840.00
01810            -620.00     5920.00
01811            -580.00     5840.00
01812            -600.00     5760.00
01813            -600.00     5760.00
01814            -600.00     5840.00
01815            -600.00     5760.00
01816            -600.00     5680.00
01817            -600.00     5680.00
01818            -580.00     5680.00
01819            -600.00     5600.00
01820            -580.00     5520.00
01821            -560.00     5600.00
01822            -580.00     5520.00
01823            -580.00     5520.00
01824            -560.00     5440.00
01825            -580.00     5440.00
01826            -580.00     5440.00
01827            -580.00     5440.00
01828            -580.00     5360.00
01829            -540.00     5440.00
01830            -580.00     5280.00
01831            -540.00     5280.00
01832            -540.00     5280.00
01833            -540.00     5280.00
01834            -540.00     5280.00
01835            -540.00     5200.00
01836            -540.00     5200.00
01837            -540.00     5120.00
01838            -540.00     5120.00
01839            -520.00     5040.00
01840            -520.00     5040.00
01841            -540.00     5040.00
01842            -540.00     4960.00
01843            -540.00     4960.00
01844            -520.00     4880.00
01845            -520.00     4880.00
01846            -520.00     4880.00
01847            -520.00     4800.00
01848            -520.00     4880.00
01849            -520.00     4800.00
01850            -520.00     4720.00
01851            -520.00     4720.00
01852            -520.00     4720.00
01853            -500.00     4640.00
01854            -520.00     4640.00
01855            -520.00     4560.00
01856            -500.00     4560.00
01857            -500.00     4560.00
01858            -500.00     4480.00
01859            -500.00     4480.00
01860            -500.00     4400.00
01861            -480.00     4480.00
01862            -460.00     4400.00
01863            -500.00     4320.00
01864            -480.00     4240.00
01865            -460.00     4320.00
01866            -460.00     4240.00
01867            -460.00     4160.00
01868            -460.00     4160.00
01869            -460.00     4080.00
01870            -460.00     4080.00
01871            -460.00     4080.00
01872            -440.00     4000.00
01873            -440.00     4000.00
01874            -440.00     4000.00
01875            -440.00     3920.00
01876            -440.00     3840.00
01877            -440.00     3840.00
01878            -440.00     3840.00
01879            -440.00     3760.00
01880            -440.00     3760.00
01881            -420.00     3760.00
01882            -440.00     3680.00
01883            -400.00     3680.00
01884            -420.00     3680.00
01885            -400.00     3600.00
01886            -420.00     3520.00
01887            -380.00     3520.00
01888            -400.00     3520.00
01889            -380.00     3440.00
01890            -380.00     3440.00
01891            -380.00     3360.00
01892            -380.00     3360.00
01893            -380.00     3200.00
01894            -380.00     3280.00
01895            -380.00     3200.00
01896            -380.00     3200.00
01897            -360.00     3120.00
01898            -360.00     3120.00
01899            -340.00     3040.00
01900            -360.00     3040.00
01901            -360.00     3040.00
01902            -340.00     2960.00
01903            -340.00     2880.00
01904            -340.00     2800.00
01905            -340.00     2880.00
01906            -300.00     2800.00
01907            -340.00     2720.00
01908            -340.00     2720.00
01909            -320.00     2720.00
01910            -300.00     2640.00
01911            -300.00     2640.00
01912            -300.00     2560.00
01913            -300.00     2560.00
01914            -300.00     2480.00
01915            -300.00     2480.00
01916            -300.00     2400.00
01917            -300.00     2400.00
01918            -300.00     2400.00
01919            -300.00     2320.00
01920            -280.00     2240.00
01921            -280.00     2240.00
01922            -280.00     2160.00
01923            -280.00     2160.00
01924            -280.00     2080.00
01925            -280.00     2000.00
01926            -260.00     2000.00
01927            -280.00     2000.00
01928            -280.00     1920.00
01929            -260.00     1840.00
01930            -260.00     1840.00
01931            -260.00     1760.00
01932            -260.00     1760.00
01933            -220.00     1760.00
01934            -220.00     1760.00
01935            -220.00     1600.00
01936            -220.00     1600.00
01937            -220.00     1520.00
01938            -220.00     1520.00
01939            -220.00     1440.00
01940            -220.00     1440.00
01941            -200.00     1440.00
01942            -200.00     1440.00
01943            -200.00     1280.00
01944            -200.00     1280.00
01945            -200.00     1200.00
01946            -180.00     1200.00
01947            -180.00     1120.00
01948            -180.00     1040.00
01949            -180.00     1040.00
01950            -180.00      960.00
01951            -180.00      960.00
01952            -140.00      880.00
01953            -140.00      960.00
01954            -180.00      880.00
01955            -140.00      800.00
01956            -140.00      800.00
01957            -140.00      720.00
01958            -120.00      720.00
01959            -120.00      640.00
01960            -120.00      640.00
01961            -120.00      560.00
01962            -120.00      560.00
01963            -120.00      480.00
01964            -120.00      480.00
01965            -120.00      400.00
01966            -100.00      320.00
01967            -100.00      320.00
01968            -100.00      240.00
01969             -80.00      240.00
01970            -100.00      160.00
01971             -60.00      160.00
01972             -80.00      160.00
01973            -100.00       80.00
01974             -60.00        0.00
01975             -60.00        0.00
01976             -80.00      -80.00
01977             -60.00      -80.00
01978             -60.00     -160.00
01979             -60.00     -160.00
01980             -60.00     -160.00
01981             -60.00     -240.00
01982             -60.00     -320.00
01983             -40.00     -320.00
01984             -40.00     -400.00
01985             -40.00     -400.00
01986             -20.00     -400.00
01987             -20.00     -560.00
01988             -60.00     -720.00
01989             -40.00     -720.00
01990             -20.00     -480.00
01991              20.00     -640.00
01992             -20.00     -880.00
01993             -20.00     -880.00
01994              20.00     -720.00
01995               0.00     -800.00
01996              20.00     -960.00
01997              20.00     -800.00
01998              40.00     -960.00
01999              20.00    -1120.00
02000              40.00    -1040.00
02001              40.00    -1040.00
02002              20.00    -1200.00
02003              40.00    -1120.00
02004              60.00    -1280.00
02005              60.00    -1360.00
02006              40.00    -1280.00
02007              60.00    -1360.00
02008              40.00    -1360.00
02009              60.00    -1440.00
02010              60.00    -1440.00
02011              60.00    -1600.00
02012             100.00    -1600.00
02013              80.00    -1600.00
02014              80.00    -1680.00
02015             100.00    -1680.00
02016             100.00    -1760.00
02017             100.00    -1760.00
02018             120.00    -1760.00
02019             120.00    -1760.00
02020             120.00    -1920.00
02021             120.00    -1920.00
02022             120.00    -2000.00
02023             120.00    -2000.00
02024             120.00    -2080.00
02025             140.00    -2160.00
02026             140.00    -2160.00
02027             140.00    -2240.00
02028             140.00    -2240.00
02029             140.00    -2320.00
02030             140.00    -2320.00
02031             140.00    -2400.00
02032             180.00    -2400.00
02033             180.00    -2480.00
02034             180.00    -2560.00
02035             180.00    -2560.00
02036             180.00    -2560.00
02037             180.00    -2640.00
02038             200.00    -2640.00
02039             200.00    -2640.00
02040             200.00    -2720.00
02041             200.00    -2720.00
02042             200.00    -2800.00
02043             200.00    -2880.00
02044             200.00    -2880.00
02045             200.00    -2880.00
02046             200.00    -2960.00
02047             200.00    -2960.00
02048             220.00    -3040.00
02049             220.00    -3040.00
02050             220.00    -3120.00
02051             220.00    -3200.00
02052             220.00    -3200.00
02053             260.00    -3200.00
02054             220.00    -3280.00
02055             260.00    -3280.00
02056             260.00    -3360.00
02057             260.00    -3360.00
02058             260.00    -3360.00
02059             260.00    -3440.00
02060             260.00    -3520.00
02061             280.00    -3520.00
02062             260.00    -3520.00
02063             280.00    -3600.00
02064             260.00    -3600.00
02065             280.00    -3680.00
02066             280.00    -3680.00
02067             280.00    -3760.00
02068             280.00    -3760.00
02069             280.00    -3840.00
02070             300.00    -3840.00
02071             300.00    -3840.00
02072             300.00    -3920.00
02073             300.00    -4000.00
02074             340.00    -4000.00
02075             320.00    -4000.00
02076             340.00    -4000.00
02077             340.00    -4080.00
02078             340.00    -4080.00
02079             360.00    -4160.00
02080             340.00    -4160.00
02081             340.00    -4240.00
02082             360.00    -4240.00
02083             360.00    -4320.00
02084             340.00    -4320.00
02085             360.00    -4320.00
02086             360.00    -4320.00
02087             360.00    -4400.00
02088             380.00    -4480.00
02089             380.00    -4480.00
02090             380.00    -4480.00
02091             380.00    -4560.00
02092             380.00    -4560.00
02093             380.00    -4560.00
02094             420.00    -4640.00
02095             400.00    -4720.00
02096             420.00    -4720.00
02097             380.00    -4720.00
02098             420.00    -4800.00
02099             420.00    -4800.00
02100             400.00    -4800.00
02101             420.00    -4800.00
02102             420.00    -4880.00
02103             440.00    -4960.00
02104             420.00    -4960.00
02105             420.00    -4960.00
02106             440.00    -4960.00
02107             420.00    -5040.00
02108             440.00    -4960.00
02109             420.00    -5120.00
02110             440.00    -5120.00
02111             420.00    -5200.00
02112             440.00    -5120.00
02113             440.00    -5200.00
02114             420.00    -5280.00
02115             440.00    -5280.00
02116             460.00    -5280.00
02117             460.00    -5280.00
02118             440.00    -5280.00
02119             440.00    -5360.00
02120             460.00    -5440.00
02121             460.00    -5440.00
02122             460.00    -5440.00
02123             460.00    -5440.00
02124             500.00    -5440.00
02125             500.00    -5520.00
02126             500.00    -5520.00
02127             500.00    -5520.00
02128             500.00    -5600.00
02129             480.00    -5600.00
02130             500.00    -5600.00
02131             500.00    -5680.00
02132             520.00    -5760.00
02133             520.00    -5760.00
02134             520.00    -5760.00
02135             520.00    -5840.00
02136             540.00    -5760.00
02137             520.00    -5840.00
02138             520.00    -5840.00
02139             520.00    -5840.00
02140             520.00    -5920.00
02141             520.00    -5920.00
02142             520.00    -5920.00
02143             540.00    -6000.00
02144             520.00    -5920.00
02145             540.00    -6000.00
02146             540.00    -6080.00
02147             560.00    -6080.00
02148             580.00    -6080.00
02149             540.00    -6080.00
02150             580.00    -6080.00
02151             540.00    -6080.00
02152             580.00    -6160.00
02153             580.00    -6080.00
02154             540.00    -6160.00
02155             580.00    -6240.00
02156             580.00    -6160.00
02157             580.00    -6240.00
02158             580.00    -6240.00
02159             580.00    -6240.00
02160             580.00    -6240.00
02161             580.00    -6240.00
02162             580.00    -6240.00
02163             600.00    -6320.00
02164             580.00    -6240.00
02165             580.00    -6320.00
02166             580.00    -6320.00
02167             580.00    -6400.00
02168             580.00    -6400.00
02169             600.00    -6400.00
02170             580.00    -6400.00
02171             600.00    -6400.00
02172             600.00    -6400.00
02173             600.00    -6480.00
02174             600.00    -6480.00
02175             600.00    -6480.00
02176             600.00    -6480.00
02177             580.00    -6560.00
02178             620.00    -6480.00
02179             600.00    -6560.00
02180             600.00    -6560.00
02181             620.00    -6560.00
02182             620.00    -6560.00
02183             620.00    -6640.00
02184             620.00    -6560.00
02185             600.00    -6560.00
02186             600.00    -6640.00
02187             620.00    -6640.00
02188             620.00    -6720.00
02189             620.00    -6640.00
02190             620.00    -6720.00
02191             620.00    -6720.00
02192             620.00    -6720.00
02193             620.00    -6720.00
02194             620.00    -6720.00
02195             620.00    -6720.00
02196             620.00    -6800.00
02197             620.00    -6720.00
02198             640.00    -6720.00
02199             620.00    -6720.00
02200             620.00    -6720.00
02201             660.00    -6800.00
02202             660.00    -6720.00
02203             660.00    -6800.00
02204             660.00    -6720.00
02205             660.00    -6800.00
02206             660.00    -6800.00
02207             660.00    -6800.00
02208             660.00    -6800.00
02209             660.00    -6800.00
02210             660.00    -6800.00
02211             640.00    -6800.00
02212             660.00    -6800.00
02213             680.00    -6880.00
02214             660.00    -6800.00
02215             660.00    -6880.00
02216             660.00    -6800.00
02217             660.00    -6880.00
02218             660.00    -6800.00
02219             660.00    -6880.00
02220             660.00    -6800.00
02221             660.00    -6800.00
02222             660.00    -6880.00
02223             680.00    -6880.00
02224             660.00    -6800.00
02225             660.00    -6880.00
02226             680.00    -6800.00
02227             660.00    -6800.00
02228             680.00    -6880.00
02229             660.00    -6800.00
02230             660.00    -6800.00
02231             680.00    -6800.00
02232             680.00    -6800.00
02233             660.00    -6800.00
02234             660.00    -6880.00
02235             660.00    -6800.00
02236             680.00    -6800.00
02237             660.00    -6800.00
02238             660.00    -6800.00
02239             660.00    -6800.00
02240             660.00    -6880.00
02241             680.00    -6800.00
02242             660.00    -6800.00
02243             660.00    -6800.00
02244             660.00    -6720.00
02245             660.00    -6800.00
02246             660.00    -6720.00
02247             660.00    -6720.00
02248             660.00    -6720.00
02249             660.00    -6720.00
02250             660.00    -6800.00
02251             660.00    -6800.00
02252             660.00    -6720.00
02253             660.00    -6720.00
02254             660.00    -6720.00
02255             660.00    -6720.00
02256             660.00    -6720.00
02257             660.00    -6720.00
02258             660.00    -6720.00
02259             660.00    -6720.00
02260             660.00    -6720.00
02261             660.00    -6640.00
02262             660.00    -6720.00
02263             660.00    -6720.00
02264             660.00    -6640.00
02265             660.00    -6720.00
02266             660.00    -6640.00
02267             660.00    -6640.00
02268             660.00    -6560.00
02269             660.00    -6640.00
02270             660.00    -6560.00
02271             640.00    -6560.00
02272             660.00    -6560.00
02273             660.00    -6560.00
02274             660.00    -6560.00
02275             660.00    -6560.00
02276             660.00    -6480.00
02277             660.00    -6560.00
02278             660.00    -6480.00
02279             660.00    -6480.00
02280             660.00    -6480.00
02281             660.00    -6400.00
02282             660.00    -6400.00
02283             660.00    -6400.00
02284             660.00    -6480.00
02285             660.00    -6480.00
02286             660.00    -6400.00
02287             660.00    -6400.00
02288             660.00    -6240.00
02289             660.00    -6400.00
02290             660.00    -6320.00
02291             620.00    -6240.00
02292             660.00    -6240.00
02293             640.00    -6240.00
02294             640.00    -6160.00
02295             660.00    -6240.00
02296             660.00    -6240.00
02297             640.00    -6160.00
02298             640.00    -6160.00
02299             620.00    -6160.00
02300             640.00    -6080.00
02301             620.00    -6160.00
02302             620.00    -6080.00
02303             620.00    -6080.00
02304             620.00    -6080.00
02305             620.00    -6080.00
02306             620.00    -6080.00
02307             600.00    -6000.00
02308             600.00    -5920.00
02309             600.00    -5920.00
02310             600.00    -5920.00
02311             620.00    -5920.00
02312             600.00    -5920.00
02313             600.00    -5840.00
02314             600.00    -5840.00
02315             600.00    -5840.00
02316             580.00    -5840.00
02317             600.00    -5760.00
02318             600.00    -5760.00
02319             600.00    -5760.00
02320             580.00    -5760.00
02321             580.00    -5760.00
02322             580.00    -5680.00
02323             580.00    -5600.00
02324             580.00    -5600.00
02325             580.00    -5600.00
02326             580.00    -5600.00
02327             580.00    -5520.00
02328             580.00    -5520.00
02329             580.00    -5520.00
02330             560.00    -5440.00
02331             580.00    -5440.00
02332             580.00    -5440.00
02333             580.00    -5360.00
02334             540.00    -5360.00
02335             580.00    -5280.00
02336             580.00    -5360.00
02337             580.00    -5280.00
02338             580.00    -5200.00
02339             580.00    -5200.00
02340             540.00    -5200.00
02341             580.00    -5120.00
02342             540.00    -5120.00
02343             560.00    -5120.00
02344             580.00    -5120.00
02345             540.00    -5120.00
02346             520.00    -4960.00
02347             560.00    -4960.00
02348             540.00    -4960.00
02349             520.00    -4960.00
02350             540.00    -4960.00
02351             520.00    -4960.00
02352             540.00    -4880.00
02353             520.00    -4880.00
02354             520.00    -4800.00
02355             520.00    -4800.00
02356             520.00    -4800.00
02357             520.00    -4720.00
02358             520.00    -4640.00
02359             520.00    -4640.00
02360             520.00    -4640.00
02361             520.00    -4560.00
02362             500.00    -4560.00
02363             500.00    -4480.00
02364             500.00    -4480.00
02365             500.00    -4400.00
02366             500.00    -4400.00
02367             500.00    -4400.00
02368             480.00    -4320.00
02369             500.00    -4320.00
02370             460.00    -4240.00
02371             480.00    -4240.00
02372             460.00    -4320.00
02373             440.00    -4160.00
02374             440.00    -4160.00
02375             460.00    -4160.00
02376             460.00    -4160.00
02377             440.00    -4000.00
02378             440.00    -4000.00
02379             440.00    -4000.00
02380             420.00    -3920.00
02381             420.00    -3840.00
02382             440.00    -3840.00
02383             420.00    -3840.00
02384             420.00    -3840.00
02385             420.00    -3840.00
02386             420.00    -3760.00
02387             420.00    -3680.00
02388             420.00    -3680.00
02389             420.00    -3680.00
02390             400.00    -3600.00
02391             420.00    -3600.00
02392             420.00    -3520.00
02393             400.00    -3440.00
02394             420.00    -3440.00
02395             400.00    -3440.00
02396             380.00    -3360.00
02397             380.00    -3360.00
02398             380.00    -3360.00
02399             380.00    -3280.00
02400             380.00    -3280.00
02401             360.00    -3200.00
02402             360.00    -3200.00
02403             360.00    -3200.00
02404             360.00    -3200.00
02405             360.00    -3040.00
02406             360.00    -3040.00
02407             360.00    -2960.00
02408             360.00    -2960.00
02409             360.00    -2960.00
02410             340.00    -2880.00
02411             360.00    -2800.00
02412             340.00    -2800.00
02413             340.00    -2720.00
02414             340.00    -2720.00
02415             340.00    -2720.00
02416             340.00    -2640.00
02417             340.00    -2560.00
02418             320.00    -2560.00
02419             340.00    -2560.00
02420             320.00    -2480.00
02421             340.00    -2480.00
02422             300.00    -2400.00
02423             300.00    -2400.00
02424             300.00    -2320.00
02425             280.00    -2240.00
02426             300.00    -2240.00
02427             280.00    -2240.00
02428             280.00    -2240.00
02429             280.00    -2160.00
02430             280.00    -2080.00
02431             280.00    -2000.00
02432             280.00    -2000.00
02433             260.00    -1920.00
02434             260.00    -1920.00
02435             260.00    -1920.00
02436             260.00    -1840.00
02437             220.00    -1760.00
02438             220.00    -1760.00
02439             240.00    -1760.00
02440             240.00    -1680.00
02441             240.00    -1600.00
02442             220.00    -1600.00
02443             220.00    -1600.00
02444             220.00    -1520.00
02445             200.00    -1440.00
02446             220.00    -1440.00
02447             200.00    -1440.00
02448             200.00    -1360.00
02449             200.00    -1280.00
02450             180.00    -1280.00
02451             200.00    -1280.00
02452             180.00    -1120.00
02453             180.00    -1200.00
02454             180.00    -1120.00
02455             180.00    -1120.00
02456             160.00    -1040.00
02457             180.00     -960.00
02458             160.00     -960.00
02459             180.00     -960.00
02460             160.00     -800.00
02461             160.00     -800.00
02462             140.00     -720.00
02463             140.00     -800.00
02464             140.00     -640.00
02465             140.00     -640.00
02466             120.00     -640.00
02467             140.00     -560.00
02468             120.00     -560.00
02469             120.00     -480.00
02470             120.00     -400.00
02471             120.00     -400.00
02472             120.00     -320.00
02473             120.00     -320.00
02474             120.00     -240.00
02475             100.00     -320.00
02476             100.00     -160.00
02477             100.00     -160.00
02478             100.00      -80.00
02479             100.00      -80.00
02480             100.00        0.00
02481              80.00        0.00
02482              60.00       80.00
02483              80.00       80.00
02484              60.00      160.00
02485              60.00      160.00
02486              40.00      160.00
02487              40.00      320.00
02488              40.00      320.00
02489              40.00      320.00
02490              40.00      320.00
02491              40.00      400.00
02492              40.00      480.00
02493              40.00      560.00
02494              40.00      560.00
02495              20.00      560.00
02496               0.00      480.00
02497              20.00      800.00
02498              40.00      880.00
02499             -20.00      800.00
02500             -20.00      640.00
02501               0.00      960.00
02502              20.00      880.00
02503             -40.00      800.00
02504             -20.00     1120.00
02505               0.00     1120.00
02506             -40.00      960.00
02507             -40.00     1120.00
02508             -20.00     1200.00
02509             -40.00     1200.00
02510             -40.00     1200.00
02511             -40.00     1280.00
02512             -60.00     1280.00
02513             -60.00     1360.00
02514             -60.00     1440.00
02515             -60.00     1440.00
02516             -60.00     1520.00
02517             -60.00     1600.00
02518            -100.00     1520.00
02519            -100.00     1600.00
02520             -60.00     1600.00
02521            -100.00     1760.00
02522            -100.00     1760.00
02523            -100.00     1840.00
02524            -100.00     1760.00
02525            -120.00     1920.00
02526            -100.00     1920.00
02527            -120.00     1920.00
02528            -120.00     2000.00
02529            -100.00     2000.00
02530            -120.00     2000.00
02531            -120.00     2160.00
02532            -120.00     2160.00
02533            -120.00     2160.00
02534            -140.00     2240.00
02535            -140.00     2240.00
02536            -140.00     2320.00
02537            -140.00     2400.00
02538            -140.00     2400.00
02539            -140.00     2400.00
02540            -180.00     2400.00
02541            -160.00     2480.00
02542            -160.00     2560.00
02543            -180.00     2640.00
02544            -200.00     2640.00
02545            -200.00     2720.00
02546            -180.00     2720.00
02547            -200.00     2720.00
02548            -200.00     2800.00
02549            -200.00     2880.00
02550            -200.00     2880.00
02551            -200.00     2880.00
02552            -200.00     2960.00
02553            -200.00     2960.00
02554            -220.00     3040.00
02555            -220.00     3120.00
02556            -220.00     3120.00
02557            -220.00     3200.00
02558            -220.00     3280.00
02559            -240.00     3280.00
02560            -220.00     3280.00
02561            -260.00     3360.00
02562            -220.00     3360.00
02563            -260.00     3440.00
02564            -260.00     3440.00
02565            -260.00     3440.00
02566            -260.00     3520.00
02567            -280.00     3520.00
02568            -280.00     3520.00
02569            -280.00     3520.00
02570            -280.00     3680.00
02571            -300.00     3680.00
02572            -280.00     3680.00
02573            -280.00     3760.00
02574            -280.00     3760.00
02575            -320.00     3840.00
02576            -300.00     3840.00
02577            -300.00     3840.00
02578            -320.00     4000.00
02579            -300.00     4000.00
02580            -300.00     4000.00
02581            -340.00     4080.00
02582            -340.00     4000.00
02583            -320.00     4080.00
02584            -340.00     4080.00
02585            -340.00     4160.00
02586            -340.00     4160.00
02587            -360.00     4160.00
02588            -360.00     4240.00
02589            -340.00     4320.00
02590            -360.00     4240.00
02591            -360.00     4400.00
02592            -360.00     4400.00
02593            -360.00     4400.00
02594            -360.00     4480.00
02595            -360.00     4560.00
02596            -380.00     4480.00
02597            -380.00     4480.00
02598            -380.00     4640.00
02599            -380.00     4640.00
02600            -380.00     4720.00
02601            -400.00     4720.00
02602            -380.00     4720.00
02603            -380.00     4800.00
02604            -420.00     4800.00
02605            -400.00     4800.00
02606            -380.00     4880.00
02607            -420.00     4960.00
02608            -420.00     4960.00
02609            -420.00     4960.00
02610            -420.00     4960.00
02611            -440.00     5040.00
02612            -420.00     5040.00
02613            -420.00     5040.00
02614            -440.00     5040.00
02615            -440.00     5120.00
02616            -440.00     5120.00
02617            -440.00     5200.00
02618            -440.00     5200.00
02619            -440.00     5280.00
02620            -440.00     5280.00
02621            -460.00     5280.00
02622            -440.00     5280.00
02623            -460.00     5280.00
02624            -460.00     5360.00
02625            -460.00     5440.00
02626            -460.00     5360.00
02627            -460.00     5440.00
02628            -480.00     5440.00
02629            -500.00     5520.00
02630            -480.00     5520.00
02631            -500.00     5520.00
02632            -480.00     5600.00
02633            -500.00     5600.00
02634            -480.00     5600.00
02635            -500.00     5680.00
02636            -500.00     5680.00
02637            -500.00     5840.00
02638            -520.00     5760.00
02639            -500.00     5840.00
02640            -520.00     5760.00
02641            -520.00     5840.00
02642            -520.00     5840.00
02643            -520.00     5840.00
02644            -520.00     5920.00
02645            -520.00     5920.00
02646            -520.00     5920.00
02647            -540.00     5920.00
02648            -520.00     5920.00
02649            -540.00     6000.00
02650            -540.00     6000.00
02651            -540.00     6080.00
02652            -540.00     6080.00
02653            -540.00     6000.00
02654            -540.00     6080.00
02655            -540.00     6080.00
02656            -520.00     6080.00
02657            -540.00     6080.00
02658            -540.00     6160.00
02659            -540.00     6240.00
02660            -560.00     6240.00
02661            -540.00     6240.00
02662            -540.00     6240.00
02663            -580.00     6320.00
02664            -580.00     6320.00
02665            -580.00     6320.00
02666            -560.00     6320.00
02667            -600.00     6400.00
02668            -580.00     6320.00
02669            -580.00     6400.00
02670            -580.00     6400.00
02671            -580.00     6400.00
02672            -600.00     6400.00
02673            -580.00     6480.00
02674            -600.00     6400.00
02675            -580.00     6480.00
02676            -600.00     6400.00
02677            -600.00     6480.00
02678            -600.00     6480.00
02679            -600.00     6560.00
02680            -600.00     6560.00
02681            -600.00     6560.00
02682            -600.00     6560.00
02683            -600.00     6560.00
02684            -600.00     6560.00
02685            -600.00     6640.00
02686            -600.00     6560.00
02687            -600.00     6640.00
02688            -600.00     6640.00
02689            -620.00     6640.00
02690            -600.00     6720.00
02691            -620.00     6640.00
02692            -620.00     6720.00
02693            -620.00     6720.00
02694            -620.00     6720.00
02695            -620.00     6720.00
02696            -620.00     6720.00
02697            -620.00     6720.00
02698            -620.00     6720.00
02699            -620.00     6720.00
02700            -620.00     6800.00
02701            -620.00     6720.00
02702            -660.00     6800.00
02703            -660.00     6800.00
02704            -620.00     6800.00
02705            -640.00     6800.00
02706            -660.00     6880.00
02707            -620.00     6880.00
02708            -660.00     6800.00
02709            -620.00     6800.00
02710            -620.00     6880.00
02711            -660.00     6880.00
02712            -640.00     6880.00
02713            -660.00     6880.00
02714            -620.00     6880.00
02715            -660.00     6880.00
02716            -660.00     6880.00
02717            -660.00     6880.00
02718            -660.00     6960.00
02719            -660.00     6880.00
02720            -680.00     6960.00
02721            -660.00     6880.00
02722            -660.00     6880.00
02723            -660.00     6880.00
02724            -640.00     6880.00
02725            -660.00     6880.00
02726            -660.00     6960.00
02727            -660.00     6880.00
02728            -640.00     6960.00
02729            -680.00     6880.00
02730            -680.00     6880.00
02731            -660.00     6960.00
02732            -680.00     6960.00
02733            -660.00     6960.00
02734            -660.00     6880.00
02735            -660.00     6960.00
02736            -680.00     6960.00
02737            -660.00     6880.00
02738            -660.00     6880.00
02739            -660.00     6880.00
02740            -660.00     6880.00
02741            -680.00     6960.00
02742            -660.00     6880.00
02743            -680.00     6960.00
02744            -660.00     6880.00
02745            -660.00     6880.00
02746            -660.00     6880.00
02747            -660.00     6880.00
02748            -680.00     6880.00
02749            -660.00     6880.00
02750            -660.00     6880.00
02751            -680.00     6880.00
02752            -680.00     6880.00
02753            -660.00     6880.00
02754            -660.00     6880.00
02755            -660.00     6880.00
02756            -660.00     6880.00
02757            -660.00     6880.00
02758            -680.00     6880.00
02759            -680.00     6880.00
02760            -680.00     6880.00
02761            -680.00     6880.00
02762            -660.00     6880.00
02763            -680.00     6880.00
02764            -680.00     6800.00
02765            -660.00     6800.00
02766            -680.00     6880.00
02767            -680.00     6720.00
02768            -680.00     6720.00
02769            -680.00     6720.00
02770            -660.00     6800.00
02771            -680.00     6720.00
02772            -680.00     6720.00
02773            -660.00     6720.00
02774            -660.00     6720.00
02775            -660.00     6720.00
02776            -680.00     6640.00
02777            -660.00     6720.00
02778            -660.00     6720.00
02779            -660.00     6640.00
02780            -660.00     6640.00
02781            -680.00     6640.00
02782            -660.00     6640.00
02783            -660.00     6560.00
02784            -660.00     6560.00
02785            -680.00     6560.00
02786            -660.00     6560.00
02787            -660.00     6560.00
02788            -660.00     6560.00
02789            -620.00     6560.00
02790            -660.00     6560.00
02791            -660.00     6560.00
02792            -660.00     6400.00
02793            -660.00     6480.00
02794            -660.00     6400.00
02795            -640.00     6480.00
02796            -640.00     6400.00
02797            -620.00     6400.00
02798            -660.00     6400.00
02799            -620.00     6400.00
02800            -620.00     6400.00
02801            -620.00     6320.00
02802            -620.00     6320.00
02803            -620.00     6400.00
02804            -620.00     6320.00
02805            -620.00     6320.00
02806            -620.00     6240.00
02807            -620.00     6320.00
02808            -620.00     6240.00
02809            -620.00     6240.00
02810            -620.00     6160.00
02811            -620.00     6240.00
02812            -620.00     6080.00
02813            -620.00     6080.00
02814            -620.00     6080.00
02815            -600.00     6080.00
02816            -620.00     6080.00
02817            -600.00     6080.00
02818            -600.00     6000.00
02819            -600.00     6000.00
02820            -600.00     6000.00
02821            -600.00     5920.00
02822            -600.00     5920.00
02823            -600.00     5920.00
02824            -600.00     5920.00
02825            -600.00     5920.00
02826            -600.00     5840.00
02827            -620.00     5840.00
02828            -600.00     5760.00
02829            -600.00     5760.00
02830            -600.00     5680.00
02831            -600.00     5760.00
02832            -600.00     5680.00
02833            -600.00     5680.00
02834            -600.00     5680.00
02835            -600.00     5680.00
02836            -580.00     5600.00
02837            -600.00     5520.00
02838            -600.00     5600.00
02839            -600.00     5440.00
02840            -580.00     5520.00
02841            -580.00     5440.00
02842            -580.00     5440.00
02843            -580.00     5440.00
02844            -580.00     5360.00
02845            -540.00     5360.00
02846            -580.00     5360.00
02847            -580.00     5360.00
02848            -600.00     5280.00
02849            -540.00     5280.00
02850            -560.00     5280.00
02851            -560.00     5280.00
02852            -540.00     5120.00
02853            -540.00     5120.00
02854            -580.00     5040.00
02855            -540.00     5120.00
02856            -520.00     5040.00
02857            -520.00     5040.00
02858            -520.00     5040.00
02859            -520.00     4960.00
02860            -520.00     4960.00
02861            -520.00     4960.00
02862            -520.00     4960.00
02863            -520.00     4800.00
02864            -520.00     4800.00
02865            -520.00     4800.00
02866            -500.00     4800.00
02867            -500.00     4800.00
02868            -500.00     4720.00
02869            -500.00     4640.00
02870            -500.00     4640.00
02871            -500.00     4640.00
02872            -500.00     4560.00
02873            -500.00     4480.00
02874            -480.00     4480.00
02875            -500.00     4480.00
02876            -480.00     4480.00
02877            -460.00     4400.00
02878            -460.00     4400.00
02879            -460.00     4320.00
02880            -460.00     4320.00
02881            -460.00     4320.00
02882            -460.00     4240.00
02883            -460.00     4240.00
02884            -440.00     4160.00
02885            -460.00     4160.00
02886            -440.00     4080.00
02887            -440.00     4080.00
02888            -460.00     4000.00
02889            -440.00     4080.00
02890            -440.00     3920.00
02891            -440.00     4000.00
02892            -440.00     3840.00
02893            -440.00     3920.00
02894            -440.00     3840.00
02895            -440.00     3760.00
02896            -440.00     3680.00
02897            -440.00     3760.00
02898            -440.00     3760.00
02899            -420.00     3680.00
02900            -420.00     3680.00
02901            -420.00     3600.00
02902            -420.00     3520.00
02903            -400.00     3520.00
02904            -420.00     3520.00
02905            -400.00     3440.00
02906            -400.00     3360.00
02907            -420.00     3360.00
02908            -380.00     3360.00
02909            -380.00     3360.00
02910            -380.00     3280.00
02911            -380.00     3200.00
02912            -380.00     3200.00
02913            -380.00     3280.00
02914            -380.00     3120.00
02915            -360.00     3120.00
02916            -360.00     3040.00
02917            -360.00     3040.00
02918            -360.00     3040.00
02919            -340.00     2880.00
02920            -340.00     2880.00
02921            -360.00     2880.00
02922            -340.00     2800.00
02923            -340.00     2720.00
02924            -340.00     2800.00
02925            -340.00     2720.00
02926            -340.00     2640.00
02927            -320.00     2640.00
02928            -300.00     2560.00
02929            -320.00     2560.00
02930            -300.00     2480.00
02931            -300.00     2480.00
02932            -300.00     2400.00
02933            -280.00     2400.00
02934            -280.00     2400.00
02935            -280.00     2320.00
02936            -280.00     2240.00
02937            -280.00     2240.00
02938            -280.00     2160.00
02939            -260.00     2160.00
02940            -280.00     2080.00
02941            -280.00     2160.00
02942            -260.00     2000.00
02943            -260.00     2000.00
02944            -260.00     1920.00
02945            -260.00     1920.00
02946            -260.00     1840.00
02947            -260.00     1840.00
02948            -240.00     1760.00
02949            -220.00     1760.00
02950            -240.00     1680.00
02951            -220.00     1680.00
02952            -220.00     1520.00
02953            -220.00     1600.00
02954            -220.00     1520.00
02955            -220.00     1440.00
02956            -220.00     1520.00
02957            -220.00     1440.00
02958            -220.00     1360.00
02959            -220.00     1280.00
02960            -200.00     1280.00
02961            -200.00     1280.00
02962            -200.00     1200.00
02963            -200.00     1200.00
02964            -200.00     1200.00
02965            -180.00     1120.00
02966            -180.00     1040.00
02967            -180.00     1040.00
02968            -180.00      960.00
02969            -180.00      880.00
02970            -180.00      880.00
02971            -180.00      800.00
02972            -140.00      800.00
02973            -140.00      800.00
02974            -140.00      720.00
02975            -140.00      640.00
02976            -140.00      640.00
02977            -140.00      560.00
02978            -140.00      560.00
02979            -120.00      480.00
02980            -120.00      400.00
02981            -120.00      320.00
02982            -100.00      320.00
02983            -120.00      320.00
02984            -120.00      320.00
02985            -100.00      240.00
02986            -100.00      240.00
02987            -100.00      160.00
02988            -100.00       80.00
02989             -60.00        0.00
02990             -60.00        0.00
02991             -60.00        0.00
02992             -60.00      -80.00
02993             -60.00      -80.00
02994             -60.00     -160.00
02995             -60.00     -160.00
02996             -60.00     -160.00
02997             -60.00     -240.00
02998             -40.00     -320.00
02999             -40.00     -320.00
03000             -40.00     -320.00
03001             -40.00     -400.00
03002             -40.00     -400.00
03003               0.00     -480.00
03004             -20.00     -640.00
03005             -40.00     -720.00
03006             -20.00     -640.00
03007              20.00     -560.00
03008               0.00     -800.00
03009             -40.00     -960.00
03010              20.00     -720.00
03011              40.00     -800.00
03012              20.00    -1040.00
03013              20.00     -880.00
03014              40.00     -960.00
03015              20.00    -1040.00
03016              20.00    -1120.00
03017              40.00    -1040.00
03018              40.00    -1120.00
03019              40.00    -1200.00
03020              40.00    -1120.00
03021              40.00    -1280.00
03022              40.00    -1360.00
03023              60.00    -1360.00
03024              60.00    -1440.00
03025              60.00    -1440.00
03026              60.00    -1440.00
03027              60.00    -1600.00
03028              60.00    -1600.00
03029             100.00    -1600.00
03030             100.00    -1680.00
03031             100.00    -1680.00
03032             100.00    -1760.00
03033              60.00    -1760.00
03034             100.00    -1760.00
03035             100.00    -1840.00
03036             120.00    -1920.00
03037             120.00    -1920.00
03038             120.00    -2000.00
03039             120.00    -2000.00
03040             120.00    -2080.00
03041             120.00    -2080.00
03042             140.00    -2080.00
03043             120.00    -2240.00
03044             140.00    -2240.00
03045             140.00    -2320.00
03046             140.00    -2320.00
03047             160.00    -2400.00
03048             140.00    -2400.00
03049             180.00    -2480.00
03050             180.00    -2480.00
03051             200.00    -2560.00
03052             180.00    -2560.00
03053             180.00    -2560.00
03054             180.00    -2640.00
03055             180.00    -2720.00
03056             200.00    -2720.00
03057             180.00    -2720.00
03058             200.00    -2720.00
03059             200.00    -2880.00
03060             200.00    -2880.00
03061             220.00    -2880.00
03062             220.00    -2960.00
03063             220.00    -2960.00
03064             220.00    -3040.00
03065             220.00    -3040.00
03066             220.00    -3040.00
03067             220.00    -3040.00
03068             240.00    -3200.00
03069             260.00    -3200.00
03070             240.00    -3280.00
03071             260.00    -3280.00
03072             260.00    -3280.00
03073             260.00    -3360.00
03074             260.00    -3440.00
03075             280.00    -3360.00
03076             280.00    -3520.00
03077             280.00    -3520.00
03078             280.00    -3520.00
03079             280.00    -3600.00
03080             300.00    -3600.00
03081             280.00    -3600.00
03082             300.00    -3680.00
03083             300.00    -3680.00
03084             280.00    -3760.00
03085             300.00    -3840.00
03086             280.00    -3840.00
03087             300.00    -3840.00
03088             300.00    -3920.00
03089             300.00    -3920.00
03090             300.00    -3920.00
03091             300.00    -4000.00
03092             320.00    -4000.00
03093             320.00    -4080.00
03094             340.00    -4080.00
03095             340.00    -4160.00
03096             340.00    -4160.00
03097             340.00    -4160.00
03098             360.00    -4240.00
03099             360.00    -4320.00
03100             360.00    -4240.00
03101             360.00    -4320.00
03102             340.00    -4400.00
03103             360.00    -4320.00
03104             360.00    -4480.00
03105             360.00    -4480.00
03106             360.00    -4480.00
03107             360.00    -4560.00
03108             380.00    -4480.00
03109             360.00    -4560.00
03110             380.00    -4640.00
03111             380.00    -4640.00
03112             380.00    -4640.00
03113             380.00    -4720.00
03114             420.00    -4640.00
03115             420.00    -4800.00
03116             380.00    -4880.00
03117             420.00    -4800.00
03118             420.00    -4880.00
03119             420.00    -4880.00
03120             420.00    -4880.00
03121             420.00    -4960.00
03122             420.00    -4960.00
03123             440.00    -4960.00
03124             420.00    -5040.00
03125             440.00    -5120.00
03126             440.00    -5120.00
03127             440.00    -5120.00
03128             440.00    -5120.00
03129             440.00    -5200.00
03130             440.00    -5200.00
03131             460.00    -5280.00
03132             460.00    -5280.00
03133             460.00    -5280.00
03134             460.00    -5360.00
03135             460.00    -5360.00
03136             480.00    -5360.00
03137             500.00    -5440.00
03138             480.00    -5440.00
03139             500.00    -5440.00
03140             480.00    -5520.00
03141             500.00    -5440.00
03142             500.00    -5520.00
03143             500.00    -5520.00
03144             500.00    -5600.00
03145             500.00    -5520.00
03146             500.00    -5600.00
03147             500.00    -5680.00
03148             520.00    -5760.00
03149             500.00    -5760.00
03150             520.00    -5760.00
03151             520.00    -5760.00
03152             500.00    -5760.00
03153             520.00    -5760.00
03154             520.00    -5840.00
03155             520.00    -5840.00
03156             520.00    -5840.00
03157             520.00    -5920.00
03158             520.00    -5840.00
03159             520.00    -5920.00
03160             540.00    -5920.00
03161             540.00    -5920.00
03162             520.00    -6000.00
03163             540.00    -6000.00
03164             520.00    -6080.00
03165             540.00    -6080.00
03166             520.00    -6080.00
03167             540.00    -6080.00
03168             540.00    -6080.00
03169             540.00    -6160.00
03170             560.00    -6160.00
03171             560.00    -6160.00
03172             540.00    -6160.00
03173             580.00    -6240.00
03174             560.00    -6160.00
03175             580.00    -6240.00
03176             580.00    -6240.00
03177             580.00    -6240.00
03178             580.00    -6240.00
03179             580.00    -6240.00
03180             580.00    -6320.00
03181             580.00    -6400.00
03182             580.00    -6400.00
03183             580.00    -6480.00
03184             580.00    -6400.00
03185             580.00    -6400.00
03186             580.00    -6480.00
03187             600.00    -6400.00
03188             600.00    -6480.00
03189             600.00    -6480.00
03190             600.00    -6480.00
03191             600.00    -6480.00
03192             600.00    -6480.00
03193             600.00    -6560.00
03194             620.00    -6560.00
03195             620.00    -6560.00
03196             620.00    -6560.00
03197             600.00    -6560.00
03198             620.00    -6560.00
03199             620.00    -6640.00
03200             620.00    -6560.00
03201             620.00    -6560.00
03202             620.00    -6640.00
03203             620.00    -6640.00
03204             620.00    -6720.00
03205             620.00    -6720.00
03206             620.00    -6720.00
03207             620.00    -6720.00
03208             620.00    -6720.00
03209             620.00    -6720.00
03210             640.00    -6640.00
03211             640.00    -6720.00
03212             660.00    -6720.00
03213             640.00    -6720.00
03214             660.00    -6800.00
03215             660.00    -6720.00
03216             620.00    -6720.00
03217             660.00    -6720.00
03218             660.00    -6720.00
03219             660.00    -6720.00
03220             620.00    -6800.00
03221             640.00    -6800.00
03222             660.00    -6800.00
03223             620.00    -6800.00
03224             660.00    -6800.00
03225             660.00    -6800.00
03226             660.00    -6720.00
03227             640.00    -6800.00
03228             660.00    -6800.00
03229             660.00    -6800.00
03230             640.00    -6800.00
03231             660.00    -6800.00
03232             660.00    -6800.00
03233             660.00    -6800.00
03234             660.00    -6800.00
03235             640.00    -6880.00
03236             660.00    -6800.00
03237             660.00    -6800.00
03238             660.00    -6800.00
03239             660.00    -6800.00
03240             660.00    -6800.00
03241             660.00    -6800.00
03242             680.00    -6800.00
03243             660.00    -6800.00
03244             660.00    -6800.00
03245             660.00    -6800.00
03246             680.00    -6800.00
03247             680.00    -6800.00
03248             660.00    -6800.00
03249             660.00    -6800.00
03250             660.00    -6800.00
03251             660.00    -6880.00
03252             660.00    -6800.00
03253             660.00    -6800.00
03254             660.00    -6800.00
03255             680.00    -6800.00
03256             660.00    -6800.00
03257             660.00    -6800.00
03258             680.00    -6800.00
03259             660.00    -6800.00
03260             680.00    -6800.00
03261             660.00    -6720.00
03262             680.00    -6800.00
03263             660.00    -6800.00
03264             660.00    -6800.00
03265             680.00    -6800.00
03266             660.00    -6720.00
03267             660.00    -6720.00
03268             680.00    -6800.00
03269             680.00    -6720.00
03270             680.00    -6720.00
03271             660.00    -6720.00
03272             680.00    -6720.00
03273             680.00    -6720.00
03274             660.00    -6720.00
03275             660.00    -6640.00
03276             660.00    -6720.00
03277             660.00    -6720.00
03278             660.00    -6720.00
03279             660.00    -6720.00
03280             660.00    -6640.00
03281             660.00    -6640.00
03282             660.00    -6720.00
03283             660.00    -6640.00
03284             660.00    -6560.00
03285             660.00    -6560.00
03286             660.00    -6560.00
03287             660.00    -6560.00
03288             660.00    -6560.00
03289             660.00    -6560.00
03290             660.00    -6560.00
03291             660.00    -6560.00
03292             640.00    -6480.00
03293             660.00    -6480.00
03294             640.00    -6480.00
03295             660.00    -6480.00
03296             640.00    -6480.00
03297             660.00    -6480.00
03298             620.00    -6480.00
03299             660.00    -6400.00
03300             660.00    -6400.00
03301             620.00    -6400.00
03302             660.00    -6400.00
03303             640.00    -6400.00
03304             620.00    -6400.00
03305             660.00    -6320.00
03306             640.00    -6320.00
03307             620.00    -6240.00
03308             640.00    -6240.00
03309             620.00    -6240.00
03310             620.00    -6240.00
03311             660.00    -6240.00
03312             620.00    -6240.00
03313             620.00    -6160.00
03314             620.00    -6160.00
03315             600.00    -6160.00
03316             620.00    -6080.00
03317             620.00    -6160.00
03318             620.00    -6080.00
03319             620.00    -6080.00
03320             620.00    -6080.00
03321             620.00    -6080.00
03322             620.00    -6080.00
03323             620.00    -6080.00
03324             620.00    -5920.00
03325             620.00    -5920.00
03326             620.00    -5920.00
03327             600.00    -5920.00
03328             620.00    -5920.00
03329             600.00    -5920.00
03330             600.00    -5840.00
03331             600.00    -5760.00
03332             620.00    -5840.00
03333             600.00    -5760.00
03334             600.00    -5840.00
03335             600.00    -5760.00
03336             600.00    -5760.00
03337             600.00    -5760.00
03338             580.00    -5680.00
03339             580.00    -5600.00
03340             600.00    -5600.00
03341             600.00    -5600.00
03342             580.00    -5600.00
03343             580.00    -5520.00
03344             580.00    -5520.00
03345             580.00    -5520.00
03346             580.00    -5440.00
03347             580.00    -5440.00
03348             540.00    -5440.00
03349             580.00    -5360.00
03350             580.00    -5360.00
03351             580.00    -5360.00
03352             580.00    -5280.00
03353             540.00    -5280.00
03354             540.00    -5280.00
03355             560.00    -5280.00
03356             540.00    -5200.00
03357             540.00    -5200.00
03358             540.00    -5120.00
03359             540.00    -5120.00
03360             540.00    -5120.00
03361             540.00    -5040.00
03362             540.00    -5120.00
03363             520.00    -5120.00
03364             520.00    -5040.00
03365             540.00    -4960.00
03366             540.00    -4880.00
03367             520.00    -4960.00
03368             520.00    -4880.00
03369             520.00    -4880.00
03370             520.00    -4800.00
03371             520.00    -4800.00
03372             520.00    -4800.00
03373             520.00    -4720.00
03374             500.00    -4640.00
03375             520.00    -4640.00
03376             500.00    -4640.00
03377             520.00    -4560.00
03378             520.00    -4560.00
03379             500.00    -4560.00
03380             500.00    -4480.00
03381             500.00    -4400.00
03382             500.00    -4400.00
03383             500.00    -4400.00
03384             480.00    -4320.00
03385             460.00    -4320.00
03386             500.00    -4320.00
03387             480.00    -4240.00
03388             460.00    -4240.00
03389             460.00    -4160.00
03390             460.00    -4160.00
03391             460.00    -4160.00
03392             460.00    -4160.00
03393             460.00    -4000.00
03394             440.00    -4000.00
03395             440.00    -4000.00
03396             440.00    -4000.00
03397             440.00    -3920.00
03398             440.00    -3920.00
03399             440.00    -3840.00
03400             440.00    -3840.00
03401             440.00    -3760.00
03402             420.00    -3840.00
03403             440.00    -3760.00
03404             420.00    -3680.00
03405             420.00    -3680.00
03406             420.00    -3600.00
03407             420.00    -3520.00
03408             420.00    -3520.00
03409             420.00    -3520.00
03410             400.00    -3520.00
03411             420.00    -3440.00
03412             380.00    -3360.00
03413             380.00    -3360.00
03414             380.00    -3360.00
03415             380.00    -3280.00
03416             380.00    -3280.00
03417             360.00    -3200.00
03418             380.00    -3200.00
03419             360.00    -3200.00
03420             360.00    -3200.00
03421             360.00    -3040.00
03422             360.00    -3040.00
03423             360.00    -2960.00
03424             340.00    -2960.00
03425             340.00    -2960.00
03426             340.00    -2960.00
03427             340.00    -2800.00
03428             340.00    -2800.00
03429             340.00    -2720.00
03430             320.00    -2720.00
03431             340.00    -2720.00
03432             340.00    -2640.00
03433             340.00    -2640.00
03434             320.00    -2560.00
03435             320.00    -2560.00
03436             300.00    -2560.00
03437             300.00    -2400.00
03438             300.00    -2400.00
03439             280.00    -2400.00
03440             300.00    -2400.00
03441             300.00    -2320.00
03442             300.00    -2240.00
03443             280.00    -2240.00
03444             280.00    -2080.00
03445             280.00    -2160.00
03446             280.00    -2080.00
03447             260.00    -2000.00
03448             260.00    -2000.00
03449             260.00    -2000.00
03450             260.00    -1920.00
03451             260.00    -1840.00
03452             260.00    -1840.00
03453             260.00    -1840.00
03454             260.00    -1760.00
03455             260.00    -1760.00
03456             260.00    -1680.00
03457             260.00    -1680.00
03458             240.00    -1600.00
03459             220.00    -1520.00
03460             220.00    -1600.00
03461             220.00    -1440.00
03462             220.00    -1440.00
03463             220.00    -1440.00
03464             200.00    -1360.00
03465             220.00    -1360.00
03466             200.00    -1280.00
03467             180.00    -1280.00
03468             200.00    -1280.00
03469             200.00    -1120.00
03470             200.00    -1120.00
03471             180.00    -1120.00
03472             200.00    -1040.00
03473             180.00    -1040.00
03474             180.00     -960.00
03475             180.00     -960.00
03476             180.00     -960.00
03477             180.00     -880.00
03478             140.00     -800.00
03479             160.00     -800.00
03480             120.00     -720.00
03481             140.00     -720.00
03482             120.00     -640.00
03483             140.00     -560.00
03484             120.00     -640.00
03485             120.00     -480.00
03486             120.00     -400.00
03487             120.00     -400.00
03488             100.00     -400.00
03489             100.00     -320.00
03490             100.00     -320.00
03491             100.00     -240.00
03492             100.00     -160.00
03493             100.00     -160.00
03494              60.00      -80.00
03495             100.00      -80.00
03496              60.00        0.00
03497              60.00        0.00
03498              60.00        0.00
03499              60.00       80.00
03500              60.00      160.00
03501              60.00      160.00
03502              40.00      240.00
03503              40.00      160.00
03504              40.00      320.00
03505              40.00      240.00
03506              40.00      320.00
03507              40.00      480.00
03508              40.00      480.00
03509              40.00      560.00
03510              40.00      640.00
03511              20.00      560.00
03512               0.00      480.00
03513              20.00      640.00
03514              40.00      880.00
03515              20.00      800.00
03516             -20.00      640.00
03517              20.00      880.00
03518              20.00      960.00
03519             -20.00      800.00
03520             -20.00      880.00
03521              20.00     1200.00
03522             -20.00      960.00
03523             -40.00      960.00
03524             -20.00     1200.00
03525             -20.00     1200.00
03526             -40.00     1200.00
03527             -40.00     1280.00
03528             -40.00     1280.00
03529             -60.00     1280.00
03530             -60.00     1440.00
03531             -60.00     1440.00
03532             -60.00     1440.00
03533             -60.00     1520.00
03534             -60.00     1600.00
03535             -60.00     1520.00
03536             -60.00     1680.00
03537             -80.00     1680.00
03538            -100.00     1760.00
03539            -100.00     1840.00
03540            -100.00     1760.00
03541            -100.00     1840.00
03542            -100.00     1920.00
03543            -100.00     1920.00
03544            -120.00     1920.00
03545            -120.00     2080.00
03546            -120.00     2080.00
03547            -120.00     2160.00
03548            -120.00     2160.00
03549            -120.00     2160.00
03550            -140.00     2240.00
03551            -140.00     2240.00
03552            -140.00     2320.00
03553            -160.00     2400.00
03554            -140.00     2400.00
03555            -180.00     2480.00
03556            -180.00     2480.00
03557            -180.00     2480.00
03558            -180.00     2560.00
03559            -180.00     2560.00
03560            -180.00     2640.00
03561            -200.00     2720.00
03562            -200.00     2720.00
03563            -200.00     2720.00
03564            -200.00     2800.00
03565            -200.00     2800.00
03566            -220.00     2800.00
03567            -200.00     2880.00
03568            -200.00     2960.00
03569            -220.00     3040.00
03570            -220.00     3040.00
03571            -220.00     3040.00
03572            -220.00     3120.00
03573            -220.00     3120.00
03574            -260.00     3280.00
03575            -260.00     3200.00
03576            -240.00     3280.00
03577            -240.00     3280.00
03578            -240.00     3360.00
03579            -240.00     3360.00
03580            -260.00     3440.00
03581            -260.00     3440.00
03582            -260.00     3440.00
03583            -260.00     3520.00
03584            -260.00     3520.00
03585            -280.00     3520.00
03586            -280.00     3600.00
03587            -280.00     3680.00
03588            -280.00     3680.00
03589            -280.00     3760.00
03590            -280.00     3760.00
03591            -300.00     3760.00
03592            -280.00     3840.00
03593            -300.00     3840.00
03594            -300.00     4000.00
03595            -300.00     4000.00
03596            -300.00     4000.00
03597            -300.00     4000.00
03598            -320.00     4080.00
03599            -300.00     4000.00
03600            -320.00     4160.00
03601            -340.00     4160.00
03602            -340.00     4160.00
03603            -340.00     4240.00
03604            -340.00     4320.00
03605            -360.00     4320.00
03606            -360.00     4320.00
03607            -360.00     4320.00
03608            -360.00     4480.00
03609            -380.00     4400.00
03610            -360.00     4400.00
03611            -380.00     4480.00
03612            -380.00     4480.00
03613            -380.00     4640.00
03614            -380.00     4560.00
03615            -380.00     4640.00
03616            -380.00     4640.00
03617            -380.00     4720.00
03618            -380.00     4720.00
03619            -420.00     4800.00
03620            -440.00     4800.00
03621            -400.00     4800.00
03622            -380.00     4800.00
03623            -400.00     4880.00
03624            -420.00     4960.00
03625            -420.00     4960.00
03626            -420.00     4960.00
03627            -440.00     4960.00
03628            -440.00     5040.00
03629            -440.00     5040.00
03630            -440.00     5040.00
03631            -440.00     5120.00
03632            -440.00     5120.00
03633            -440.00     5120.00
03634            -440.00     5280.00
03635            -440.00     5280.00
03636            -440.00     5200.00
03637            -460.00     5280.00
03638            -460.00     5280.00
03639            -440.00     5360.00
03640            -460.00     5360.00
03641            -460.00     5440.00
03642            -460.00     5360.00
03643            -460.00     5440.00
03644            -460.00     5440.00
03645            -480.00     5520.00
03646            -480.00     5520.00
03647            -460.00     5600.00
03648            -480.00     5600.00
03649            -480.00     5600.00
03650            -480.00     5600.00
03651            -500.00     5680.00
03652            -500.00     5680.00
03653            -500.00     5680.00
03654            -500.00     5760.00
03655            -500.00     5840.00
03656            -500.00     5760.00
03657            -500.00     5920.00
03658            -520.00     5840.00
03659            -500.00     5840.00
03660            -520.00     5920.00
03661            -520.00     5920.00
03662            -520.00     5920.00
03663            -520.00     5920.00
03664            -540.00     6000.00
03665            -520.00     5920.00
03666            -540.00     6000.00
03667            -520.00     6000.00
03668            -540.00     6080.00
03669            -520.00     6080.00
03670            -540.00     6080.00
03671            -540.00     6080.00
03672            -540.00     6160.00
03673            -580.00     6080.00
03674            -540.00     6160.00
03675            -540.00     6240.00
03676            -540.00     6240.00
03677            -560.00     6240.00
03678            -580.00     6240.00
03679            -580.00     6240.00
03680            -560.00     6320.00
03681            -600.00     6240.00
03682            -580.00     6240.00
03683            -580.00     6320.00
03684            -600.00     6320.00
03685            -580.00     6320.00
03686            -580.00     6400.00
03687            -600.00     6400.00
03688            -600.00     6400.00
03689            -580.00     6400.00
03690            -600.00     6560.00
03691            -600.00     6400.00
03692            -600.00     6480.00
03693            -600.00     6480.00
03694            -600.00     6560.00
03695            -600.00     6560.00
03696            -600.00     6560.00
03697            -600.00     6480.00
03698            -620.00     6560.00
03699            -600.00     6560.00
03700            -600.00     6640.00
03701            -600.00     6560.00
03702            -600.00     6640.00
03703            -600.00     6640.00
03704            -620.00     6640.00
03705            -620.00     6640.00
03706            -620.00     6640.00
03707            -620.00     6640.00
03708            -620.00     6720.00
03709            -620.00     6720.00
03710            -620.00     6720.00
03711            -600.00     6720.00
03712            -620.00     6720.00
03713            -620.00     6720.00
03714            -620.00     6720.00
03715            -620.00     6720.00
03716            -620.00     6800.00
03717            -620.00     6800.00
03718            -620.00     6880.00
03719            -620.00     6880.00
03720            -620.00     6800.00
03721            -620.00     6800.00
03722            -640.00     6880.00
03723            -620.00     6880.00
03724            -620.00     6880.00
03725            -620.00     6880.00
03726            -620.00     6880.00
03727            -620.00     6880.00
03728            -620.00     6880.00
03729            -660.00     6800.00
03730            -620.00     6880.00
03731            -620.00     6880.00
03732            -620.00     6880.00
03733            -640.00     6880.00
03734            -660.00     6880.00
03735            -620.00     6880.00
03736            -660.00     6960.00
03737            -620.00     6880.00
03738            -660.00     6880.00
03739            -660.00     6880.00
03740            -660.00     6880.00
03741            -660.00     6960.00
03742            -660.00     6960.00
03743            -660.00     6880.00
03744            -660.00     6960.00
03745            -660.00     6880.00
03746            -680.00     6960.00
03747            -680.00     6960.00
03748            -680.00     6960.00
03749            -660.00     6960.00
03750            -660.00     6960.00
03751            -660.00     6960.00
03752            -660.00     6960.00
03753            -660.00     6880.00
03754            -660.00     6880.00
03755            -680.00     6880.00
03756            -660.00     6880.00
03757            -680.00     6960.00
03758            -680.00     6880.00
03759            -660.00     6880.00
03760            -680.00     6880.00
03761            -680.00     6880.00
03762            -680.00     6960.00
03763            -660.00     6880.00
03764            -680.00     6880.00
03765            -680.00     6880.00
03766            -680.00     6880.00
03767            -680.00     6880.00
03768            -660.00     6880.00
03769            -660.00     6880.00
03770            -660.00     6880.00
03771            -680.00     6880.00
03772            -660.00     6880.00
03773            -680.00     6880.00
03774            -660.00     6800.00
03775            -680.00     6880.00
03776            -660.00     6800.00
03777            -660.00     6800.00
03778            -660.00     6880.00
03779            -660.00     6880.00
03780            -660.00     6880.00
03781            -660.00     6720.00
03782            -660.00     6800.00
03783            -660.00     6800.00
03784            -660.00     6800.00
03785            -660.00     6800.00
03786            -660.00     6720.00
03787            -660.00     6800.00
03788            -660.00     6720.00
03789            -660.00     6720.00
03790            -660.00     6720.00
03791            -660.00     6720.00
03792            -660.00     6720.00
03793            -660.00     6720.00
03794            -660.00     6640.00
03795            -660.00     6640.00
03796            -640.00     6640.00
03797            -640.00     6640.00
03798            -660.00     6640.00
03799            -620.00     6560.00
03800            -660.00     6640.00
03801            -660.00     6560.00
03802            -660.00     6560.00
03803            -660.00     6560.00
03804            -660.00     6560.00
03805            -660.00     6560.00
03806            -660.00     6480.00
03807            -660.00     6560.00
03808            -660.00     6480.00
03809            -640.00     6400.00
03810            -660.00     6400.00
03811            -660.00     6480.00
03812            -640.00     6400.00
03813            -660.00     6400.00
03814            -660.00     6400.00
03815            -620.00     6400.00
03816            -640.00     6400.00
03817            -620.00     6320.00
03818            -620.00     6320.00
03819            -640.00     6400.00
03820            -640.00     6320.00
03821            -620.00     6320.00
03822            -620.00     6240.00
03823            -620.00     6240.00
03824            -620.00     6240.00
03825            -620.00     6240.00
03826            -620.00     6240.00
03827            -620.00     6240.00
03828            -620.00     6080.00
03829            -620.00     6160.00
03830            -620.00     6160.00
03831            -620.00     6080.00
03832            -620.00     6080.00
03833            -600.00     6080.00
03834            -620.00     6000.00
03835            -620.00     6000.00
03836            -600.00     5920.00
03837            -600.00     6000.00
03838            -620.00     5920.00
03839            -600.00     5920.00
03840            -600.00     5920.00
03841            -600.00     5920.00
03842            -600.00     5920.00
03843            -600.00     5840.00
03844            -600.00     5840.00
03845            -580.00     5760.00
03846            -600.00     5840.00
03847            -600.00     5760.00
03848            -580.00     5680.00
03849            -600.00     5680.00
03850            -600.00     5680.00
03851            -580.00     5600.00
03852            -580.00     5600.00
03853            -580.00     5600.00
03854            -580.00     5520.00
03855            -560.00     5520.00
03856            -580.00     5440.00
03857            -580.00     5440.00
03858            -580.00     5440.00
03859            -540.00     5440.00
03860            -580.00     5360.00
03861            -540.00     5360.00
03862            -560.00     5360.00
03863            -540.00     5280.00
03864            -560.00     5280.00
03865            -540.00     5280.00
03866            -540.00     5280.00
03867            -540.00     5200.00
03868            -540.00     5120.00
03869            -540.00     5120.00
03870            -540.00     5120.00
03871            -540.00     5120.00
03872            -540.00     5120.00
03873            -540.00     5040.00
03874            -540.00     5040.00
03875            -520.00     4960.00
03876            -540.00     5040.00
03877            -520.00     4960.00
03878            -520.00     4960.00
03879            -540.00     4880.00
03880            -520.00     4800.00
03881            -500.00     4800.00
03882            -520.00     4720.00
03883            -500.00     4720.00
03884            -520.00     4720.00
03885            -500.00     4720.00
03886            -520.00     4640.00
03887            -520.00     4640.00
03888            -500.00     4560.00
03889            -500.00     4480.00
03890            -500.00     4480.00
03891            -480.00     4480.00
03892            -480.00     4400.00
03893            -500.00     4480.00
03894            -460.00     4320.00
03895            -460.00     4320.00
03896            -460.00     4320.00
03897            -460.00     4320.00
03898            -460.00     4320.00
03899            -460.00     4240.00
03900            -460.00     4160.00
03901            -460.00     4160.00
03902            -460.00     4080.00
03903            -440.00     4080.00
03904            -440.00     4080.00
03905            -460.00     4000.00
03906            -440.00     4000.00
03907            -440.00     4000.00
03908            -420.00     3840.00
03909            -420.00     3840.00
03910            -440.00     3840.00
03911            -420.00     3840.00
03912            -440.00     3760.00
03913            -420.00     3760.00
03914            -420.00     3680.00
03915            -420.00     3680.00
03916            -400.00     3600.00
03917            -420.00     3680.00
03918            -420.00     3600.00
03919            -420.00     3520.00
03920            -380.00     3520.00
03921            -380.00     3440.00
03922            -380.00     3360.00
03923            -380.00     3360.00
03924            -380.00     3360.00
03925            -380.00     3360.00
03926            -380.00     3360.00
03927            -360.00     3280.00
03928            -380.00     3200.00
03929            -360.00     3200.00
03930            -360.00     3120.00
03931            -380.00     3120.00
03932            -360.00     3120.00
03933            -360.00     3040.00
03934            -360.00     3040.00
03935            -360.00     2880.00
03936            -360.00     2880.00
03937            -340.00     2880.00
03938            -340.00     2800.00
03939            -340.00     2800.00
03940            -340.00     2720.00
03941            -320.00     2720.00
03942            -340.00     2720.00
03943            -340.00     2560.00
03944            -300.00     2640.00
03945            -340.00     2560.00
03946            -300.00     2480.00
03947            -300.00     2480.00
03948            -320.00     2480.00
03949            -300.00     2480.00
03950            -300.00     2400.00
03951            -300.00     2400.00
03952            -300.00     2240.00
03953            -300.00     2160.00
03954            -280.00     2240.00
03955            -280.00     2160.00
03956            -280.00     2160.00
03957            -280.00     2080.00
03958            -280.00     2000.00
03959            -280.00     1920.00
03960            -260.00     1920.00
03961            -240.00     1920.00
03962            -260.00     1840.00
03963            -220.00     1840.00
03964            -260.00     1760.00
03965            -240.00     1760.00
03966            -240.00     1760.00
03967            -220.00     1680.00
03968            -240.00     1600.00
03969            -220.00     1600.00
03970            -220.00     1520.00
03971            -220.00     1520.00
03972            -200.00     1520.00
03973            -200.00     1440.00
03974            -200.00     1360.00
03975            -200.00     1280.00
03976            -200.00     1280.00
03977            -200.00     1280.00
03978            -180.00     1200.00
03979            -200.00     1200.00
03980            -200.00     1200.00
03981            -180.00     1120.00
03982            -180.00     1120.00
03983            -160.00     1040.00
03984            -160.00      960.00
03985            -180.00      960.00
03986            -140.00      960.00
03987            -140.00      880.00
03988            -140.00      800.00
03989            -140.00      800.00
03990            -140.00      800.00
03991            -140.00      640.00
03992            -120.00      720.00
03993            -120.00      560.00
03994            -120.00      560.00
03995            -120.00      480.00
03996            -120.00      400.00
03997            -120.00      480.00
03998            -120.00      320.00
03999            -100.00      320.00
04000            -120.00      320.00
04001            -100.00      240.00
04002            -100.00      160.00
04003            -100.00      160.00
04004            -100.00      160.00
04005            -100.00       80.00
04006             -80.00       80.00
04007             -60.00        0.00
04008             -60.00        0.00
04009             -60.00      -80.00
04010             -60.00     -160.00
04011             -60.00     -160.00
04012             -60.00     -160.00
04013             -60.00     -240.00
04014             -60.00     -320.00
04015             -60.00     -320.00
04016             -40.00     -320.00
04017             -60.00     -400.00
04018             -40.00     -400.00
04019             -20.00     -480.00
04020             -40.00     -640.00
04021             -60.00     -720.00
04022             -40.00     -640.00
04023             -20.00     -480.00
04024             -20.00     -720.00
04025             -40.00     -960.00
04026             -20.00     -800.00
04027              20.00     -800.00
04028               0.00     -960.00
04029              20.00     -960.00
04030              20.00     -800.00
04031              20.00     -960.00
04032              20.00    -1040.00
04033              40.00     -960.00
04034              40.00    -1120.00
04035              20.00    -1200.00
04036              40.00    -1120.00
04037              60.00    -1280.00
04038              40.00    -1360.00
04039              60.00    -1280.00
04040              60.00    -1360.00
04041              60.00    -1440.00
04042             100.00    -1440.00
04043              60.00    -1440.00
04044              60.00    -1600.00
04045             100.00    -1600.00
04046             100.00    -1680.00
04047             100.00    -1680.00
04048             100.00    -1760.00
04049             100.00    -1760.00
04050             120.00    -1760.00
04051             100.00    -1840.00
04052             120.00    -1840.00
04053             120.00    -2000.00
04054             120.00    -1920.00
04055             120.00    -1920.00
04056             120.00    -2000.00
04057             140.00    -2080.00
04058             120.00    -2080.00
04059             120.00    -2240.00
04060             140.00    -2240.00
04061             140.00    -2240.00
04062             140.00    -2320.00
04063             140.00    -2400.00
04064             160.00    -2320.00
04065             140.00    -2400.00
04066             160.00    -2480.00
04067             180.00    -2480.00
04068             160.00    -2560.00
04069             180.00    -2560.00
04070             180.00    -2640.00
04071             180.00    -2640.00
04072             200.00    -2720.00
04073             180.00    -2720.00
04074             200.00    -2800.00
04075             200.00    -2880.00
04076             200.00    -2880.00
04077             200.00    -2880.00
04078             200.00    -2960.00
04079             200.00    -2960.00
04080             220.00    -2960.00
04081             220.00    -3040.00
04082             220.00    -3120.00
04083             220.00    -3200.00
04084             260.00    -3200.00
04085             220.00    -3200.00
04086             260.00    -3280.00
04087             260.00    -3280.00
04088             260.00    -3360.00
04089             260.00    -3360.00
04090             260.00    -3360.00
04091             260.00    -3440.00
04092             260.00    -3360.00
04093             280.00    -3520.00
04094             280.00    -3600.00
04095             280.00    -3520.00
04096             280.00    -3600.00
04097             280.00    -3600.00
04098             280.00    -3680.00
04099             300.00    -3680.00
04100             300.00    -3680.00
04101             300.00    -3760.00
04102             300.00    -3760.00
04103             300.00    -3920.00
04104             340.00    -3840.00
04105             340.00    -3920.00
04106             320.00    -3920.00
04107             340.00    -4000.00
04108             320.00    -4000.00
04109             340.00    -4000.00
04110             340.00    -4080.00
04111             340.00    -4160.00
04112             340.00    -4160.00
04113             360.00    -4160.00
04114             360.00    -4240.00
04115             360.00    -4240.00
04116             360.00    -4320.00
04117             360.00    -4320.00
04118             360.00    -4320.00
04119             360.00    -4400.00
04120             360.00    -4400.00
04121             380.00    -4480.00
04122             380.00    -4400.00
04123             380.00    -4560.00
04124             380.00    -4560.00
04125             380.00    -4560.00
04126             380.00    -4640.00
04127             400.00    -4640.00
04128             380.00    -4640.00
04129             380.00    -4720.00
04130             380.00    -4800.00
04131             380.00    -4800.00
04132             420.00    -4800.00
04133             420.00    -4880.00
04134             420.00    -4800.00
04135             420.00    -4880.00
04136             420.00    -4960.00
04137             420.00    -4960.00
04138             420.00    -4960.00
04139             420.00    -4960.00
04140             440.00    -5040.00
04141             440.00    -5120.00
04142             440.00    -5120.00
04143             440.00    -5120.00
04144             440.00    -5120.00
04145             440.00    -5200.00
04146             440.00    -5200.00
04147             440.00    -5200.00
04148             440.00    -5280.00
04149             460.00    -5280.00
04150             460.00    -5360.00
04151             460.00    -5440.00
04152             460.00    -5360.00
04153             460.00    -5440.00
04154             480.00    -5440.00
04155             500.00    -5440.00
04156             500.00    -5440.00
04157             460.00    -5440.00
04158             500.00    -5520.00
04159             500.00    -5520.00
04160             500.00    -5600.00
04161             500.00    -5600.00
04162             520.00    -5600.00
04163             500.00    -5600.00
04164             520.00    -5680.00
04165             500.00    -5760.00
04166             520.00    -5760.00
04167             520.00    -5760.00
04168             520.00    -5760.00
04169             520.00    -5840.00
04170             540.00    -5840.00
04171             520.00    -5840.00
04172             520.00    -5840.00
04173             540.00    -5920.00
04174             520.00    -5920.00
04175             540.00    -5920.00
04176             540.00    -5920.00
04177             540.00    -5920.00
04178             540.00    -6000.00
04179             560.00    -6000.00
04180             540.00    -6080.00
04181             540.00    -6080.00
04182             560.00    -6080.00
04183             580.00    -6080.00
04184             540.00    -6080.00
04185             540.00    -6160.00
04186             580.00    -6160.00
04187             580.00    -6160.00
04188             580.00    -6160.00
04189             580.00    -6160.00
04190             580.00    -6240.00
04191             580.00    -6240.00
04192             580.00    -6240.00
04193             580.00    -6240.00
04194             580.00    -6240.00
04195             580.00    -6320.00
04196             580.00    -6320.00
04197             580.00    -6240.00
04198             580.00    -6320.00
04199             580.00    -6240.00
04200             580.00    -6400.00
04201             580.00    -6400.00
04202             580.00    -6400.00
04203             600.00    -6400.00
04204             580.00    -6480.00
04205             600.00    -6480.00
04206             600.00    -6480.00
04207             580.00    -6480.00
04208             600.00    -6480.00
04209             600.00    -6560.00
04210             600.00    -6560.00
04211             600.00    -6560.00
04212             600.00    -6560.00
04213             620.00    -6560.00
04214             600.00    -6560.00
04215             600.00    -6560.00
04216             600.00    -6560.00
04217             600.00    -6560.00
04218             600.00    -6560.00
04219             620.00    -6640.00
04220             620.00    -6640.00
04221             620.00    -6640.00
04222             620.00    -6720.00
04223             620.00    -6640.00
04224             620.00    -6720.00
04225             620.00    -6640.00
04226             620.00    -6720.00
04227             620.00    -6720.00
04228             620.00    -6720.00
04229             620.00    -6720.00
04230             640.00    -6720.00
04231             620.00    -6720.00
04232             660.00    -6720.00
04233             640.00    -6720.00
04234             660.00    -6800.00
04235             660.00    -6720.00
04236             660.00    -6720.00
04237             640.00    -6800.00
04238             660.00    -6720.00
04239             640.00    -6720.00
04240             640.00    -6800.00
04241             660.00    -6800.00
04242             640.00    -6800.00
04243             660.00    -6800.00
04244             660.00    -6800.00
04245             660.00    -6800.00
04246             660.00    -6800.00
04247             660.00    -6800.00
04248             660.00    -6800.00
04249             660.00    -6800.00
04250             680.00    -6800.00
04251             660.00    -6800.00
04252             680.00    -6800.00
04253             640.00    -6800.00
04254             660.00    -6800.00
04255             660.00    -6880.00
04256             680.00    -6880.00
04257             660.00    -6800.00
04258             660.00    -6800.00
04259             660.00    -6880.00
04260             660.00    -6880.00
04261             660.00    -6800.00
04262             660.00    -6880.00
04263             660.00    -6800.00
04264             660.00    -6800.00
04265             660.00    -6880.00
04266             660.00    -6800.00
04267             660.00    -6880.00
04268             660.00    -6800.00
04269             660.00    -6800.00
04270             660.00    -6800.00
04271             660.00    -6800.00
04272             660.00    -6800.00
04273             660.00    -6800.00
04274             660.00    -6800.00
04275             660.00    -6720.00
04276             660.00    -6800.00
04277             660.00    -6800.00
04278             640.00    -6720.00
04279             660.00    -6800.00
04280             660.00    -6800.00
04281             660.00    -6800.00
04282             660.00    -6800.00
04283             660.00    -6800.00
04284             660.00    -6800.00
04285             660.00    -6720.00
04286             660.00    -6720.00
04287             680.00    -6720.00
04288             660.00    -6720.00
04289             660.00    -6720.00
04290             660.00    -6720.00
04291             660.00    -6720.00
04292             660.00    -6720.00
04293             660.00    -6560.00
04294             660.00    -6720.00
04295             660.00    -6720.00
04296             660.00    -6640.00
04297             660.00    -6640.00
04298             660.00    -6640.00
04299             680.00    -6640.00
04300             660.00    -6560.00
04301             660.00    -6560.00
04302             660.00    -6560.00
04303             680.00    -6560.00
04304             660.00    -6560.00
04305             660.00    -6560.00
04306             660.00    -6560.00
04307             660.00    -6560.00
04308             660.00    -6560.00
04309             660.00    -6560.00
04310             660.00    -6480.00
04311             660.00    -6480.00
04312             660.00    -6480.00
04313             660.00    -6480.00
04314             660.00    -6400.00
04315             640.00    -6400.00
04316             660.00    -6400.00
04317             660.00    -6400.00
04318             620.00    -6400.00
04319             640.00    -6400.00
04320             660.00    -6400.00
04321             620.00    -6320.00
04322             660.00    -6240.00
04323             660.00    -6240.00
04324             640.00    -6240.00
04325             620.00    -6240.00
04326             620.00    -6240.00
04327             620.00    -6240.00
04328             620.00    -6240.00
04329             620.00    -6240.00
04330             620.00    -6160.00
04331             620.00    -6160.00
04332             620.00    -6160.00
04333             620.00    -6160.00
04334             620.00    -6160.00
04335             600.00    -6080.00
04336             620.00    -6080.00
04337             620.00    -6080.00
04338             620.00    -6080.00
04339             600.00    -6000.00
04340             600.00    -6000.00
04341             620.00    -5920.00
04342             600.00    -5920.00
04343             600.00    -5920.00
04344             600.00    -5920.00
04345             600.00    -5840.00
04346             600.00    -5840.00
04347             600.00    -5840.00
04348             600.00    -5840.00
04349             580.00    -5760.00
04350             600.00    -5760.00
04351             580.00    -5760.00
04352             580.00    -5760.00
04353             600.00    -5680.00
04354             600.00    -5680.00
04355             600.00    -5760.00
04356             600.00    -5600.00
04357             580.00    -5600.00
04358             580.00    -5600.00
04359             580.00    -5520.00
04360             580.00    -5520.00
04361             580.00    -5520.00
04362             580.00    -5440.00
04363             580.00    -5440.00
04364             580.00    -5440.00
04365             580.00    -5440.00
04366             580.00    -5360.00
04367             580.00    -5440.00
04368             580.00    -5280.00
04369             580.00    -5280.00
04370             580.00    -5280.00
04371             580.00    -5200.00
04372             540.00    -5200.00
04373             540.00    -5200.00
04374             540.00    -5200.00
04375             540.00    -5120.00
04376             540.00    -5120.00
04377             540.00    -5040.00
04378             540.00    -5040.00
04379             520.00    -5120.00
04380             540.00    -4960.00
04381             520.00    -4960.00
04382             520.00    -4960.00
04383             540.00    -4960.00
04384             520.00    -4880.00
04385             540.00    -4880.00
04386             520.00    -4800.00
04387             520.00    -4720.00
04388             520.00    -4800.00
04389             520.00    -4800.00
04390             520.00    -4720.00
04391             500.00    -4720.00
04392             520.00    -4560.00
04393             500.00    -4640.00
04394             520.00    -4640.00
04395             500.00    -4560.00
04396             500.00    -4560.00
04397             500.00    -4480.00
04398             480.00    -4480.00
04399             500.00    -4400.00
04400             460.00    -4320.00
04401             480.00    -4320.00
04402             460.00    -4320.00
04403             460.00    -4320.00
04404             460.00    -4240.00
04405             440.00    -4240.00
04406             460.00    -4160.00
04407             440.00    -4160.00
04408             440.00    -4080.00
04409             460.00    -4160.00
04410             460.00    -4080.00
04411             440.00    -4000.00
04412             420.00    -4000.00
04413             440.00    -3920.00
04414             440.00    -4000.00
04415             420.00    -3840.00
04416             420.00    -3840.00
04417             440.00    -3840.00
04418             420.00    -3760.00
04419             420.00    -3760.00
04420             420.00    -3680.00
04421             420.00    -3680.00
04422             420.00    -3600.00
04423             420.00    -3520.00
04424             420.00    -3520.00
04425             380.00    -3520.00
04426             420.00    -3520.00
04427             400.00    -3440.00
04428             400.00    -3360.00
04429             380.00    -3360.00
04430             380.00    -3360.00
04431             400.00    -3360.00
04432             380.00    -3280.00
04433             380.00    -3200.00
04434             380.00    -3200.00
04435             360.00    -3200.00
04436             360.00    -3120.00
04437             380.00    -3040.00
04438             360.00    -3040.00
04439             360.00    -2960.00
04440             360.00    -2960.00
04441             360.00    -2960.00
04442             360.00    -2880.00
04443             340.00    -2880.00
04444             360.00    -2800.00
04445             360.00    -2720.00
04446             340.00    -2720.00
04447             340.00    -2720.00
04448             340.00    -2640.00
04449             340.00    -2640.00
04450             300.00    -2560.00
04451             340.00    -2560.00
04452             300.00    -2560.00
04453             300.00    -2480.00
04454             300.00    -2400.00
04455             300.00    -2400.00
04456             300.00    -2400.00
04457             280.00    -2320.00
04458             280.00    -2240.00
04459             280.00    -2240.00
04460             300.00    -2240.00
04461             280.00    -2160.00
04462             280.00    -2080.00
04463             280.00    -2080.00
04464             260.00    -2000.00
04465             260.00    -2000.00
04466             260.00    -2000.00
04467             260.00    -1920.00
04468             260.00    -1840.00
04469             260.00    -1840.00
04470             260.00    -1760.00
04471             260.00    -1760.00
04472             260.00    -1760.00
04473             240.00    -1680.00
04474             240.00    -1680.00
04475             220.00    -1600.00
04476             220.00    -1600.00
04477             220.00    -1520.00
04478             220.00    -1440.00
04479             200.00    -1440.00
04480             200.00    -1360.00
04481             200.00    -1360.00
04482             200.00    -1280.00
04483             200.00    -1280.00
04484             200.00    -1200.00
04485             180.00    -1200.00
04486             180.00    -1120.00
04487             180.00    -1120.00
04488             180.00    -1040.00
04489             180.00    -1040.00
04490             180.00     -960.00
04491             160.00     -960.00
04492             160.00     -960.00
04493             160.00     -800.00
04494             160.00     -800.00
04495             180.00     -800.00
04496             140.00     -720.00
04497             180.00     -720.00
04498             140.00     -720.00
04499             120.00     -640.00
04500             140.00     -480.00
04501             140.00     -560.00
04502             120.00     -400.00
04503             120.00     -480.00
04504             120.00     -400.00
04505             120.00     -400.00
04506             120.00     -320.00
04507             120.00     -240.00
04508             120.00     -240.00
04509             100.00     -160.00
04510             120.00     -160.00
04511             100.00      -80.00
04512             100.00      -80.00
04513             100.00      -80.00
04514             100.00        0.00
04515              60.00        0.00
04516              60.00      160.00
04517              60.00      160.00
04518              60.00      160.00
04519              60.00      240.00
04520              40.00      320.00
04521              40.00      320.00
04522              40.00      320.00
04523              40.00      400.00
04524              40.00      320.00
04525              20.00      480.00
04526              40.00      640.00
04527              20.00      560.00
04528               0.00      560.00
04529             -20.00      560.00
04530              20.00      800.00
04531              20.00      880.00
04532             -40.00      640.00
04533             -20.00      800.00
04534              20.00     1040.00
04535             -20.00      880.00
04536             -20.00      880.00
04537             -20.00     1120.00
04538             -20.00     1120.00
04539             -40.00      880.00
04540             -40.00     1120.00
04541             -20.00     1200.00
04542             -40.00     1120.00
04543             -60.00     1280.00
04544             -40.00     1360.00
04545             -60.00     1280.00
04546             -60.00     1360.00
04547             -60.00     1440.00
04548             -60.00     1440.00
04549             -60.00     1520.00
04550             -60.00     1600.00
04551             -60.00     1520.00
04552             -60.00     1600.00
04553             -80.00     1680.00
04554            -100.00     1600.00
04555             -80.00     1760.00
04556            -100.00     1840.00
04557            -100.00     1840.00
04558            -100.00     1920.00
04559            -100.00     1920.00
04560            -120.00     1920.00
04561            -120.00     2080.00
04562            -120.00     2080.00
04563            -120.00     2080.00
04564            -120.00     2160.00
04565            -120.00     2240.00
04566            -140.00     2240.00
04567            -120.00     2240.00
04568            -140.00     2320.00
04569            -140.00     2400.00
04570            -160.00     2400.00
04571            -140.00     2480.00
04572            -160.00     2480.00
04573            -180.00     2480.00
04574            -180.00     2560.00
04575            -180.00     2560.00
04576            -200.00     2560.00
04577            -180.00     2720.00
04578            -180.00     2720.00
04579            -200.00     2800.00
04580            -200.00     2800.00
04581            -180.00     2800.00
04582            -220.00     2880.00
04583            -200.00     2880.00
04584            -220.00     2960.00
04585            -220.00     3040.00
04586            -220.00     2960.00
04587            -220.00     3040.00
04588            -220.00     3120.00
04589            -240.00     3120.00
04590            -260.00     3200.00
04591            -220.00     3200.00
04592            -260.00     3280.00
04593            -260.00     3280.00
04594            -260.00     3360.00
04595            -260.00     3360.00
04596            -280.00     3360.00
04597            -280.00     3440.00
04598            -280.00     3440.00
04599            -280.00     3440.00
04600            -280.00     3520.00
04601            -280.00     3600.00
04602            -280.00     3680.00
04603            -280.00     3680.00
04604            -300.00     3680.00
04605            -280.00     3680.00
04606            -300.00     3760.00
04607            -300.00     3760.00
04608            -300.00     3760.00
04609            -300.00     3840.00
04610            -300.00     3840.00
04611            -300.00     4000.00
04612            -340.00     4000.00
04613            -300.00     4000.00
04614            -300.00     4080.00
04615            -340.00     4080.00
04616            -340.00     4160.00
04617            -340.00     4080.00
04618            -340.00     4160.00
04619            -340.00     4160.00
04620            -340.00     4160.00
04621            -360.00     4240.00
04622            -360.00     4320.00
04623            -360.00     4400.00
04624            -360.00     4400.00
04625            -360.00     4400.00
04626            -360.00     4480.00
04627            -380.00     4480.00
04628            -360.00     4480.00
04629            -380.00     4480.00
04630            -380.00     4640.00
04631            -380.00     4640.00
04632            -380.00     4640.00
04633            -380.00     4720.00
04634            -380.00     4720.00
04635            -380.00     4800.00
04636            -380.00     4720.00
04637            -380.00     4800.00
04638            -420.00     4800.00
04639            -380.00     4800.00
04640            -420.00     4960.00
04641            -420.00     4960.00
04642            -420.00     4960.00
04643            -420.00     5040.00
04644            -420.00     5040.00
04645            -420.00     5040.00
04646            -440.00     5120.00
04647            -440.00     5120.00
04648            -440.00     5120.00
04649            -440.00     5120.00
04650            -440.00     5200.00
04651            -440.00     5200.00
04652            -460.00     5280.00
04653            -440.00     5280.00
04654            -460.00     5280.00
04655            -460.00     5280.00
04656            -460.00     5360.00
04657            -460.00     5360.00
04658            -460.00     5440.00
04659            -460.00     5440.00
04660            -460.00     5440.00
04661            -500.00     5440.00
04662            -460.00     5440.00
04663            -500.00     5520.00
04664            -500.00     5600.00
04665            -460.00     5600.00
04666            -500.00     5600.00
04667            -500.00     5680.00
04668            -500.00     5680.00
04669            -500.00     5680.00
04670            -500.00     5760.00
04671            -520.00     5840.00
04672            -520.00     5760.00
04673            -520.00     5840.00
04674            -520.00     5840.00
04675            -520.00     5840.00
04676            -540.00     5840.00
04677            -540.00     5920.00
04678            -520.00     5920.00
04679            -540.00     5920.00
04680            -540.00     6000.00
04681            -520.00     6000.00
04682            -540.00     6080.00
04683            -540.00     6000.00
04684            -520.00     6000.00
04685            -520.00     6080.00
04686            -540.00     6080.00
04687            -540.00     6160.00
04688            -540.00     6080.00
04689            -540.00     6080.00
04690            -540.00     6240.00
04691            -540.00     6160.00
04692            -540.00     6240.00
04693            -540.00     6240.00
04694            -540.00     6240.00
04695            -560.00     6240.00
04696            -580.00     6240.00
04697            -540.00     6320.00
04698            -580.00     6320.00
04699            -560.00     6320.00
04700            -580.00     6320.00
04701            -580.00     6320.00
04702            -580.00     6400.00
04703            -580.00     6400.00
04704            -560.00     6480.00
04705            -600.00     6400.00
04706            -580.00     6400.00
04707            -600.00     6480.00
04708            -580.00     6480.00
04709            -600.00     6560.00
04710            -600.00     6560.00
04711            -600.00     6560.00
04712            -580.00     6480.00
04713            -600.00     6560.00
04714            -600.00     6560.00
04715            -600.00     6560.00
04716            -600.00     6560.00
04717            -600.00     6640.00
04718            -600.00     6640.00
04719            -600.00     6640.00
04720            -600.00     6640.00
04721            -600.00     6640.00
04722            -620.00     6720.00
04723            -620.00     6640.00
04724            -620.00     6640.00
04725            -620.00     6640.00
04726            -620.00     6720.00
04727            -620.00     6720.00
04728            -640.00     6720.00
04729            -620.00     6720.00
04730            -620.00     6720.00
04731            -660.00     6800.00
04732            -620.00     6720.00
04733            -660.00     6800.00
04734            -620.00     6720.00
04735            -620.00     6800.00
04736            -640.00     6720.00
04737            -640.00     6880.00
04738            -620.00     6800.00
04739            -660.00     6880.00
04740            -660.00     6800.00
04741            -620.00     6880.00
04742            -640.00     6880.00
04743            -620.00     6880.00
04744            -620.00     6800.00
04745            -640.00     6880.00
04746            -660.00     6880.00
04747            -620.00     6880.00
04748            -660.00     6880.00
04749            -660.00     6880.00
04750            -660.00     6880.00
04751            -660.00     6880.00
04752            -660.00     6880.00
04753            -620.00     6880.00
04754            -660.00     6880.00
04755            -660.00     6880.00
04756            -660.00     6960.00
04757            -660.00     6880.00
04758            -660.00     6880.00
04759            -660.00     6880.00
04760            -660.00     6960.00
04761            -660.00     6880.00
04762            -680.00     6880.00
04763            -660.00     6960.00
04764            -660.00     6880.00
04765            -660.00     6960.00
04766            -680.00     6960.00
04767            -660.00     6960.00
04768            -660.00     6960.00
04769            -680.00     6960.00
04770            -660.00     6880.00
04771            -660.00     6960.00
04772            -660.00     6880.00
04773            -660.00     6880.00
04774            -680.00     6960.00
04775            -660.00     6960.00
04776            -680.00     6960.00
04777            -660.00     6880.00
04778            -660.00     6880.00
04779            -660.00     6880.00
04780            -660.00     6880.00
04781            -660.00     6880.00
04782            -660.00     6960.00
04783            -680.00     6880.00
04784            -660.00     6880.00
04785            -680.00     6880.00
04786            -680.00     6880.00
04787            -680.00     6880.00
04788            -680.00     6880.00
04789            -680.00     6880.00
04790            -660.00     6880.00
04791            -680.00     6880.00
04792            -680.00     6880.00
04793            -680.00     6800.00
04794            -680.00     6800.00
04795            -660.00     6800.00
04796            -680.00     6800.00
04797            -680.00     6720.00
04798            -660.00     6800.00
04799            -680.00     6720.00
04800            -660.00     6720.00
04801            -660.00     6800.00
04802            -680.00     6720.00
04803            -660.00     6800.00
04804            -660.00     6720.00
04805            -680.00     6720.00
04806            -660.00     6720.00
04807            -660.00     6720.00
04808            -680.00     6720.00
04809            -660.00     6720.00
04810            -680.00     6720.00
04811            -660.00     6640.00
04812            -660.00     6640.00
04813            -660.00     6720.00
04814            -660.00     6640.00
04815            -660.00     6640.00
04816            -660.00     6560.00
04817            -660.00     6640.00
04818            -660.00     6560.00
04819            -640.00     6560.00
04820            -660.00     6560.00
04821            -660.00     6560.00
04822            -660.00     6560.00
04823            -660.00     6560.00
04824            -640.00     6560.00
04825            -620.00     6480.00
04826            -660.00     6480.00
04827            -660.00     6400.00
04828            -640.00     6480.00
04829            -620.00     6400.00
04830            -640.00     6400.00
04831            -620.00     6320.00
04832            -620.00     6400.00
04833            -620.00     6400.00
04834            -620.00     6320.00
04835            -620.00     6320.00
04836            -640.00     6320.00
04837            -620.00     6240.00
04838            -620.00     6320.00
04839            -620.00     6240.00
04840            -640.00     6240.00
04841            -620.00     6240.00
04842            -620.00     6240.00
04843            -600.00     6160.00
04844            -620.00     6160.00
04845            -620.00     6160.00
04846            -620.00     6080.00
04847            -600.00     6160.00
04848            -620.00     6080.00
04849            -620.00     6000.00
04850            -620.00     6000.00
04851            -620.00     6080.00
04852            -620.00     6000.00
04853            -620.00     6000.00
04854            -620.00     5920.00
04855            -600.00     5920.00
04856            -620.00     5920.00
04857            -600.00     5920.00
04858            -620.00     5920.00
04859            -600.00     5840.00
04860            -600.00     5840.00
04861            -600.00     5840.00
04862            -600.00     5760.00
04863            -600.00     5760.00
04864            -600.00     5760.00
04865            -600.00     5680.00
04866            -600.00     5680.00
04867            -600.00     5680.00
04868            -580.00     5600.00
04869            -600.00     5600.00
04870            -580.00     5600.00
04871            -580.00     5600.00
04872            -600.00     5520.00
04873            -580.00     5520.00
04874            -600.00     5440.00
04875            -560.00     5440.00
04876            -580.00     5440.00
04877            -580.00     5360.00
04878            -580.00     5360.00
04879            -580.00     5360.00
04880            -560.00     5280.00
04881            -540.00     5280.00
04882            -540.00     5280.00
04883            -540.00     5280.00
04884            -540.00     5200.00
04885            -540.00     5200.00
04886            -520.00     5120.00
04887            -540.00     5120.00
04888            -540.00     5120.00
04889            -520.00     5040.00
04890            -540.00     5040.00
04891            -540.00     4960.00
04892            -520.00     4960.00
04893            -520.00     4960.00
04894            -520.00     4960.00
04895            -520.00     4880.00
04896            -520.00     4880.00
04897            -520.00     4800.00
04898            -520.00     4800.00
04899            -500.00     4800.00
04900            -500.00     4720.00
04901            -480.00     4720.00
04902            -500.00     4640.00
04903            -500.00     4640.00
04904            -500.00     4640.00
04905            -500.00     4480.00
04906            -500.00     4480.00
04907            -500.00     4480.00
04908            -460.00     4480.00
04909            -460.00     4400.00
04910            -480.00     4400.00
04911            -460.00     4400.00
04912            -460.00     4400.00
04913            -460.00     4320.00
04914            -460.00     4320.00
04915            -460.00     4240.00
04916            -460.00     4160.00
04917            -460.00     4160.00
04918            -460.00     4080.00
04919            -460.00     4160.00
04920            -460.00     4000.00
04921            -440.00     4080.00
04922            -440.00     4000.00
04923            -440.00     4000.00
04924            -460.00     4000.00
04925            -440.00     3840.00
04926            -440.00     3840.00
04927            -440.00     3760.00
04928            -440.00     3760.00
04929            -420.00     3760.00
04930            -440.00     3760.00
04931            -440.00     3680.00
04932            -420.00     3680.00
04933            -420.00     3520.00
04934            -420.00     3520.00
04935            -400.00     3520.00
04936            -420.00     3520.00
04937            -380.00     3440.00
04938            -420.00     3440.00
04939            -380.00     3440.00
04940            -380.00     3360.00
04941            -380.00     3360.00
04942            -380.00     3280.00
04943            -360.00     3200.00
04944            -380.00     3280.00
04945            -380.00     3200.00
04946            -360.00     3200.00
04947            -380.00     3120.00
04948            -380.00     3120.00
04949            -360.00     3040.00
04950            -360.00     3040.00
04951            -360.00     2960.00
04952            -360.00     2880.00
04953            -340.00     2880.00
04954            -340.00     2800.00
04955            -340.00     2800.00
04956            -340.00     2720.00
04957            -340.00     2720.00
04958            -340.00     2640.00
04959            -300.00     2720.00
04960            -320.00     2560.00
04961            -300.00     2560.00
04962            -300.00     2560.00
04963            -300.00     2560.00
04964            -300.00     2480.00
04965            -300.00     2400.00
04966            -300.00     2400.00
04967            -280.00     2320.00
04968            -280.00     2240.00
04969            -280.00     2240.00
04970            -280.00     2240.00
04971            -280.00     2160.00
04972            -280.00     2160.00
04973            -260.00     2080.00
04974            -280.00     2000.00
04975            -280.00     2000.00
04976            -260.00     1920.00
04977            -260.00     1920.00
04978            -280.00     1840.00
04979            -260.00     1840.00
04980            -260.00     1840.00
04981            -260.00     1760.00
04982            -260.00     1760.00
04983            -220.00     1600.00
04984            -220.00     1600.00
04985            -240.00     1600.00
04986            -220.00     1600.00
04987            -220.00     1520.00
04988            -220.00     1520.00
04989            -220.00     1360.00
04990            -200.00     1360.00
04991            -220.00     1360.00
04992            -200.00     1360.00
04993            -200.00     1200.00
04994            -200.00     1200.00
04995            -200.00     1200.00
04996            -200.00     1120.00
04997            -200.00     1120.00
04998            -180.00     1120.00
04999            -200.00     1040.00
05000            -180.00      960.00
