Unit:(mV)
                     CH1         CH2
Frequency              ?  98.391 kHz
00001             220.00    -2560.00
00002             260.00    -2640.00
00003             260.00    -2640.00
00004             260.00    -2640.00
00005             260.00    -2720.00
00006             260.00    -2720.00
00007             260.00    -2800.00
00008             260.00    -2880.00
00009             260.00    -2880.00
00010             260.00    -2880.00
00011             260.00    -2960.00
00012             280.00    -2960.00
00013             280.00    -2960.00
00014             280.00    -3040.00
00015             300.00    -3120.00
00016             280.00    -3200.00
00017             300.00    -3200.00
00018             300.00    -3280.00
00019             340.00    -3280.00
00020             300.00    -3280.00
00021             340.00    -3280.00
00022             340.00    -3360.00
00023             340.00    -3360.00
00024             340.00    -3440.00
00025             340.00    -3440.00
00026             340.00    -3520.00
00027             360.00    -3520.00
00028             360.00    -3600.00
00029             360.00    -3600.00
00030             360.00    -3600.00
00031             360.00    -3680.00
00032             360.00    -3680.00
00033             380.00    -3680.00
00034             360.00    -3840.00
00035             380.00    -3840.00
00036             380.00    -3840.00
00037             420.00    -3920.00
00038             400.00    -3920.00
00039             420.00    -4000.00
00040             420.00    -4000.00
00041             420.00    -4000.00
00042             420.00    -4000.00
00043             440.00    -4080.00
00044             440.00    -4160.00
00045             420.00    -4160.00
00046             420.00    -4160.00
00047             440.00    -4240.00
00048             460.00    -4240.00
00049             440.00    -4320.00
00050             460.00    -4320.00
00051             460.00    -4320.00
00052             440.00    -4400.00
00053             500.00    -4400.00
00054             500.00    -4400.00
00055             500.00    -4480.00
00056             500.00    -4400.00
00057             500.00    -4480.00
00058             520.00    -4560.00
00059             500.00    -4560.00
00060             500.00    -4640.00
00061             500.00    -4640.00
00062             520.00    -4720.00
00063             520.00    -4720.00
00064             520.00    -4800.00
00065             520.00    -4720.00
00066             520.00    -4880.00
00067             540.00    -4800.00
00068             520.00    -4800.00
00069             540.00    -4880.00
00070             540.00    -4960.00
00071             560.00    -4960.00
00072             560.00    -4960.00
00073             580.00    -4960.00
00074             580.00    -4960.00
00075             560.00    -5120.00
00076             580.00    -5120.00
00077             580.00    -5120.00
00078             580.00    -5120.00
00079             580.00    -5200.00
00080             580.00    -5200.00
00081             580.00    -5200.00
00082             600.00    -5280.00
00083             580.00    -5280.00
00084             600.00    -5280.00
00085             600.00    -5280.00
00086             600.00    -5360.00
00087             600.00    -5440.00
00088             600.00    -5440.00
00089             620.00    -5440.00
00090             620.00    -5440.00
00091             600.00    -5520.00
00092             620.00    -5440.00
00093             620.00    -5520.00
00094             620.00    -5520.00
00095             620.00    -5520.00
00096             620.00    -5600.00
00097             620.00    -5600.00
00098             640.00    -5600.00
00099             660.00    -5600.00
00100             660.00    -5760.00
00101             660.00    -5680.00
00102             640.00    -5760.00
00103             660.00    -5760.00
00104             660.00    -5840.00
00105             680.00    -5840.00
00106             660.00    -5840.00
00107             680.00    -5840.00
00108             660.00    -5920.00
00109             700.00    -5920.00
00110             680.00    -5920.00
00111             680.00    -5920.00
00112             680.00    -5920.00
00113             680.00    -5920.00
00114             680.00    -5920.00
00115             700.00    -6080.00
00116             700.00    -5920.00
00117             700.00    -6000.00
00118             700.00    -6080.00
00119             720.00    -6080.00
00120             700.00    -6080.00
00121             720.00    -6080.00
00122             720.00    -6160.00
00123             740.00    -6080.00
00124             740.00    -6080.00
00125             720.00    -6160.00
00126             740.00    -6160.00
00127             740.00    -6160.00
00128             740.00    -6160.00
00129             740.00    -6240.00
00130             740.00    -6240.00
00131             740.00    -6240.00
00132             760.00    -6240.00
00133             740.00    -6240.00
00134             740.00    -6320.00
00135             760.00    -6240.00
00136             760.00    -6240.00
00137             760.00    -6320.00
00138             760.00    -6320.00
00139             760.00    -6400.00
00140             760.00    -6400.00
00141             760.00    -6480.00
00142             760.00    -6400.00
00143             760.00    -6400.00
00144             780.00    -6400.00
00145             760.00    -6480.00
00146             760.00    -6480.00
00147             780.00    -6480.00
00148             780.00    -6480.00
00149             760.00    -6480.00
00150             760.00    -6480.00
00151             780.00    -6560.00
00152             780.00    -6560.00
00153             780.00    -6480.00
00154             780.00    -6480.00
00155             780.00    -6560.00
00156             780.00    -6560.00
00157             780.00    -6560.00
00158             820.00    -6480.00
00159             780.00    -6560.00
00160             780.00    -6560.00
00161             780.00    -6560.00
00162             820.00    -6560.00
00163             780.00    -6640.00
00164             800.00    -6640.00
00165             800.00    -6640.00
00166             800.00    -6720.00
00167             820.00    -6560.00
00168             820.00    -6640.00
00169             820.00    -6720.00
00170             820.00    -6560.00
00171             820.00    -6640.00
00172             820.00    -6640.00
00173             820.00    -6720.00
00174             820.00    -6640.00
00175             820.00    -6720.00
00176             820.00    -6720.00
00177             820.00    -6720.00
00178             820.00    -6720.00
00179             840.00    -6720.00
00180             820.00    -6720.00
00181             820.00    -6720.00
00182             840.00    -6720.00
00183             820.00    -6720.00
00184             820.00    -6720.00
00185             840.00    -6720.00
00186             840.00    -6720.00
00187             840.00    -6720.00
00188             840.00    -6720.00
00189             820.00    -6720.00
00190             820.00    -6720.00
00191             840.00    -6720.00
00192             820.00    -6720.00
00193             840.00    -6720.00
00194             840.00    -6720.00
00195             840.00    -6720.00
00196             840.00    -6720.00
00197             840.00    -6720.00
00198             840.00    -6720.00
00199             840.00    -6720.00
00200             820.00    -6720.00
00201             840.00    -6640.00
00202             840.00    -6720.00
00203             820.00    -6720.00
00204             840.00    -6720.00
00205             840.00    -6720.00
00206             840.00    -6640.00
00207             840.00    -6640.00
00208             840.00    -6640.00
00209             820.00    -6640.00
00210             840.00    -6720.00
00211             840.00    -6720.00
00212             820.00    -6720.00
00213             840.00    -6640.00
00214             820.00    -6560.00
00215             840.00    -6560.00
00216             820.00    -6560.00
00217             840.00    -6640.00
00218             840.00    -6560.00
00219             820.00    -6640.00
00220             840.00    -6560.00
00221             840.00    -6560.00
00222             840.00    -6560.00
00223             840.00    -6560.00
00224             840.00    -6560.00
00225             820.00    -6560.00
00226             820.00    -6560.00
00227             820.00    -6480.00
00228             820.00    -6560.00
00229             820.00    -6560.00
00230             840.00    -6560.00
00231             820.00    -6480.00
00232             820.00    -6480.00
00233             820.00    -6480.00
00234             820.00    -6400.00
00235             820.00    -6400.00
00236             820.00    -6480.00
00237             840.00    -6400.00
00238             820.00    -6400.00
00239             820.00    -6400.00
00240             840.00    -6320.00
00241             820.00    -6400.00
00242             820.00    -6320.00
00243             820.00    -6400.00
00244             820.00    -6400.00
00245             820.00    -6320.00
00246             820.00    -6240.00
00247             820.00    -6240.00
00248             820.00    -6240.00
00249             820.00    -6240.00
00250             820.00    -6240.00
00251             820.00    -6160.00
00252             820.00    -6240.00
00253             820.00    -6160.00
00254             820.00    -6160.00
00255             820.00    -6160.00
00256             800.00    -6160.00
00257             820.00    -6160.00
00258             820.00    -6160.00
00259             820.00    -6080.00
00260             780.00    -6080.00
00261             780.00    -6080.00
00262             780.00    -6080.00
00263             800.00    -6000.00
00264             820.00    -6080.00
00265             760.00    -5920.00
00266             780.00    -5920.00
00267             780.00    -5920.00
00268             780.00    -5920.00
00269             780.00    -5920.00
00270             780.00    -5920.00
00271             780.00    -5840.00
00272             760.00    -5840.00
00273             760.00    -5840.00
00274             780.00    -5840.00
00275             760.00    -5760.00
00276             760.00    -5760.00
00277             760.00    -5760.00
00278             760.00    -5760.00
00279             760.00    -5680.00
00280             740.00    -5680.00
00281             740.00    -5680.00
00282             740.00    -5600.00
00283             740.00    -5600.00
00284             740.00    -5600.00
00285             740.00    -5600.00
00286             740.00    -5520.00
00287             740.00    -5520.00
00288             740.00    -5520.00
00289             740.00    -5440.00
00290             740.00    -5440.00
00291             700.00    -5440.00
00292             740.00    -5360.00
00293             700.00    -5440.00
00294             740.00    -5280.00
00295             720.00    -5360.00
00296             720.00    -5280.00
00297             700.00    -5280.00
00298             700.00    -5280.00
00299             700.00    -5280.00
00300             700.00    -5200.00
00301             700.00    -5200.00
00302             680.00    -5200.00
00303             700.00    -5120.00
00304             680.00    -5120.00
00305             680.00    -5120.00
00306             680.00    -4960.00
00307             700.00    -5040.00
00308             680.00    -5040.00
00309             680.00    -4960.00
00310             680.00    -4960.00
00311             680.00    -4960.00
00312             680.00    -4880.00
00313             680.00    -4800.00
00314             680.00    -4800.00
00315             660.00    -4800.00
00316             680.00    -4800.00
00317             660.00    -4720.00
00318             660.00    -4720.00
00319             660.00    -4640.00
00320             640.00    -4640.00
00321             660.00    -4640.00
00322             660.00    -4560.00
00323             620.00    -4560.00
00324             660.00    -4480.00
00325             620.00    -4400.00
00326             620.00    -4400.00
00327             620.00    -4400.00
00328             620.00    -4320.00
00329             620.00    -4320.00
00330             620.00    -4320.00
00331             600.00    -4320.00
00332             620.00    -4320.00
00333             600.00    -4240.00
00334             580.00    -4160.00
00335             600.00    -4160.00
00336             580.00    -4080.00
00337             600.00    -4160.00
00338             580.00    -4160.00
00339             580.00    -4000.00
00340             580.00    -4000.00
00341             580.00    -3920.00
00342             540.00    -4000.00
00343             580.00    -3920.00
00344             560.00    -3840.00
00345             580.00    -3840.00
00346             540.00    -3840.00
00347             540.00    -3760.00
00348             540.00    -3680.00
00349             540.00    -3680.00
00350             540.00    -3680.00
00351             520.00    -3680.00
00352             520.00    -3520.00
00353             520.00    -3520.00
00354             520.00    -3520.00
00355             520.00    -3520.00
00356             500.00    -3520.00
00357             520.00    -3360.00
00358             500.00    -3360.00
00359             500.00    -3360.00
00360             500.00    -3280.00
00361             480.00    -3280.00
00362             460.00    -3280.00
00363             500.00    -3200.00
00364             460.00    -3200.00
00365             460.00    -3200.00
00366             440.00    -3120.00
00367             460.00    -3120.00
00368             460.00    -3040.00
00369             460.00    -2960.00
00370             460.00    -2960.00
00371             440.00    -2960.00
00372             440.00    -2880.00
00373             440.00    -2880.00
00374             440.00    -2800.00
00375             440.00    -2720.00
00376             420.00    -2720.00
00377             440.00    -2640.00
00378             420.00    -2640.00
00379             420.00    -2640.00
00380             420.00    -2560.00
00381             400.00    -2560.00
00382             420.00    -2560.00
00383             380.00    -2480.00
00384             400.00    -2400.00
00385             400.00    -2400.00
00386             360.00    -2320.00
00387             380.00    -2320.00
00388             360.00    -2240.00
00389             360.00    -2240.00
00390             380.00    -2240.00
00391             360.00    -2160.00
00392             360.00    -2080.00
00393             340.00    -2080.00
00394             360.00    -2000.00
00395             340.00    -2000.00
00396             340.00    -1920.00
00397             340.00    -1920.00
00398             340.00    -1840.00
00399             320.00    -1760.00
00400             340.00    -1760.00
00401             300.00    -1760.00
00402             340.00    -1680.00
00403             280.00    -1680.00
00404             300.00    -1600.00
00405             280.00    -1600.00
00406             280.00    -1600.00
00407             280.00    -1520.00
00408             280.00    -1440.00
00409             260.00    -1440.00
00410             280.00    -1360.00
00411             260.00    -1360.00
00412             260.00    -1360.00
00413             260.00    -1280.00
00414             260.00    -1280.00
00415             260.00    -1200.00
00416             220.00    -1200.00
00417             220.00    -1120.00
00418             220.00    -1120.00
00419             220.00    -1040.00
00420             220.00     -960.00
00421             200.00     -960.00
00422             200.00     -960.00
00423             200.00     -880.00
00424             180.00     -800.00
00425             200.00     -800.00
00426             200.00     -800.00
00427             180.00     -800.00
00428             180.00     -640.00
00429             180.00     -640.00
00430             180.00     -640.00
00431             180.00     -560.00
00432             180.00     -560.00
00433             180.00     -480.00
00434             160.00     -400.00
00435             140.00     -400.00
00436             120.00     -320.00
00437             140.00     -320.00
00438             120.00     -240.00
00439             120.00     -240.00
00440             120.00     -160.00
00441             120.00     -160.00
00442             100.00     -160.00
00443             100.00      -80.00
00444             120.00        0.00
00445             100.00        0.00
00446             100.00        0.00
00447             100.00       80.00
00448             100.00      160.00
00449             100.00      160.00
00450              60.00      240.00
00451              60.00      240.00
00452              60.00      240.00
00453              60.00      320.00
00454              40.00      400.00
00455              40.00      480.00
00456              40.00      480.00
00457              40.00      560.00
00458              40.00      640.00
00459              20.00      560.00
00460             -20.00      560.00
00461              20.00      800.00
00462              40.00      880.00
00463             -20.00      640.00
00464             -20.00      720.00
00465               0.00      960.00
00466               0.00      880.00
00467             -40.00      800.00
00468             -20.00     1120.00
00469               0.00     1120.00
00470             -60.00      960.00
00471             -60.00     1120.00
00472             -40.00     1200.00
00473             -60.00     1120.00
00474             -60.00     1280.00
00475             -60.00     1280.00
00476             -60.00     1280.00
00477             -80.00     1360.00
00478             -60.00     1440.00
00479            -100.00     1440.00
00480            -100.00     1440.00
00481             -80.00     1520.00
00482            -120.00     1520.00
00483            -120.00     1600.00
00484            -120.00     1680.00
00485            -120.00     1600.00
00486            -120.00     1760.00
00487            -120.00     1760.00
00488            -140.00     1760.00
00489            -120.00     1840.00
00490            -140.00     1840.00
00491            -140.00     1840.00
00492            -140.00     2000.00
00493            -160.00     2000.00
00494            -180.00     2080.00
00495            -180.00     2160.00
00496            -180.00     2160.00
00497            -180.00     2240.00
00498            -180.00     2160.00
00499            -200.00     2240.00
00500            -200.00     2400.00
00501            -200.00     2320.00
00502            -200.00     2400.00
00503            -200.00     2400.00
00504            -220.00     2480.00
00505            -220.00     2480.00
00506            -220.00     2560.00
00507            -220.00     2560.00
00508            -220.00     2560.00
00509            -220.00     2720.00
00510            -220.00     2720.00
00511            -260.00     2720.00
00512            -220.00     2800.00
00513            -260.00     2800.00
00514            -260.00     2800.00
00515            -260.00     2880.00
00516            -280.00     2880.00
00517            -260.00     2880.00
00518            -280.00     3040.00
00519            -280.00     3040.00
00520            -280.00     3040.00
00521            -280.00     3120.00
00522            -300.00     3120.00
00523            -300.00     3200.00
00524            -300.00     3280.00
00525            -300.00     3280.00
00526            -300.00     3360.00
00527            -320.00     3360.00
00528            -300.00     3360.00
00529            -320.00     3360.00
00530            -340.00     3440.00
00531            -340.00     3440.00
00532            -360.00     3520.00
00533            -360.00     3520.00
00534            -360.00     3600.00
00535            -380.00     3520.00
00536            -360.00     3680.00
00537            -380.00     3680.00
00538            -380.00     3760.00
00539            -380.00     3760.00
00540            -380.00     3760.00
00541            -400.00     3840.00
00542            -380.00     3840.00
00543            -380.00     3840.00
00544            -420.00     3920.00
00545            -420.00     3920.00
00546            -420.00     4000.00
00547            -420.00     4000.00
00548            -440.00     4080.00
00549            -440.00     4080.00
00550            -440.00     4160.00
00551            -440.00     4080.00
00552            -440.00     4160.00
00553            -440.00     4160.00
00554            -440.00     4320.00
00555            -460.00     4240.00
00556            -460.00     4320.00
00557            -460.00     4320.00
00558            -460.00     4400.00
00559            -460.00     4400.00
00560            -500.00     4480.00
00561            -460.00     4480.00
00562            -460.00     4480.00
00563            -500.00     4560.00
00564            -460.00     4560.00
00565            -500.00     4640.00
00566            -500.00     4640.00
00567            -520.00     4720.00
00568            -500.00     4720.00
00569            -520.00     4720.00
00570            -520.00     4800.00
00571            -520.00     4800.00
00572            -520.00     4880.00
00573            -520.00     4800.00
00574            -520.00     4880.00
00575            -540.00     4880.00
00576            -520.00     4960.00
00577            -540.00     4960.00
00578            -520.00     4960.00
00579            -540.00     5040.00
00580            -540.00     5040.00
00581            -540.00     5040.00
00582            -540.00     5120.00
00583            -580.00     5120.00
00584            -580.00     5120.00
00585            -580.00     5200.00
00586            -580.00     5280.00
00587            -600.00     5280.00
00588            -580.00     5280.00
00589            -600.00     5280.00
00590            -600.00     5280.00
00591            -580.00     5280.00
00592            -600.00     5360.00
00593            -600.00     5360.00
00594            -600.00     5360.00
00595            -600.00     5440.00
00596            -600.00     5440.00
00597            -620.00     5520.00
00598            -620.00     5600.00
00599            -620.00     5520.00
00600            -620.00     5600.00
00601            -620.00     5600.00
00602            -640.00     5600.00
00603            -620.00     5600.00
00604            -660.00     5680.00
00605            -620.00     5680.00
00606            -660.00     5680.00
00607            -660.00     5680.00
00608            -660.00     5840.00
00609            -660.00     5760.00
00610            -680.00     5840.00
00611            -680.00     5840.00
00612            -680.00     5760.00
00613            -680.00     5840.00
00614            -700.00     5920.00
00615            -680.00     5920.00
00616            -700.00     5920.00
00617            -700.00     5920.00
00618            -680.00     5920.00
00619            -700.00     6000.00
00620            -700.00     6000.00
00621            -700.00     6000.00
00622            -700.00     6000.00
00623            -700.00     6080.00
00624            -700.00     6080.00
00625            -720.00     6080.00
00626            -700.00     6080.00
00627            -720.00     6160.00
00628            -700.00     6160.00
00629            -700.00     6240.00
00630            -700.00     6160.00
00631            -700.00     6240.00
00632            -700.00     6240.00
00633            -720.00     6240.00
00634            -740.00     6240.00
00635            -740.00     6320.00
00636            -740.00     6320.00
00637            -740.00     6320.00
00638            -740.00     6400.00
00639            -740.00     6320.00
00640            -760.00     6400.00
00641            -740.00     6320.00
00642            -740.00     6400.00
00643            -760.00     6400.00
00644            -760.00     6400.00
00645            -760.00     6400.00
00646            -760.00     6400.00
00647            -760.00     6400.00
00648            -760.00     6560.00
00649            -760.00     6400.00
00650            -760.00     6560.00
00651            -760.00     6400.00
00652            -760.00     6560.00
00653            -760.00     6560.00
00654            -760.00     6560.00
00655            -780.00     6560.00
00656            -760.00     6560.00
00657            -760.00     6560.00
00658            -780.00     6560.00
00659            -780.00     6560.00
00660            -780.00     6640.00
00661            -780.00     6640.00
00662            -780.00     6640.00
00663            -820.00     6640.00
00664            -780.00     6640.00
00665            -820.00     6640.00
00666            -820.00     6640.00
00667            -800.00     6640.00
00668            -800.00     6640.00
00669            -820.00     6640.00
00670            -820.00     6720.00
00671            -820.00     6640.00
00672            -800.00     6720.00
00673            -820.00     6720.00
00674            -820.00     6720.00
00675            -840.00     6720.00
00676            -820.00     6720.00
00677            -820.00     6720.00
00678            -820.00     6720.00
00679            -820.00     6720.00
00680            -840.00     6720.00
00681            -820.00     6720.00
00682            -840.00     6720.00
00683            -820.00     6720.00
00684            -840.00     6720.00
00685            -820.00     6720.00
00686            -840.00     6720.00
00687            -820.00     6720.00
00688            -840.00     6720.00
00689            -820.00     6720.00
00690            -840.00     6800.00
00691            -820.00     6800.00
00692            -840.00     6720.00
00693            -840.00     6720.00
00694            -820.00     6720.00
00695            -840.00     6800.00
00696            -840.00     6720.00
00697            -840.00     6720.00
00698            -840.00     6720.00
00699            -840.00     6720.00
00700            -840.00     6800.00
00701            -840.00     6800.00
00702            -840.00     6720.00
00703            -840.00     6800.00
00704            -840.00     6720.00
00705            -840.00     6720.00
00706            -840.00     6800.00
00707            -840.00     6800.00
00708            -840.00     6800.00
00709            -840.00     6720.00
00710            -840.00     6800.00
00711            -820.00     6800.00
00712            -840.00     6720.00
00713            -840.00     6800.00
00714            -840.00     6640.00
00715            -840.00     6720.00
00716            -840.00     6720.00
00717            -840.00     6720.00
00718            -840.00     6720.00
00719            -840.00     6720.00
00720            -840.00     6720.00
00721            -840.00     6720.00
00722            -840.00     6640.00
00723            -820.00     6720.00
00724            -840.00     6720.00
00725            -840.00     6720.00
00726            -840.00     6640.00
00727            -840.00     6640.00
00728            -820.00     6640.00
00729            -840.00     6640.00
00730            -840.00     6640.00
00731            -840.00     6640.00
00732            -860.00     6640.00
00733            -840.00     6640.00
00734            -840.00     6640.00
00735            -840.00     6640.00
00736            -840.00     6640.00
00737            -820.00     6640.00
00738            -840.00     6560.00
00739            -840.00     6560.00
00740            -840.00     6560.00
00741            -820.00     6560.00
00742            -840.00     6560.00
00743            -840.00     6560.00
00744            -840.00     6560.00
00745            -840.00     6560.00
00746            -840.00     6560.00
00747            -840.00     6480.00
00748            -840.00     6400.00
00749            -820.00     6480.00
00750            -840.00     6400.00
00751            -820.00     6400.00
00752            -840.00     6400.00
00753            -840.00     6400.00
00754            -820.00     6400.00
00755            -820.00     6400.00
00756            -820.00     6320.00
00757            -820.00     6320.00
00758            -840.00     6320.00
00759            -800.00     6320.00
00760            -820.00     6320.00
00761            -780.00     6240.00
00762            -820.00     6320.00
00763            -800.00     6240.00
00764            -780.00     6240.00
00765            -800.00     6240.00
00766            -780.00     6240.00
00767            -780.00     6240.00
00768            -800.00     6240.00
00769            -780.00     6080.00
00770            -780.00     6080.00
00771            -800.00     6080.00
00772            -780.00     6080.00
00773            -780.00     6080.00
00774            -760.00     6000.00
00775            -760.00     6000.00
00776            -760.00     6000.00
00777            -780.00     5920.00
00778            -760.00     6000.00
00779            -760.00     6000.00
00780            -760.00     5920.00
00781            -760.00     5920.00
00782            -760.00     5920.00
00783            -760.00     5840.00
00784            -760.00     5840.00
00785            -760.00     5920.00
00786            -760.00     5840.00
00787            -760.00     5760.00
00788            -740.00     5840.00
00789            -740.00     5760.00
00790            -760.00     5760.00
00791            -740.00     5680.00
00792            -740.00     5680.00
00793            -740.00     5680.00
00794            -740.00     5600.00
00795            -740.00     5600.00
00796            -740.00     5600.00
00797            -740.00     5600.00
00798            -740.00     5520.00
00799            -740.00     5520.00
00800            -740.00     5440.00
00801            -720.00     5440.00
00802            -740.00     5440.00
00803            -700.00     5360.00
00804            -700.00     5360.00
00805            -740.00     5360.00
00806            -700.00     5360.00
00807            -700.00     5280.00
00808            -700.00     5280.00
00809            -700.00     5280.00
00810            -700.00     5280.00
00811            -700.00     5120.00
00812            -700.00     5200.00
00813            -700.00     5120.00
00814            -700.00     5120.00
00815            -680.00     5040.00
00816            -700.00     5120.00
00817            -680.00     5040.00
00818            -680.00     4960.00
00819            -700.00     4960.00
00820            -660.00     4960.00
00821            -700.00     4960.00
00822            -660.00     4880.00
00823            -660.00     4880.00
00824            -660.00     4880.00
00825            -620.00     4800.00
00826            -660.00     4800.00
00827            -660.00     4800.00
00828            -640.00     4720.00
00829            -660.00     4720.00
00830            -660.00     4720.00
00831            -620.00     4640.00
00832            -620.00     4640.00
00833            -620.00     4640.00
00834            -620.00     4560.00
00835            -620.00     4480.00
00836            -620.00     4480.00
00837            -600.00     4480.00
00838            -620.00     4400.00
00839            -600.00     4400.00
00840            -600.00     4320.00
00841            -600.00     4320.00
00842            -600.00     4320.00
00843            -600.00     4240.00
00844            -580.00     4240.00
00845            -580.00     4160.00
00846            -580.00     4160.00
00847            -580.00     4160.00
00848            -580.00     4080.00
00849            -580.00     4080.00
00850            -580.00     4000.00
00851            -540.00     4000.00
00852            -580.00     4000.00
00853            -540.00     3920.00
00854            -540.00     3840.00
00855            -540.00     3840.00
00856            -540.00     3760.00
00857            -540.00     3760.00
00858            -540.00     3760.00
00859            -520.00     3680.00
00860            -520.00     3680.00
00861            -520.00     3680.00
00862            -520.00     3680.00
00863            -520.00     3520.00
00864            -520.00     3520.00
00865            -520.00     3520.00
00866            -520.00     3440.00
00867            -500.00     3440.00
00868            -520.00     3440.00
00869            -500.00     3360.00
00870            -500.00     3360.00
00871            -500.00     3360.00
00872            -500.00     3280.00
00873            -480.00     3200.00
00874            -500.00     3280.00
00875            -460.00     3200.00
00876            -460.00     3120.00
00877            -460.00     3120.00
00878            -460.00     3040.00
00879            -460.00     3040.00
00880            -460.00     3040.00
00881            -440.00     2880.00
00882            -440.00     2880.00
00883            -440.00     2880.00
00884            -440.00     2800.00
00885            -440.00     2800.00
00886            -440.00     2720.00
00887            -420.00     2720.00
00888            -420.00     2720.00
00889            -400.00     2560.00
00890            -420.00     2560.00
00891            -420.00     2560.00
00892            -380.00     2560.00
00893            -400.00     2480.00
00894            -380.00     2400.00
00895            -380.00     2400.00
00896            -380.00     2400.00
00897            -380.00     2320.00
00898            -360.00     2240.00
00899            -380.00     2240.00
00900            -360.00     2160.00
00901            -340.00     2160.00
00902            -340.00     2080.00
00903            -340.00     2160.00
00904            -340.00     2000.00
00905            -340.00     1920.00
00906            -340.00     1920.00
00907            -320.00     1920.00
00908            -320.00     1920.00
00909            -300.00     1840.00
00910            -300.00     1840.00
00911            -300.00     1760.00
00912            -300.00     1760.00
00913            -300.00     1680.00
00914            -280.00     1600.00
00915            -280.00     1600.00
00916            -280.00     1600.00
00917            -280.00     1520.00
00918            -280.00     1520.00
00919            -280.00     1440.00
00920            -260.00     1440.00
00921            -280.00     1360.00
00922            -260.00     1280.00
00923            -260.00     1280.00
00924            -220.00     1280.00
00925            -260.00     1120.00
00926            -240.00     1200.00
00927            -220.00     1120.00
00928            -220.00     1120.00
00929            -220.00     1120.00
00930            -220.00     1040.00
00931            -220.00      960.00
00932            -200.00      880.00
00933            -220.00      880.00
00934            -200.00      880.00
00935            -200.00      800.00
00936            -180.00      800.00
00937            -180.00      720.00
00938            -180.00      640.00
00939            -180.00      640.00
00940            -180.00      640.00
00941            -180.00      560.00
00942            -140.00      480.00
00943            -140.00      480.00
00944            -180.00      480.00
00945            -140.00      320.00
00946            -140.00      320.00
00947            -120.00      240.00
00948            -120.00      320.00
00949            -120.00      240.00
00950            -120.00      160.00
00951            -120.00      160.00
00952            -100.00       80.00
00953            -100.00        0.00
00954            -100.00        0.00
00955            -100.00      -80.00
00956            -100.00        0.00
00957             -60.00     -160.00
00958             -60.00      -80.00
00959             -60.00     -160.00
00960             -60.00     -160.00
00961             -60.00     -320.00
00962             -60.00     -320.00
00963             -60.00     -320.00
00964             -60.00     -320.00
00965             -40.00     -400.00
00966             -20.00     -480.00
00967             -20.00     -560.00
00968             -40.00     -720.00
00969             -40.00     -640.00
00970               0.00     -560.00
00971              20.00     -560.00
00972             -20.00     -800.00
00973             -40.00     -800.00
00974              20.00     -800.00
00975              20.00     -800.00
00976              20.00    -1040.00
00977              40.00     -880.00
00978              40.00     -960.00
00979              20.00    -1120.00
00980              40.00    -1120.00
00981              40.00    -1040.00
00982              40.00    -1200.00
00983              40.00    -1120.00
00984              60.00    -1120.00
00985              60.00    -1280.00
00986              60.00    -1360.00
00987              80.00    -1280.00
00988             100.00    -1440.00
00989              80.00    -1440.00
00990             100.00    -1360.00
00991             100.00    -1520.00
00992             100.00    -1600.00
00993             120.00    -1600.00
00994             100.00    -1680.00
00995             120.00    -1680.00
00996             100.00    -1680.00
00997             120.00    -1760.00
00998             120.00    -1760.00
00999             120.00    -1840.00
01000             140.00    -1920.00
01001             140.00    -1840.00
01002             140.00    -1920.00
01003             140.00    -2000.00
01004             160.00    -2000.00
01005             160.00    -2080.00
01006             180.00    -2160.00
01007             180.00    -2160.00
01008             180.00    -2240.00
01009             180.00    -2240.00
01010             200.00    -2320.00
01011             200.00    -2320.00
01012             200.00    -2320.00
01013             200.00    -2400.00
01014             220.00    -2400.00
01015             220.00    -2560.00
01016             220.00    -2560.00
01017             220.00    -2560.00
01018             220.00    -2560.00
01019             260.00    -2640.00
01020             260.00    -2640.00
01021             260.00    -2720.00
01022             260.00    -2720.00
01023             260.00    -2720.00
01024             260.00    -2800.00
01025             260.00    -2880.00
01026             260.00    -2880.00
01027             280.00    -2960.00
01028             260.00    -2960.00
01029             280.00    -2960.00
01030             280.00    -3040.00
01031             300.00    -3040.00
01032             300.00    -3120.00
01033             300.00    -3200.00
01034             300.00    -3280.00
01035             320.00    -3280.00
01036             340.00    -3280.00
01037             300.00    -3280.00
01038             340.00    -3360.00
01039             340.00    -3360.00
01040             340.00    -3360.00
01041             340.00    -3520.00
01042             360.00    -3520.00
01043             360.00    -3520.00
01044             360.00    -3520.00
01045             360.00    -3600.00
01046             380.00    -3680.00
01047             360.00    -3680.00
01048             360.00    -3680.00
01049             380.00    -3680.00
01050             360.00    -3680.00
01051             380.00    -3840.00
01052             380.00    -3840.00
01053             380.00    -3920.00
01054             420.00    -3840.00
01055             380.00    -3920.00
01056             420.00    -3920.00
01057             420.00    -4000.00
01058             400.00    -4000.00
01059             420.00    -4080.00
01060             420.00    -4000.00
01061             420.00    -4160.00
01062             440.00    -4160.00
01063             420.00    -4160.00
01064             440.00    -4240.00
01065             440.00    -4240.00
01066             440.00    -4320.00
01067             460.00    -4320.00
01068             460.00    -4320.00
01069             460.00    -4400.00
01070             480.00    -4480.00
01071             460.00    -4400.00
01072             460.00    -4480.00
01073             460.00    -4480.00
01074             500.00    -4560.00
01075             500.00    -4560.00
01076             500.00    -4560.00
01077             500.00    -4640.00
01078             520.00    -4640.00
01079             520.00    -4640.00
01080             520.00    -4800.00
01081             520.00    -4800.00
01082             520.00    -4800.00
01083             520.00    -4800.00
01084             540.00    -4880.00
01085             520.00    -4880.00
01086             540.00    -4880.00
01087             560.00    -4880.00
01088             540.00    -4960.00
01089             540.00    -4960.00
01090             540.00    -5040.00
01091             580.00    -5040.00
01092             580.00    -5120.00
01093             580.00    -5120.00
01094             580.00    -5120.00
01095             580.00    -5200.00
01096             580.00    -5200.00
01097             580.00    -5120.00
01098             580.00    -5200.00
01099             600.00    -5280.00
01100             600.00    -5280.00
01101             600.00    -5360.00
01102             600.00    -5280.00
01103             600.00    -5280.00
01104             620.00    -5440.00
01105             600.00    -5360.00
01106             620.00    -5440.00
01107             620.00    -5440.00
01108             620.00    -5520.00
01109             660.00    -5440.00
01110             620.00    -5520.00
01111             640.00    -5520.00
01112             660.00    -5600.00
01113             660.00    -5600.00
01114             660.00    -5600.00
01115             680.00    -5680.00
01116             660.00    -5680.00
01117             660.00    -5600.00
01118             660.00    -5760.00
01119             680.00    -5760.00
01120             660.00    -5760.00
01121             680.00    -5760.00
01122             660.00    -5760.00
01123             680.00    -5840.00
01124             680.00    -5840.00
01125             680.00    -5840.00
01126             680.00    -5840.00
01127             680.00    -5920.00
01128             680.00    -5920.00
01129             680.00    -5920.00
01130             700.00    -5920.00
01131             680.00    -5920.00
01132             680.00    -6000.00
01133             680.00    -5920.00
01134             720.00    -6080.00
01135             700.00    -6080.00
01136             700.00    -6080.00
01137             720.00    -6080.00
01138             700.00    -6160.00
01139             700.00    -6160.00
01140             700.00    -6160.00
01141             720.00    -6160.00
01142             720.00    -6240.00
01143             740.00    -6160.00
01144             740.00    -6240.00
01145             740.00    -6160.00
01146             740.00    -6240.00
01147             740.00    -6240.00
01148             740.00    -6320.00
01149             740.00    -6240.00
01150             740.00    -6240.00
01151             760.00    -6240.00
01152             740.00    -6320.00
01153             760.00    -6320.00
01154             760.00    -6400.00
01155             760.00    -6400.00
01156             760.00    -6400.00
01157             760.00    -6400.00
01158             760.00    -6480.00
01159             780.00    -6400.00
01160             760.00    -6400.00
01161             780.00    -6480.00
01162             760.00    -6480.00
01163             780.00    -6400.00
01164             780.00    -6480.00
01165             780.00    -6560.00
01166             780.00    -6480.00
01167             800.00    -6560.00
01168             780.00    -6480.00
01169             800.00    -6480.00
01170             780.00    -6480.00
01171             820.00    -6560.00
01172             780.00    -6560.00
01173             780.00    -6560.00
01174             820.00    -6560.00
01175             820.00    -6560.00
01176             780.00    -6640.00
01177             800.00    -6560.00
01178             820.00    -6560.00
01179             800.00    -6560.00
01180             820.00    -6560.00
01181             820.00    -6560.00
01182             820.00    -6640.00
01183             820.00    -6640.00
01184             820.00    -6720.00
01185             780.00    -6720.00
01186             780.00    -6720.00
01187             820.00    -6720.00
01188             820.00    -6640.00
01189             800.00    -6720.00
01190             820.00    -6640.00
01191             820.00    -6640.00
01192             820.00    -6640.00
01193             820.00    -6720.00
01194             840.00    -6720.00
01195             820.00    -6720.00
01196             820.00    -6720.00
01197             820.00    -6720.00
01198             800.00    -6720.00
01199             820.00    -6720.00
01200             820.00    -6720.00
01201             820.00    -6720.00
01202             820.00    -6720.00
01203             820.00    -6720.00
01204             820.00    -6720.00
01205             840.00    -6720.00
01206             820.00    -6720.00
01207             820.00    -6720.00
01208             820.00    -6720.00
01209             840.00    -6720.00
01210             820.00    -6720.00
01211             840.00    -6720.00
01212             840.00    -6720.00
01213             820.00    -6640.00
01214             840.00    -6720.00
01215             840.00    -6720.00
01216             840.00    -6720.00
01217             840.00    -6720.00
01218             840.00    -6720.00
01219             840.00    -6720.00
01220             840.00    -6720.00
01221             840.00    -6720.00
01222             820.00    -6720.00
01223             840.00    -6640.00
01224             820.00    -6720.00
01225             840.00    -6640.00
01226             840.00    -6720.00
01227             840.00    -6720.00
01228             840.00    -6560.00
01229             840.00    -6640.00
01230             840.00    -6560.00
01231             820.00    -6640.00
01232             840.00    -6560.00
01233             840.00    -6640.00
01234             840.00    -6560.00
01235             840.00    -6560.00
01236             840.00    -6560.00
01237             840.00    -6560.00
01238             840.00    -6560.00
01239             840.00    -6560.00
01240             840.00    -6560.00
01241             820.00    -6560.00
01242             840.00    -6560.00
01243             820.00    -6560.00
01244             840.00    -6480.00
01245             840.00    -6480.00
01246             840.00    -6480.00
01247             840.00    -6480.00
01248             820.00    -6480.00
01249             820.00    -6480.00
01250             820.00    -6480.00
01251             820.00    -6400.00
01252             820.00    -6400.00
01253             820.00    -6480.00
01254             820.00    -6400.00
01255             820.00    -6400.00
01256             820.00    -6400.00
01257             820.00    -6400.00
01258             820.00    -6400.00
01259             820.00    -6320.00
01260             820.00    -6400.00
01261             820.00    -6320.00
01262             820.00    -6240.00
01263             800.00    -6240.00
01264             800.00    -6240.00
01265             820.00    -6240.00
01266             820.00    -6240.00
01267             780.00    -6240.00
01268             780.00    -6240.00
01269             820.00    -6160.00
01270             800.00    -6160.00
01271             800.00    -6160.00
01272             800.00    -6160.00
01273             780.00    -6160.00
01274             780.00    -6080.00
01275             780.00    -6080.00
01276             780.00    -6080.00
01277             780.00    -6080.00
01278             780.00    -6080.00
01279             760.00    -6000.00
01280             780.00    -6080.00
01281             780.00    -6000.00
01282             780.00    -6000.00
01283             780.00    -5920.00
01284             780.00    -5920.00
01285             780.00    -5920.00
01286             780.00    -5920.00
01287             780.00    -5840.00
01288             780.00    -5840.00
01289             760.00    -5840.00
01290             780.00    -5760.00
01291             760.00    -5920.00
01292             760.00    -5760.00
01293             760.00    -5760.00
01294             760.00    -5760.00
01295             760.00    -5760.00
01296             760.00    -5680.00
01297             760.00    -5600.00
01298             760.00    -5600.00
01299             760.00    -5600.00
01300             740.00    -5600.00
01301             760.00    -5520.00
01302             760.00    -5520.00
01303             740.00    -5520.00
01304             740.00    -5520.00
01305             760.00    -5440.00
01306             740.00    -5440.00
01307             740.00    -5440.00
01308             740.00    -5360.00
01309             720.00    -5440.00
01310             740.00    -5360.00
01311             740.00    -5280.00
01312             720.00    -5280.00
01313             740.00    -5280.00
01314             700.00    -5200.00
01315             700.00    -5200.00
01316             680.00    -5200.00
01317             700.00    -5200.00
01318             700.00    -5120.00
01319             680.00    -5120.00
01320             680.00    -5200.00
01321             680.00    -5120.00
01322             700.00    -5120.00
01323             680.00    -5040.00
01324             680.00    -4960.00
01325             660.00    -4960.00
01326             680.00    -4960.00
01327             660.00    -4880.00
01328             680.00    -4880.00
01329             660.00    -4880.00
01330             660.00    -4880.00
01331             660.00    -4800.00
01332             660.00    -4800.00
01333             660.00    -4800.00
01334             660.00    -4640.00
01335             640.00    -4720.00
01336             620.00    -4640.00
01337             660.00    -4560.00
01338             620.00    -4560.00
01339             640.00    -4560.00
01340             620.00    -4480.00
01341             620.00    -4560.00
01342             620.00    -4480.00
01343             660.00    -4400.00
01344             620.00    -4320.00
01345             620.00    -4320.00
01346             600.00    -4320.00
01347             600.00    -4320.00
01348             600.00    -4240.00
01349             580.00    -4240.00
01350             600.00    -4160.00
01351             600.00    -4160.00
01352             600.00    -4240.00
01353             580.00    -4160.00
01354             580.00    -4080.00
01355             580.00    -4000.00
01356             580.00    -4000.00
01357             580.00    -4000.00
01358             560.00    -3920.00
01359             580.00    -3920.00
01360             560.00    -3840.00
01361             540.00    -3840.00
01362             540.00    -3840.00
01363             540.00    -3840.00
01364             540.00    -3760.00
01365             520.00    -3680.00
01366             560.00    -3680.00
01367             540.00    -3600.00
01368             520.00    -3680.00
01369             520.00    -3520.00
01370             520.00    -3520.00
01371             520.00    -3520.00
01372             520.00    -3520.00
01373             520.00    -3360.00
01374             500.00    -3360.00
01375             500.00    -3360.00
01376             500.00    -3360.00
01377             500.00    -3280.00
01378             500.00    -3280.00
01379             500.00    -3200.00
01380             460.00    -3200.00
01381             460.00    -3200.00
01382             460.00    -3200.00
01383             440.00    -3120.00
01384             440.00    -3040.00
01385             460.00    -2960.00
01386             440.00    -2960.00
01387             440.00    -2960.00
01388             440.00    -2880.00
01389             420.00    -2880.00
01390             440.00    -2880.00
01391             420.00    -2800.00
01392             420.00    -2720.00
01393             440.00    -2720.00
01394             420.00    -2640.00
01395             380.00    -2640.00
01396             380.00    -2640.00
01397             420.00    -2560.00
01398             380.00    -2560.00
01399             380.00    -2480.00
01400             380.00    -2400.00
01401             380.00    -2400.00
01402             360.00    -2400.00
01403             380.00    -2320.00
01404             360.00    -2320.00
01405             360.00    -2240.00
01406             360.00    -2240.00
01407             360.00    -2160.00
01408             340.00    -2160.00
01409             360.00    -2160.00
01410             340.00    -2080.00
01411             340.00    -2000.00
01412             340.00    -1920.00
01413             340.00    -1920.00
01414             340.00    -1920.00
01415             340.00    -1840.00
01416             300.00    -1840.00
01417             300.00    -1760.00
01418             300.00    -1760.00
01419             300.00    -1680.00
01420             300.00    -1600.00
01421             300.00    -1600.00
01422             300.00    -1600.00
01423             280.00    -1600.00
01424             280.00    -1440.00
01425             280.00    -1440.00
01426             280.00    -1440.00
01427             260.00    -1360.00
01428             280.00    -1360.00
01429             260.00    -1280.00
01430             260.00    -1280.00
01431             260.00    -1200.00
01432             260.00    -1200.00
01433             260.00    -1120.00
01434             240.00    -1040.00
01435             240.00    -1040.00
01436             220.00     -960.00
01437             220.00     -960.00
01438             220.00     -960.00
01439             220.00     -960.00
01440             220.00     -880.00
01441             200.00     -800.00
01442             200.00     -720.00
01443             200.00     -800.00
01444             200.00     -720.00
01445             180.00     -640.00
01446             180.00     -640.00
01447             180.00     -640.00
01448             160.00     -560.00
01449             180.00     -480.00
01450             140.00     -400.00
01451             140.00     -400.00
01452             140.00     -400.00
01453             140.00     -320.00
01454             140.00     -320.00
01455             120.00     -240.00
01456             120.00     -160.00
01457             120.00     -160.00
01458             100.00      -80.00
01459             100.00      -80.00
01460             100.00      -80.00
01461              80.00        0.00
01462             100.00        0.00
01463             100.00       80.00
01464             100.00      160.00
01465              60.00      160.00
01466              40.00      160.00
01467              60.00      240.00
01468              60.00      240.00
01469              40.00      320.00
01470              40.00      320.00
01471              40.00      400.00
01472              40.00      480.00
01473              40.00      560.00
01474              40.00      640.00
01475              20.00      560.00
01476              20.00      560.00
01477              20.00      720.00
01478              40.00      880.00
01479              20.00      800.00
01480             -20.00      640.00
01481             -20.00      880.00
01482              20.00      960.00
01483             -40.00      800.00
01484             -20.00      960.00
01485             -20.00     1120.00
01486             -40.00      960.00
01487             -40.00      960.00
01488             -40.00     1200.00
01489             -40.00     1200.00
01490             -60.00     1200.00
01491             -40.00     1360.00
01492             -60.00     1280.00
01493             -60.00     1280.00
01494             -60.00     1440.00
01495             -60.00     1440.00
01496             -60.00     1440.00
01497             -60.00     1600.00
01498             -80.00     1520.00
01499            -100.00     1600.00
01500             -80.00     1680.00
01501            -120.00     1600.00
01502            -120.00     1680.00
01503            -120.00     1760.00
01504            -120.00     1760.00
01505            -120.00     1840.00
01506            -120.00     1920.00
01507            -140.00     1840.00
01508            -140.00     1920.00
01509            -140.00     2000.00
01510            -140.00     2000.00
01511            -140.00     2080.00
01512            -180.00     2160.00
01513            -180.00     2160.00
01514            -180.00     2160.00
01515            -180.00     2240.00
01516            -200.00     2320.00
01517            -200.00     2320.00
01518            -200.00     2400.00
01519            -200.00     2400.00
01520            -220.00     2400.00
01521            -220.00     2480.00
01522            -220.00     2480.00
01523            -220.00     2480.00
01524            -220.00     2560.00
01525            -220.00     2560.00
01526            -260.00     2720.00
01527            -240.00     2720.00
01528            -260.00     2720.00
01529            -260.00     2800.00
01530            -260.00     2800.00
01531            -260.00     2880.00
01532            -260.00     2880.00
01533            -280.00     2880.00
01534            -280.00     2960.00
01535            -280.00     3040.00
01536            -280.00     3040.00
01537            -280.00     3120.00
01538            -280.00     3120.00
01539            -300.00     3200.00
01540            -300.00     3200.00
01541            -320.00     3280.00
01542            -300.00     3280.00
01543            -340.00     3360.00
01544            -300.00     3360.00
01545            -340.00     3360.00
01546            -340.00     3440.00
01547            -340.00     3440.00
01548            -340.00     3520.00
01549            -360.00     3520.00
01550            -360.00     3520.00
01551            -380.00     3600.00
01552            -360.00     3600.00
01553            -360.00     3680.00
01554            -360.00     3680.00
01555            -380.00     3760.00
01556            -380.00     3760.00
01557            -380.00     3760.00
01558            -380.00     3840.00
01559            -380.00     3920.00
01560            -400.00     3920.00
01561            -380.00     3920.00
01562            -420.00     4000.00
01563            -420.00     4000.00
01564            -420.00     4000.00
01565            -420.00     4080.00
01566            -440.00     4160.00
01567            -440.00     4160.00
01568            -420.00     4160.00
01569            -440.00     4160.00
01570            -440.00     4320.00
01571            -460.00     4320.00
01572            -440.00     4320.00
01573            -440.00     4320.00
01574            -460.00     4400.00
01575            -460.00     4400.00
01576            -460.00     4400.00
01577            -500.00     4400.00
01578            -500.00     4480.00
01579            -460.00     4480.00
01580            -500.00     4480.00
01581            -500.00     4560.00
01582            -500.00     4720.00
01583            -500.00     4640.00
01584            -520.00     4720.00
01585            -500.00     4720.00
01586            -520.00     4800.00
01587            -520.00     4800.00
01588            -520.00     4800.00
01589            -540.00     4880.00
01590            -520.00     4880.00
01591            -540.00     4880.00
01592            -540.00     4960.00
01593            -520.00     4960.00
01594            -540.00     4960.00
01595            -540.00     5040.00
01596            -540.00     5040.00
01597            -580.00     5120.00
01598            -580.00     5040.00
01599            -580.00     5120.00
01600            -580.00     5120.00
01601            -580.00     5120.00
01602            -580.00     5200.00
01603            -600.00     5280.00
01604            -600.00     5280.00
01605            -600.00     5280.00
01606            -600.00     5360.00
01607            -580.00     5280.00
01608            -600.00     5360.00
01609            -600.00     5440.00
01610            -600.00     5440.00
01611            -620.00     5360.00
01612            -600.00     5440.00
01613            -620.00     5440.00
01614            -620.00     5520.00
01615            -620.00     5520.00
01616            -620.00     5600.00
01617            -620.00     5600.00
01618            -620.00     5600.00
01619            -620.00     5680.00
01620            -640.00     5680.00
01621            -620.00     5680.00
01622            -660.00     5680.00
01623            -640.00     5760.00
01624            -640.00     5760.00
01625            -660.00     5840.00
01626            -660.00     5840.00
01627            -660.00     5840.00
01628            -660.00     5920.00
01629            -680.00     5920.00
01630            -680.00     5920.00
01631            -680.00     5920.00
01632            -680.00     5920.00
01633            -700.00     5920.00
01634            -680.00     6000.00
01635            -680.00     6000.00
01636            -680.00     6000.00
01637            -700.00     6000.00
01638            -700.00     6000.00
01639            -700.00     6080.00
01640            -700.00     6080.00
01641            -700.00     6080.00
01642            -700.00     6080.00
01643            -700.00     6160.00
01644            -720.00     6240.00
01645            -700.00     6240.00
01646            -700.00     6240.00
01647            -740.00     6240.00
01648            -740.00     6240.00
01649            -740.00     6240.00
01650            -740.00     6240.00
01651            -740.00     6320.00
01652            -740.00     6240.00
01653            -740.00     6320.00
01654            -740.00     6320.00
01655            -760.00     6320.00
01656            -740.00     6400.00
01657            -740.00     6400.00
01658            -760.00     6320.00
01659            -760.00     6400.00
01660            -760.00     6480.00
01661            -740.00     6400.00
01662            -760.00     6400.00
01663            -760.00     6480.00
01664            -760.00     6480.00
01665            -760.00     6480.00
01666            -760.00     6480.00
01667            -760.00     6560.00
01668            -760.00     6560.00
01669            -780.00     6560.00
01670            -780.00     6560.00
01671            -780.00     6560.00
01672            -780.00     6560.00
01673            -760.00     6560.00
01674            -780.00     6560.00
01675            -780.00     6560.00
01676            -780.00     6560.00
01677            -780.00     6560.00
01678            -800.00     6640.00
01679            -780.00     6640.00
01680            -780.00     6640.00
01681            -780.00     6640.00
01682            -780.00     6640.00
01683            -780.00     6720.00
01684            -820.00     6640.00
01685            -780.00     6640.00
01686            -820.00     6640.00
01687            -780.00     6720.00
01688            -800.00     6720.00
01689            -820.00     6720.00
01690            -820.00     6720.00
01691            -780.00     6720.00
01692            -820.00     6720.00
01693            -800.00     6720.00
01694            -820.00     6720.00
01695            -780.00     6720.00
01696            -820.00     6720.00
01697            -820.00     6720.00
01698            -820.00     6720.00
01699            -820.00     6720.00
01700            -820.00     6720.00
01701            -820.00     6800.00
01702            -820.00     6720.00
01703            -820.00     6800.00
01704            -820.00     6800.00
01705            -820.00     6720.00
01706            -840.00     6800.00
01707            -840.00     6720.00
01708            -840.00     6800.00
01709            -840.00     6800.00
01710            -840.00     6720.00
01711            -840.00     6800.00
01712            -840.00     6800.00
01713            -840.00     6720.00
01714            -840.00     6800.00
01715            -840.00     6720.00
01716            -840.00     6800.00
01717            -840.00     6720.00
01718            -840.00     6720.00
01719            -840.00     6800.00
01720            -840.00     6720.00
01721            -840.00     6800.00
01722            -860.00     6800.00
01723            -840.00     6720.00
01724            -840.00     6800.00
01725            -840.00     6720.00
01726            -840.00     6720.00
01727            -840.00     6800.00
01728            -840.00     6720.00
01729            -840.00     6720.00
01730            -840.00     6720.00
01731            -840.00     6720.00
01732            -840.00     6720.00
01733            -840.00     6720.00
01734            -820.00     6720.00
01735            -840.00     6720.00
01736            -840.00     6720.00
01737            -820.00     6720.00
01738            -840.00     6720.00
01739            -840.00     6720.00
01740            -840.00     6720.00
01741            -840.00     6720.00
01742            -840.00     6640.00
01743            -820.00     6720.00
01744            -840.00     6640.00
01745            -840.00     6640.00
01746            -820.00     6640.00
01747            -840.00     6640.00
01748            -840.00     6640.00
01749            -820.00     6640.00
01750            -840.00     6640.00
01751            -840.00     6640.00
01752            -820.00     6560.00
01753            -840.00     6560.00
01754            -820.00     6560.00
01755            -840.00     6560.00
01756            -840.00     6560.00
01757            -820.00     6560.00
01758            -820.00     6560.00
01759            -820.00     6560.00
01760            -820.00     6560.00
01761            -820.00     6560.00
01762            -820.00     6560.00
01763            -820.00     6560.00
01764            -820.00     6560.00
01765            -820.00     6400.00
01766            -780.00     6400.00
01767            -820.00     6400.00
01768            -820.00     6400.00
01769            -820.00     6400.00
01770            -820.00     6400.00
01771            -820.00     6400.00
01772            -820.00     6400.00
01773            -820.00     6400.00
01774            -820.00     6320.00
01775            -840.00     6320.00
01776            -820.00     6320.00
01777            -800.00     6320.00
01778            -820.00     6320.00
01779            -780.00     6240.00
01780            -820.00     6240.00
01781            -800.00     6240.00
01782            -820.00     6240.00
01783            -800.00     6240.00
01784            -820.00     6160.00
01785            -780.00     6160.00
01786            -780.00     6080.00
01787            -800.00     6080.00
01788            -780.00     6080.00
01789            -780.00     6000.00
01790            -780.00     6080.00
01791            -780.00     6000.00
01792            -760.00     6000.00
01793            -780.00     6080.00
01794            -780.00     5920.00
01795            -780.00     6000.00
01796            -760.00     5920.00
01797            -760.00     5920.00
01798            -760.00     5920.00
01799            -780.00     5840.00
01800            -780.00     5920.00
01801            -760.00     5920.00
01802            -760.00     5840.00
01803            -760.00     5760.00
01804            -740.00     5840.00
01805            -740.00     5760.00
01806            -760.00     5760.00
01807            -740.00     5680.00
01808            -740.00     5680.00
01809            -740.00     5680.00
01810            -740.00     5600.00
01811            -740.00     5600.00
01812            -720.00     5600.00
01813            -740.00     5600.00
01814            -740.00     5520.00
01815            -720.00     5600.00
01816            -720.00     5440.00
01817            -700.00     5440.00
01818            -720.00     5440.00
01819            -700.00     5440.00
01820            -700.00     5360.00
01821            -700.00     5360.00
01822            -700.00     5360.00
01823            -700.00     5280.00
01824            -700.00     5360.00
01825            -700.00     5280.00
01826            -700.00     5280.00
01827            -700.00     5200.00
01828            -700.00     5200.00
01829            -680.00     5200.00
01830            -680.00     5120.00
01831            -680.00     5120.00
01832            -680.00     5120.00
01833            -680.00     5040.00
01834            -680.00     5040.00
01835            -680.00     5040.00
01836            -680.00     4960.00
01837            -680.00     4960.00
01838            -680.00     4960.00
01839            -680.00     4880.00
01840            -660.00     4800.00
01841            -680.00     4800.00
01842            -680.00     4800.00
01843            -660.00     4800.00
01844            -660.00     4800.00
01845            -660.00     4720.00
01846            -640.00     4720.00
01847            -640.00     4640.00
01848            -620.00     4640.00
01849            -620.00     4560.00
01850            -620.00     4480.00
01851            -620.00     4480.00
01852            -620.00     4480.00
01853            -620.00     4480.00
01854            -620.00     4400.00
01855            -620.00     4400.00
01856            -620.00     4400.00
01857            -620.00     4320.00
01858            -600.00     4240.00
01859            -600.00     4240.00
01860            -600.00     4160.00
01861            -600.00     4160.00
01862            -600.00     4160.00
01863            -600.00     4080.00
01864            -600.00     4080.00
01865            -600.00     4000.00
01866            -540.00     4000.00
01867            -580.00     4000.00
01868            -540.00     4000.00
01869            -540.00     4000.00
01870            -540.00     3840.00
01871            -540.00     3920.00
01872            -540.00     3840.00
01873            -540.00     3760.00
01874            -540.00     3760.00
01875            -540.00     3760.00
01876            -520.00     3680.00
01877            -520.00     3680.00
01878            -520.00     3600.00
01879            -500.00     3520.00
01880            -520.00     3520.00
01881            -500.00     3520.00
01882            -500.00     3520.00
01883            -500.00     3440.00
01884            -500.00     3360.00
01885            -500.00     3360.00
01886            -500.00     3360.00
01887            -460.00     3360.00
01888            -480.00     3280.00
01889            -480.00     3200.00
01890            -460.00     3200.00
01891            -460.00     3200.00
01892            -460.00     3280.00
01893            -460.00     3120.00
01894            -460.00     3040.00
01895            -460.00     3040.00
01896            -440.00     3040.00
01897            -440.00     3040.00
01898            -440.00     2880.00
01899            -440.00     2880.00
01900            -420.00     2800.00
01901            -440.00     2800.00
01902            -420.00     2800.00
01903            -420.00     2720.00
01904            -420.00     2640.00
01905            -420.00     2640.00
01906            -420.00     2640.00
01907            -420.00     2560.00
01908            -420.00     2560.00
01909            -420.00     2480.00
01910            -380.00     2480.00
01911            -380.00     2480.00
01912            -380.00     2400.00
01913            -380.00     2320.00
01914            -360.00     2240.00
01915            -380.00     2240.00
01916            -360.00     2240.00
01917            -380.00     2160.00
01918            -380.00     2160.00
01919            -360.00     2160.00
01920            -340.00     2080.00
01921            -360.00     2080.00
01922            -340.00     1920.00
01923            -360.00     1920.00
01924            -320.00     1840.00
01925            -340.00     1840.00
01926            -300.00     1760.00
01927            -320.00     1760.00
01928            -300.00     1760.00
01929            -300.00     1760.00
01930            -300.00     1680.00
01931            -280.00     1600.00
01932            -300.00     1600.00
01933            -280.00     1520.00
01934            -280.00     1520.00
01935            -280.00     1440.00
01936            -280.00     1440.00
01937            -260.00     1360.00
01938            -260.00     1360.00
01939            -260.00     1280.00
01940            -260.00     1280.00
01941            -220.00     1200.00
01942            -240.00     1200.00
01943            -220.00     1120.00
01944            -220.00     1120.00
01945            -220.00     1120.00
01946            -220.00     1040.00
01947            -220.00     1040.00
01948            -200.00      960.00
01949            -200.00      960.00
01950            -200.00      800.00
01951            -180.00      800.00
01952            -200.00      800.00
01953            -200.00      800.00
01954            -180.00      640.00
01955            -180.00      720.00
01956            -140.00      560.00
01957            -140.00      560.00
01958            -140.00      560.00
01959            -140.00      480.00
01960            -140.00      480.00
01961            -120.00      320.00
01962            -140.00      320.00
01963            -120.00      320.00
01964            -120.00      240.00
01965            -120.00      240.00
01966            -120.00      240.00
01967            -120.00      160.00
01968            -120.00      160.00
01969            -120.00       80.00
01970            -100.00        0.00
01971            -100.00        0.00
01972             -80.00        0.00
01973            -100.00      -80.00
01974            -100.00     -160.00
01975             -60.00     -160.00
01976             -60.00     -160.00
01977             -60.00     -320.00
01978             -60.00     -320.00
01979             -60.00     -320.00
01980             -60.00     -320.00
01981             -60.00     -400.00
01982             -40.00     -400.00
01983             -20.00     -480.00
01984             -40.00     -640.00
01985             -40.00     -720.00
01986             -40.00     -640.00
01987              20.00     -560.00
01988              20.00     -720.00
01989             -40.00     -880.00
01990              20.00     -720.00
01991              20.00     -800.00
01992               0.00     -960.00
01993              20.00     -960.00
01994              40.00     -880.00
01995              20.00    -1040.00
01996              40.00    -1040.00
01997              40.00     -960.00
01998              40.00    -1120.00
01999              40.00    -1120.00
02000              60.00    -1120.00
02001              60.00    -1280.00
02002              40.00    -1360.00
02003              60.00    -1280.00
02004              60.00    -1360.00
02005              80.00    -1440.00
02006             100.00    -1440.00
02007              80.00    -1520.00
02008             100.00    -1600.00
02009             120.00    -1600.00
02010             100.00    -1600.00
02011             120.00    -1600.00
02012             120.00    -1680.00
02013             120.00    -1680.00
02014             140.00    -1760.00
02015             140.00    -1760.00
02016             140.00    -1840.00
02017             140.00    -1920.00
02018             140.00    -1840.00
02019             180.00    -2000.00
02020             180.00    -2000.00
02021             180.00    -2000.00
02022             180.00    -2080.00
02023             180.00    -2160.00
02024             180.00    -2080.00
02025             200.00    -2240.00
02026             200.00    -2240.00
02027             200.00    -2240.00
02028             200.00    -2320.00
02029             220.00    -2400.00
02030             220.00    -2400.00
02031             220.00    -2400.00
02032             220.00    -2560.00
02033             220.00    -2560.00
02034             240.00    -2560.00
02035             260.00    -2560.00
02036             220.00    -2640.00
02037             260.00    -2720.00
02038             260.00    -2720.00
02039             260.00    -2720.00
02040             260.00    -2800.00
02041             260.00    -2880.00
02042             260.00    -2880.00
02043             280.00    -2880.00
02044             260.00    -2880.00
02045             280.00    -2960.00
02046             280.00    -3040.00
02047             280.00    -3040.00
02048             280.00    -3120.00
02049             300.00    -3120.00
02050             300.00    -3200.00
02051             300.00    -3200.00
02052             300.00    -3280.00
02053             300.00    -3280.00
02054             320.00    -3360.00
02055             340.00    -3360.00
02056             340.00    -3360.00
02057             340.00    -3440.00
02058             340.00    -3520.00
02059             340.00    -3520.00
02060             360.00    -3520.00
02061             360.00    -3520.00
02062             360.00    -3680.00
02063             360.00    -3680.00
02064             380.00    -3680.00
02065             380.00    -3680.00
02066             380.00    -3680.00
02067             380.00    -3760.00
02068             420.00    -3840.00
02069             380.00    -3840.00
02070             380.00    -3840.00
02071             420.00    -3920.00
02072             420.00    -3920.00
02073             420.00    -4000.00
02074             420.00    -4000.00
02075             420.00    -4000.00
02076             440.00    -4080.00
02077             440.00    -4000.00
02078             440.00    -4160.00
02079             440.00    -4160.00
02080             440.00    -4160.00
02081             460.00    -4240.00
02082             440.00    -4320.00
02083             460.00    -4320.00
02084             460.00    -4320.00
02085             460.00    -4320.00
02086             500.00    -4400.00
02087             460.00    -4400.00
02088             500.00    -4480.00
02089             500.00    -4480.00
02090             500.00    -4560.00
02091             500.00    -4480.00
02092             500.00    -4640.00
02093             520.00    -4640.00
02094             500.00    -4640.00
02095             520.00    -4640.00
02096             520.00    -4720.00
02097             520.00    -4800.00
02098             540.00    -4800.00
02099             520.00    -4800.00
02100             520.00    -4800.00
02101             540.00    -4880.00
02102             520.00    -4880.00
02103             540.00    -4880.00
02104             540.00    -4960.00
02105             540.00    -4960.00
02106             540.00    -5040.00
02107             540.00    -4960.00
02108             580.00    -5040.00
02109             580.00    -5120.00
02110             580.00    -5120.00
02111             580.00    -5200.00
02112             580.00    -5200.00
02113             580.00    -5200.00
02114             580.00    -5200.00
02115             580.00    -5200.00
02116             580.00    -5280.00
02117             580.00    -5280.00
02118             580.00    -5280.00
02119             580.00    -5360.00
02120             580.00    -5360.00
02121             600.00    -5440.00
02122             600.00    -5440.00
02123             600.00    -5440.00
02124             620.00    -5440.00
02125             620.00    -5520.00
02126             620.00    -5520.00
02127             620.00    -5600.00
02128             640.00    -5520.00
02129             660.00    -5600.00
02130             620.00    -5600.00
02131             660.00    -5600.00
02132             660.00    -5680.00
02133             660.00    -5680.00
02134             660.00    -5680.00
02135             660.00    -5760.00
02136             660.00    -5760.00
02137             660.00    -5760.00
02138             680.00    -5760.00
02139             680.00    -5760.00
02140             680.00    -5840.00
02141             680.00    -5920.00
02142             680.00    -5840.00
02143             680.00    -5920.00
02144             680.00    -5920.00
02145             700.00    -5920.00
02146             680.00    -5920.00
02147             680.00    -6000.00
02148             700.00    -5920.00
02149             700.00    -6000.00
02150             700.00    -6080.00
02151             700.00    -6080.00
02152             700.00    -6080.00
02153             720.00    -6080.00
02154             720.00    -6080.00
02155             720.00    -6160.00
02156             740.00    -6080.00
02157             740.00    -6160.00
02158             740.00    -6160.00
02159             740.00    -6160.00
02160             740.00    -6160.00
02161             740.00    -6160.00
02162             740.00    -6240.00
02163             740.00    -6240.00
02164             760.00    -6240.00
02165             760.00    -6240.00
02166             740.00    -6240.00
02167             740.00    -6320.00
02168             760.00    -6240.00
02169             740.00    -6240.00
02170             740.00    -6320.00
02171             740.00    -6400.00
02172             740.00    -6400.00
02173             760.00    -6400.00
02174             760.00    -6400.00
02175             740.00    -6400.00
02176             760.00    -6480.00
02177             760.00    -6400.00
02178             760.00    -6400.00
02179             760.00    -6400.00
02180             760.00    -6480.00
02181             780.00    -6480.00
02182             760.00    -6480.00
02183             760.00    -6560.00
02184             780.00    -6480.00
02185             780.00    -6560.00
02186             780.00    -6480.00
02187             780.00    -6560.00
02188             780.00    -6560.00
02189             780.00    -6560.00
02190             820.00    -6560.00
02191             780.00    -6560.00
02192             800.00    -6560.00
02193             780.00    -6560.00
02194             820.00    -6560.00
02195             820.00    -6560.00
02196             820.00    -6560.00
02197             820.00    -6560.00
02198             800.00    -6560.00
02199             820.00    -6640.00
02200             820.00    -6560.00
02201             820.00    -6640.00
02202             820.00    -6720.00
02203             820.00    -6640.00
02204             820.00    -6640.00
02205             820.00    -6560.00
02206             820.00    -6640.00
02207             820.00    -6720.00
02208             820.00    -6640.00
02209             820.00    -6720.00
02210             840.00    -6720.00
02211             840.00    -6720.00
02212             820.00    -6640.00
02213             840.00    -6720.00
02214             840.00    -6720.00
02215             820.00    -6720.00
02216             840.00    -6720.00
02217             820.00    -6720.00
02218             820.00    -6720.00
02219             840.00    -6720.00
02220             840.00    -6720.00
02221             840.00    -6720.00
02222             840.00    -6720.00
02223             820.00    -6720.00
02224             840.00    -6720.00
02225             840.00    -6720.00
02226             840.00    -6720.00
02227             820.00    -6720.00
02228             820.00    -6720.00
02229             820.00    -6720.00
02230             840.00    -6720.00
02231             820.00    -6720.00
02232             820.00    -6720.00
02233             820.00    -6720.00
02234             840.00    -6720.00
02235             820.00    -6720.00
02236             840.00    -6720.00
02237             840.00    -6720.00
02238             840.00    -6720.00
02239             840.00    -6720.00
02240             840.00    -6720.00
02241             840.00    -6640.00
02242             820.00    -6720.00
02243             820.00    -6720.00
02244             820.00    -6640.00
02245             820.00    -6640.00
02246             820.00    -6640.00
02247             820.00    -6720.00
02248             840.00    -6560.00
02249             840.00    -6640.00
02250             840.00    -6640.00
02251             840.00    -6560.00
02252             820.00    -6560.00
02253             840.00    -6640.00
02254             820.00    -6560.00
02255             820.00    -6560.00
02256             840.00    -6560.00
02257             840.00    -6560.00
02258             840.00    -6560.00
02259             820.00    -6560.00
02260             840.00    -6560.00
02261             820.00    -6560.00
02262             820.00    -6480.00
02263             820.00    -6480.00
02264             820.00    -6480.00
02265             820.00    -6480.00
02266             820.00    -6480.00
02267             840.00    -6400.00
02268             820.00    -6400.00
02269             820.00    -6480.00
02270             820.00    -6400.00
02271             840.00    -6400.00
02272             820.00    -6400.00
02273             820.00    -6400.00
02274             840.00    -6400.00
02275             820.00    -6400.00
02276             820.00    -6320.00
02277             820.00    -6400.00
02278             820.00    -6240.00
02279             820.00    -6240.00
02280             820.00    -6240.00
02281             820.00    -6240.00
02282             820.00    -6240.00
02283             820.00    -6240.00
02284             820.00    -6160.00
02285             820.00    -6240.00
02286             820.00    -6160.00
02287             800.00    -6160.00
02288             820.00    -6160.00
02289             820.00    -6080.00
02290             780.00    -6080.00
02291             800.00    -6160.00
02292             780.00    -6080.00
02293             780.00    -6080.00
02294             780.00    -6080.00
02295             800.00    -6000.00
02296             780.00    -6080.00
02297             780.00    -6000.00
02298             780.00    -5920.00
02299             760.00    -6000.00
02300             780.00    -6000.00
02301             780.00    -5920.00
02302             760.00    -5920.00
02303             780.00    -5920.00
02304             760.00    -5840.00
02305             760.00    -5840.00
02306             780.00    -5840.00
02307             760.00    -5840.00
02308             740.00    -5840.00
02309             760.00    -5760.00
02310             760.00    -5760.00
02311             760.00    -5760.00
02312             760.00    -5760.00
02313             740.00    -5680.00
02314             740.00    -5600.00
02315             740.00    -5600.00
02316             740.00    -5600.00
02317             760.00    -5600.00
02318             740.00    -5600.00
02319             740.00    -5600.00
02320             740.00    -5440.00
02321             740.00    -5520.00
02322             720.00    -5440.00
02323             720.00    -5440.00
02324             740.00    -5440.00
02325             720.00    -5440.00
02326             720.00    -5360.00
02327             740.00    -5360.00
02328             720.00    -5280.00
02329             700.00    -5280.00
02330             700.00    -5280.00
02331             700.00    -5280.00
02332             680.00    -5200.00
02333             700.00    -5200.00
02334             700.00    -5120.00
02335             680.00    -5120.00
02336             700.00    -5120.00
02337             700.00    -5120.00
02338             680.00    -5120.00
02339             680.00    -5120.00
02340             680.00    -4960.00
02341             680.00    -4960.00
02342             680.00    -4960.00
02343             680.00    -4880.00
02344             680.00    -4880.00
02345             680.00    -4880.00
02346             660.00    -4800.00
02347             660.00    -4800.00
02348             660.00    -4800.00
02349             660.00    -4800.00
02350             660.00    -4720.00
02351             660.00    -4720.00
02352             660.00    -4640.00
02353             660.00    -4640.00
02354             640.00    -4560.00
02355             640.00    -4560.00
02356             660.00    -4560.00
02357             620.00    -4480.00
02358             640.00    -4400.00
02359             620.00    -4400.00
02360             620.00    -4480.00
02361             620.00    -4320.00
02362             600.00    -4320.00
02363             600.00    -4320.00
02364             600.00    -4320.00
02365             600.00    -4240.00
02366             600.00    -4160.00
02367             580.00    -4240.00
02368             580.00    -4160.00
02369             580.00    -4160.00
02370             580.00    -4160.00
02371             580.00    -4000.00
02372             580.00    -4000.00
02373             580.00    -4000.00
02374             540.00    -3920.00
02375             580.00    -3920.00
02376             540.00    -3920.00
02377             540.00    -3840.00
02378             540.00    -3840.00
02379             540.00    -3840.00
02380             540.00    -3760.00
02381             540.00    -3760.00
02382             540.00    -3680.00
02383             520.00    -3600.00
02384             520.00    -3600.00
02385             520.00    -3600.00
02386             520.00    -3520.00
02387             520.00    -3520.00
02388             520.00    -3520.00
02389             520.00    -3520.00
02390             520.00    -3360.00
02391             500.00    -3360.00
02392             500.00    -3360.00
02393             500.00    -3360.00
02394             480.00    -3280.00
02395             500.00    -3200.00
02396             480.00    -3200.00
02397             460.00    -3200.00
02398             480.00    -3200.00
02399             460.00    -3120.00
02400             440.00    -3040.00
02401             460.00    -3040.00
02402             440.00    -2960.00
02403             440.00    -2960.00
02404             460.00    -2960.00
02405             440.00    -2880.00
02406             440.00    -2800.00
02407             420.00    -2800.00
02408             420.00    -2720.00
02409             420.00    -2720.00
02410             420.00    -2720.00
02411             420.00    -2640.00
02412             420.00    -2640.00
02413             420.00    -2560.00
02414             400.00    -2560.00
02415             380.00    -2480.00
02416             420.00    -2480.00
02417             380.00    -2400.00
02418             380.00    -2400.00
02419             380.00    -2320.00
02420             360.00    -2320.00
02421             360.00    -2240.00
02422             360.00    -2240.00
02423             360.00    -2160.00
02424             360.00    -2160.00
02425             360.00    -2080.00
02426             340.00    -2080.00
02427             340.00    -2000.00
02428             340.00    -1920.00
02429             320.00    -1920.00
02430             340.00    -1920.00
02431             340.00    -1840.00
02432             300.00    -1760.00
02433             300.00    -1840.00
02434             300.00    -1760.00
02435             300.00    -1680.00
02436             300.00    -1680.00
02437             280.00    -1600.00
02438             280.00    -1600.00
02439             280.00    -1600.00
02440             260.00    -1520.00
02441             260.00    -1440.00
02442             260.00    -1440.00
02443             260.00    -1440.00
02444             260.00    -1360.00
02445             260.00    -1280.00
02446             260.00    -1280.00
02447             240.00    -1200.00
02448             240.00    -1200.00
02449             220.00    -1120.00
02450             220.00    -1120.00
02451             220.00    -1120.00
02452             220.00    -1040.00
02453             200.00     -960.00
02454             220.00     -960.00
02455             200.00     -960.00
02456             200.00     -880.00
02457             180.00     -880.00
02458             200.00     -800.00
02459             180.00     -800.00
02460             200.00     -720.00
02461             180.00     -720.00
02462             180.00     -640.00
02463             180.00     -560.00
02464             180.00     -560.00
02465             160.00     -480.00
02466             160.00     -480.00
02467             160.00     -400.00
02468             140.00     -400.00
02469             140.00     -320.00
02470             140.00     -320.00
02471             120.00     -160.00
02472             120.00     -160.00
02473             120.00     -160.00
02474             120.00      -80.00
02475             120.00      -80.00
02476             100.00      -80.00
02477             100.00        0.00
02478             100.00        0.00
02479              80.00       80.00
02480             100.00      160.00
02481              80.00      160.00
02482              80.00      160.00
02483              60.00      240.00
02484              80.00      240.00
02485              60.00      240.00
02486              40.00      320.00
02487              40.00      320.00
02488              40.00      480.00
02489              60.00      560.00
02490              40.00      720.00
02491              20.00      560.00
02492               0.00      480.00
02493              20.00      560.00
02494              20.00      800.00
02495              40.00      800.00
02496             -40.00      720.00
02497             -20.00      800.00
02498              20.00      960.00
02499             -40.00      880.00
02500             -40.00      800.00
02501             -20.00     1120.00
02502             -20.00     1040.00
02503             -60.00      960.00
02504             -40.00     1120.00
02505             -40.00     1280.00
02506             -60.00     1120.00
02507             -60.00     1280.00
02508             -60.00     1280.00
02509             -80.00     1280.00
02510             -80.00     1360.00
02511             -60.00     1440.00
02512            -100.00     1440.00
02513            -100.00     1440.00
02514            -100.00     1440.00
02515            -120.00     1520.00
02516            -100.00     1600.00
02517            -100.00     1600.00
02518            -120.00     1760.00
02519            -120.00     1760.00
02520            -120.00     1760.00
02521            -140.00     1760.00
02522            -140.00     1840.00
02523            -140.00     1840.00
02524            -140.00     1920.00
02525            -140.00     2000.00
02526            -160.00     2080.00
02527            -180.00     2000.00
02528            -160.00     2080.00
02529            -180.00     2160.00
02530            -180.00     2160.00
02531            -180.00     2240.00
02532            -180.00     2240.00
02533            -180.00     2320.00
02534            -200.00     2320.00
02535            -200.00     2400.00
02536            -200.00     2400.00
02537            -220.00     2480.00
02538            -200.00     2480.00
02539            -220.00     2480.00
02540            -220.00     2560.00
02541            -220.00     2640.00
02542            -220.00     2720.00
02543            -220.00     2720.00
02544            -240.00     2720.00
02545            -240.00     2800.00
02546            -260.00     2800.00
02547            -260.00     2880.00
02548            -260.00     2880.00
02549            -260.00     2880.00
02550            -260.00     2960.00
02551            -280.00     3040.00
02552            -280.00     3040.00
02553            -280.00     3120.00
02554            -280.00     3120.00
02555            -300.00     3200.00
02556            -300.00     3200.00
02557            -300.00     3280.00
02558            -300.00     3280.00
02559            -300.00     3280.00
02560            -340.00     3360.00
02561            -340.00     3360.00
02562            -340.00     3440.00
02563            -340.00     3440.00
02564            -360.00     3440.00
02565            -360.00     3520.00
02566            -360.00     3520.00
02567            -360.00     3520.00
02568            -380.00     3600.00
02569            -360.00     3680.00
02570            -380.00     3680.00
02571            -380.00     3760.00
02572            -380.00     3760.00
02573            -380.00     3760.00
02574            -400.00     3840.00
02575            -380.00     3920.00
02576            -400.00     3840.00
02577            -400.00     3920.00
02578            -420.00     4000.00
02579            -420.00     4000.00
02580            -420.00     4080.00
02581            -420.00     4080.00
02582            -440.00     4080.00
02583            -420.00     4080.00
02584            -440.00     4160.00
02585            -440.00     4160.00
02586            -460.00     4240.00
02587            -440.00     4240.00
02588            -440.00     4320.00
02589            -440.00     4320.00
02590            -460.00     4320.00
02591            -460.00     4400.00
02592            -460.00     4400.00
02593            -460.00     4400.00
02594            -460.00     4480.00
02595            -480.00     4480.00
02596            -460.00     4560.00
02597            -500.00     4560.00
02598            -500.00     4720.00
02599            -500.00     4640.00
02600            -500.00     4720.00
02601            -500.00     4720.00
02602            -520.00     4720.00
02603            -520.00     4720.00
02604            -520.00     4800.00
02605            -520.00     4880.00
02606            -520.00     4800.00
02607            -520.00     4960.00
02608            -540.00     4960.00
02609            -520.00     4960.00
02610            -540.00     4960.00
02611            -540.00     4960.00
02612            -540.00     4960.00
02613            -540.00     5040.00
02614            -540.00     5120.00
02615            -560.00     5120.00
02616            -540.00     5120.00
02617            -560.00     5120.00
02618            -600.00     5200.00
02619            -600.00     5200.00
02620            -580.00     5280.00
02621            -600.00     5280.00
02622            -600.00     5280.00
02623            -600.00     5360.00
02624            -600.00     5360.00
02625            -600.00     5360.00
02626            -600.00     5440.00
02627            -600.00     5440.00
02628            -600.00     5440.00
02629            -620.00     5440.00
02630            -620.00     5520.00
02631            -620.00     5520.00
02632            -620.00     5520.00
02633            -620.00     5600.00
02634            -660.00     5600.00
02635            -620.00     5600.00
02636            -620.00     5600.00
02637            -620.00     5680.00
02638            -660.00     5680.00
02639            -640.00     5680.00
02640            -660.00     5840.00
02641            -660.00     5840.00
02642            -640.00     5760.00
02643            -680.00     5840.00
02644            -680.00     5840.00
02645            -680.00     5840.00
02646            -680.00     5920.00
02647            -680.00     5920.00
02648            -680.00     5920.00
02649            -680.00     5920.00
02650            -680.00     5920.00
02651            -700.00     5920.00
02652            -700.00     6000.00
02653            -700.00     6000.00
02654            -700.00     6080.00
02655            -700.00     6000.00
02656            -700.00     6080.00
02657            -700.00     6080.00
02658            -700.00     6160.00
02659            -700.00     6080.00
02660            -700.00     6160.00
02661            -700.00     6240.00
02662            -720.00     6240.00
02663            -700.00     6240.00
02664            -700.00     6240.00
02665            -720.00     6240.00
02666            -700.00     6240.00
02667            -740.00     6320.00
02668            -700.00     6320.00
02669            -740.00     6320.00
02670            -740.00     6320.00
02671            -720.00     6320.00
02672            -740.00     6320.00
02673            -740.00     6400.00
02674            -740.00     6400.00
02675            -740.00     6320.00
02676            -760.00     6400.00
02677            -760.00     6480.00
02678            -740.00     6400.00
02679            -740.00     6400.00
02680            -760.00     6400.00
02681            -760.00     6480.00
02682            -760.00     6480.00
02683            -760.00     6400.00
02684            -760.00     6560.00
02685            -760.00     6560.00
02686            -780.00     6560.00
02687            -760.00     6560.00
02688            -780.00     6560.00
02689            -760.00     6560.00
02690            -780.00     6560.00
02691            -780.00     6560.00
02692            -820.00     6560.00
02693            -780.00     6640.00
02694            -780.00     6640.00
02695            -800.00     6640.00
02696            -800.00     6560.00
02697            -780.00     6640.00
02698            -780.00     6640.00
02699            -820.00     6640.00
02700            -800.00     6640.00
02701            -820.00     6720.00
02702            -800.00     6640.00
02703            -820.00     6640.00
02704            -780.00     6640.00
02705            -820.00     6640.00
02706            -820.00     6720.00
02707            -820.00     6720.00
02708            -820.00     6720.00
02709            -840.00     6720.00
02710            -820.00     6720.00
02711            -820.00     6720.00
02712            -840.00     6720.00
02713            -820.00     6720.00
02714            -840.00     6720.00
02715            -820.00     6720.00
02716            -820.00     6720.00
02717            -820.00     6720.00
02718            -820.00     6720.00
02719            -820.00     6800.00
02720            -820.00     6720.00
02721            -820.00     6800.00
02722            -840.00     6720.00
02723            -820.00     6800.00
02724            -840.00     6720.00
02725            -840.00     6800.00
02726            -820.00     6720.00
02727            -820.00     6880.00
02728            -840.00     6800.00
02729            -820.00     6800.00
02730            -820.00     6800.00
02731            -840.00     6800.00
02732            -820.00     6800.00
02733            -840.00     6800.00
02734            -820.00     6720.00
02735            -840.00     6800.00
02736            -820.00     6800.00
02737            -840.00     6720.00
02738            -840.00     6720.00
02739            -840.00     6800.00
02740            -840.00     6720.00
02741            -840.00     6720.00
02742            -840.00     6720.00
02743            -840.00     6720.00
02744            -840.00     6720.00
02745            -840.00     6720.00
02746            -840.00     6720.00
02747            -840.00     6720.00
02748            -820.00     6720.00
02749            -840.00     6720.00
02750            -840.00     6720.00
02751            -840.00     6720.00
02752            -840.00     6720.00
02753            -840.00     6720.00
02754            -840.00     6720.00
02755            -840.00     6720.00
02756            -840.00     6720.00
02757            -860.00     6720.00
02758            -840.00     6640.00
02759            -840.00     6640.00
02760            -840.00     6720.00
02761            -840.00     6640.00
02762            -840.00     6640.00
02763            -840.00     6640.00
02764            -840.00     6720.00
02765            -840.00     6640.00
02766            -840.00     6640.00
02767            -840.00     6640.00
02768            -840.00     6560.00
02769            -840.00     6560.00
02770            -840.00     6640.00
02771            -840.00     6560.00
02772            -840.00     6560.00
02773            -840.00     6560.00
02774            -840.00     6560.00
02775            -840.00     6560.00
02776            -840.00     6560.00
02777            -840.00     6480.00
02778            -820.00     6560.00
02779            -840.00     6560.00
02780            -820.00     6560.00
02781            -820.00     6400.00
02782            -840.00     6480.00
02783            -820.00     6480.00
02784            -820.00     6400.00
02785            -820.00     6400.00
02786            -820.00     6400.00
02787            -840.00     6400.00
02788            -820.00     6400.00
02789            -820.00     6320.00
02790            -800.00     6400.00
02791            -820.00     6320.00
02792            -820.00     6240.00
02793            -800.00     6240.00
02794            -780.00     6240.00
02795            -800.00     6240.00
02796            -800.00     6240.00
02797            -780.00     6240.00
02798            -780.00     6240.00
02799            -780.00     6240.00
02800            -800.00     6240.00
02801            -780.00     6080.00
02802            -780.00     6160.00
02803            -780.00     6080.00
02804            -780.00     6080.00
02805            -760.00     6080.00
02806            -760.00     6000.00
02807            -760.00     6080.00
02808            -780.00     6000.00
02809            -760.00     6000.00
02810            -780.00     5920.00
02811            -760.00     6000.00
02812            -760.00     5920.00
02813            -780.00     5920.00
02814            -760.00     5920.00
02815            -780.00     5920.00
02816            -760.00     5920.00
02817            -760.00     5920.00
02818            -760.00     5760.00
02819            -760.00     5840.00
02820            -760.00     5840.00
02821            -760.00     5760.00
02822            -760.00     5680.00
02823            -760.00     5760.00
02824            -740.00     5680.00
02825            -760.00     5680.00
02826            -740.00     5600.00
02827            -740.00     5600.00
02828            -740.00     5600.00
02829            -760.00     5600.00
02830            -740.00     5600.00
02831            -740.00     5520.00
02832            -740.00     5440.00
02833            -740.00     5440.00
02834            -740.00     5440.00
02835            -700.00     5440.00
02836            -700.00     5360.00
02837            -740.00     5360.00
02838            -700.00     5360.00
02839            -700.00     5360.00
02840            -700.00     5280.00
02841            -700.00     5280.00
02842            -700.00     5280.00
02843            -700.00     5280.00
02844            -700.00     5200.00
02845            -700.00     5120.00
02846            -680.00     5120.00
02847            -700.00     5120.00
02848            -680.00     5040.00
02849            -680.00     5040.00
02850            -680.00     5040.00
02851            -680.00     4960.00
02852            -680.00     5040.00
02853            -660.00     4960.00
02854            -680.00     4960.00
02855            -660.00     4880.00
02856            -660.00     4800.00
02857            -660.00     4800.00
02858            -660.00     4800.00
02859            -660.00     4800.00
02860            -660.00     4800.00
02861            -620.00     4720.00
02862            -620.00     4640.00
02863            -620.00     4720.00
02864            -620.00     4640.00
02865            -620.00     4640.00
02866            -620.00     4560.00
02867            -620.00     4480.00
02868            -620.00     4480.00
02869            -620.00     4400.00
02870            -620.00     4400.00
02871            -600.00     4480.00
02872            -600.00     4400.00
02873            -600.00     4320.00
02874            -600.00     4320.00
02875            -600.00     4320.00
02876            -600.00     4240.00
02877            -600.00     4160.00
02878            -580.00     4160.00
02879            -580.00     4160.00
02880            -580.00     4160.00
02881            -580.00     4080.00
02882            -580.00     4000.00
02883            -580.00     4000.00
02884            -580.00     4000.00
02885            -580.00     4000.00
02886            -540.00     3840.00
02887            -540.00     3840.00
02888            -540.00     3760.00
02889            -540.00     3760.00
02890            -540.00     3760.00
02891            -540.00     3760.00
02892            -520.00     3680.00
02893            -540.00     3680.00
02894            -540.00     3680.00
02895            -520.00     3600.00
02896            -520.00     3600.00
02897            -520.00     3520.00
02898            -520.00     3520.00
02899            -520.00     3440.00
02900            -500.00     3360.00
02901            -500.00     3440.00
02902            -520.00     3360.00
02903            -500.00     3280.00
02904            -500.00     3280.00
02905            -460.00     3200.00
02906            -480.00     3200.00
02907            -460.00     3200.00
02908            -460.00     3120.00
02909            -460.00     3120.00
02910            -460.00     3040.00
02911            -440.00     3120.00
02912            -460.00     3040.00
02913            -440.00     2960.00
02914            -440.00     2880.00
02915            -440.00     2880.00
02916            -440.00     2880.00
02917            -440.00     2720.00
02918            -440.00     2720.00
02919            -440.00     2720.00
02920            -400.00     2720.00
02921            -420.00     2640.00
02922            -380.00     2560.00
02923            -400.00     2560.00
02924            -380.00     2560.00
02925            -380.00     2480.00
02926            -380.00     2400.00
02927            -380.00     2400.00
02928            -380.00     2400.00
02929            -380.00     2400.00
02930            -380.00     2320.00
02931            -360.00     2240.00
02932            -360.00     2240.00
02933            -360.00     2240.00
02934            -360.00     2160.00
02935            -340.00     2160.00
02936            -340.00     2080.00
02937            -340.00     2080.00
02938            -340.00     2000.00
02939            -300.00     1920.00
02940            -320.00     1920.00
02941            -300.00     1840.00
02942            -300.00     1840.00
02943            -300.00     1760.00
02944            -300.00     1760.00
02945            -280.00     1760.00
02946            -300.00     1680.00
02947            -280.00     1600.00
02948            -300.00     1600.00
02949            -280.00     1600.00
02950            -280.00     1520.00
02951            -280.00     1440.00
02952            -280.00     1440.00
02953            -280.00     1360.00
02954            -280.00     1360.00
02955            -260.00     1280.00
02956            -260.00     1280.00
02957            -260.00     1280.00
02958            -240.00     1200.00
02959            -260.00     1120.00
02960            -220.00     1120.00
02961            -220.00     1120.00
02962            -220.00     1040.00
02963            -220.00      960.00
02964            -200.00      960.00
02965            -220.00      960.00
02966            -220.00      800.00
02967            -200.00      880.00
02968            -200.00      800.00
02969            -200.00      800.00
02970            -200.00      720.00
02971            -180.00      640.00
02972            -200.00      640.00
02973            -180.00      560.00
02974            -160.00      560.00
02975            -180.00      560.00
02976            -140.00      400.00
02977            -140.00      400.00
02978            -120.00      400.00
02979            -120.00      320.00
02980            -120.00      240.00
02981            -140.00      240.00
02982            -120.00      240.00
02983            -120.00      160.00
02984            -120.00      160.00
02985            -120.00       80.00
02986            -100.00        0.00
02987            -100.00        0.00
02988             -80.00      -80.00
02989            -100.00      -80.00
02990             -60.00      -80.00
02991             -60.00      -80.00
02992             -60.00     -160.00
02993             -60.00     -160.00
02994             -60.00     -320.00
02995             -60.00     -320.00
02996             -60.00     -320.00
02997             -40.00     -400.00
02998             -20.00     -400.00
02999             -20.00     -480.00
03000             -40.00     -640.00
03001             -40.00     -720.00
03002             -20.00     -640.00
03003             -20.00     -480.00
03004              20.00     -640.00
03005             -20.00     -880.00
03006             -20.00     -800.00
03007              40.00     -720.00
03008              20.00     -960.00
03009               0.00     -960.00
03010              20.00     -800.00
03011              40.00     -960.00
03012              20.00    -1120.00
03013              40.00    -1040.00
03014              40.00    -1040.00
03015              40.00    -1200.00
03016              40.00    -1120.00
03017              60.00    -1200.00
03018              40.00    -1360.00
03019              60.00    -1280.00
03020              60.00    -1360.00
03021              60.00    -1360.00
03022              60.00    -1440.00
03023             100.00    -1440.00
03024              80.00    -1600.00
03025             100.00    -1600.00
03026             100.00    -1600.00
03027             100.00    -1680.00
03028             100.00    -1680.00
03029             100.00    -1680.00
03030             120.00    -1760.00
03031             120.00    -1760.00
03032             120.00    -1840.00
03033             120.00    -1840.00
03034             140.00    -1920.00
03035             140.00    -1920.00
03036             180.00    -2080.00
03037             140.00    -2080.00
03038             180.00    -2080.00
03039             180.00    -2080.00
03040             180.00    -2160.00
03041             200.00    -2240.00
03042             200.00    -2320.00
03043             200.00    -2240.00
03044             200.00    -2320.00
03045             200.00    -2400.00
03046             220.00    -2400.00
03047             220.00    -2480.00
03048             200.00    -2480.00
03049             220.00    -2560.00
03050             220.00    -2560.00
03051             240.00    -2640.00
03052             240.00    -2560.00
03053             260.00    -2720.00
03054             260.00    -2640.00
03055             260.00    -2800.00
03056             260.00    -2800.00
03057             260.00    -2880.00
03058             280.00    -2880.00
03059             260.00    -2880.00
03060             280.00    -2960.00
03061             280.00    -2960.00
03062             280.00    -3040.00
03063             300.00    -3040.00
03064             300.00    -3040.00
03065             300.00    -3120.00
03066             300.00    -3120.00
03067             340.00    -3200.00
03068             320.00    -3280.00
03069             340.00    -3280.00
03070             340.00    -3360.00
03071             340.00    -3360.00
03072             340.00    -3360.00
03073             360.00    -3440.00
03074             340.00    -3440.00
03075             340.00    -3520.00
03076             360.00    -3520.00
03077             360.00    -3520.00
03078             360.00    -3600.00
03079             360.00    -3680.00
03080             360.00    -3680.00
03081             360.00    -3680.00
03082             380.00    -3680.00
03083             380.00    -3840.00
03084             380.00    -3760.00
03085             380.00    -3840.00
03086             400.00    -3840.00
03087             400.00    -3840.00
03088             420.00    -4000.00
03089             420.00    -4000.00
03090             420.00    -4000.00
03091             420.00    -4000.00
03092             420.00    -4080.00
03093             420.00    -4160.00
03094             440.00    -4160.00
03095             440.00    -4160.00
03096             440.00    -4240.00
03097             460.00    -4240.00
03098             440.00    -4240.00
03099             460.00    -4320.00
03100             440.00    -4320.00
03101             460.00    -4320.00
03102             440.00    -4320.00
03103             460.00    -4480.00
03104             460.00    -4480.00
03105             500.00    -4480.00
03106             500.00    -4560.00
03107             500.00    -4560.00
03108             500.00    -4560.00
03109             500.00    -4640.00
03110             500.00    -4640.00
03111             520.00    -4640.00
03112             520.00    -4640.00
03113             520.00    -4800.00
03114             520.00    -4720.00
03115             520.00    -4880.00
03116             540.00    -4800.00
03117             540.00    -4880.00
03118             540.00    -4880.00
03119             540.00    -4880.00
03120             540.00    -4960.00
03121             560.00    -4960.00
03122             580.00    -4960.00
03123             560.00    -5040.00
03124             580.00    -5040.00
03125             580.00    -5120.00
03126             580.00    -5120.00
03127             580.00    -5120.00
03128             580.00    -5120.00
03129             580.00    -5200.00
03130             580.00    -5200.00
03131             580.00    -5200.00
03132             600.00    -5280.00
03133             580.00    -5280.00
03134             600.00    -5280.00
03135             600.00    -5280.00
03136             620.00    -5280.00
03137             600.00    -5440.00
03138             620.00    -5440.00
03139             620.00    -5440.00
03140             620.00    -5440.00
03141             620.00    -5440.00
03142             620.00    -5520.00
03143             620.00    -5520.00
03144             620.00    -5520.00
03145             640.00    -5600.00
03146             620.00    -5600.00
03147             640.00    -5600.00
03148             660.00    -5600.00
03149             660.00    -5760.00
03150             660.00    -5680.00
03151             660.00    -5760.00
03152             640.00    -5760.00
03153             660.00    -5840.00
03154             680.00    -5760.00
03155             660.00    -5760.00
03156             680.00    -5760.00
03157             680.00    -5840.00
03158             680.00    -5840.00
03159             680.00    -5920.00
03160             680.00    -5920.00
03161             680.00    -5920.00
03162             680.00    -5920.00
03163             680.00    -5920.00
03164             680.00    -6000.00
03165             700.00    -6000.00
03166             680.00    -6080.00
03167             680.00    -6080.00
03168             700.00    -6080.00
03169             680.00    -6080.00
03170             700.00    -6080.00
03171             720.00    -6080.00
03172             740.00    -6080.00
03173             700.00    -6160.00
03174             720.00    -6160.00
03175             720.00    -6160.00
03176             740.00    -6160.00
03177             720.00    -6240.00
03178             740.00    -6240.00
03179             740.00    -6240.00
03180             740.00    -6240.00
03181             740.00    -6320.00
03182             760.00    -6240.00
03183             740.00    -6240.00
03184             760.00    -6240.00
03185             760.00    -6320.00
03186             760.00    -6400.00
03187             760.00    -6320.00
03188             760.00    -6400.00
03189             760.00    -6320.00
03190             760.00    -6400.00
03191             780.00    -6400.00
03192             760.00    -6480.00
03193             780.00    -6400.00
03194             760.00    -6480.00
03195             780.00    -6480.00
03196             780.00    -6480.00
03197             780.00    -6480.00
03198             780.00    -6480.00
03199             780.00    -6480.00
03200             780.00    -6480.00
03201             800.00    -6560.00
03202             780.00    -6560.00
03203             780.00    -6560.00
03204             800.00    -6560.00
03205             780.00    -6560.00
03206             780.00    -6560.00
03207             780.00    -6560.00
03208             820.00    -6640.00
03209             820.00    -6560.00
03210             780.00    -6560.00
03211             820.00    -6560.00
03212             780.00    -6560.00
03213             800.00    -6640.00
03214             820.00    -6560.00
03215             800.00    -6560.00
03216             820.00    -6560.00
03217             820.00    -6640.00
03218             820.00    -6640.00
03219             820.00    -6640.00
03220             820.00    -6720.00
03221             820.00    -6560.00
03222             820.00    -6720.00
03223             800.00    -6640.00
03224             820.00    -6640.00
03225             820.00    -6720.00
03226             820.00    -6720.00
03227             820.00    -6720.00
03228             820.00    -6720.00
03229             820.00    -6720.00
03230             820.00    -6720.00
03231             840.00    -6720.00
03232             820.00    -6720.00
03233             820.00    -6720.00
03234             840.00    -6720.00
03235             820.00    -6640.00
03236             820.00    -6720.00
03237             840.00    -6720.00
03238             840.00    -6720.00
03239             820.00    -6720.00
03240             840.00    -6720.00
03241             840.00    -6720.00
03242             820.00    -6720.00
03243             840.00    -6720.00
03244             840.00    -6720.00
03245             820.00    -6720.00
03246             840.00    -6720.00
03247             840.00    -6720.00
03248             840.00    -6720.00
03249             840.00    -6720.00
03250             840.00    -6720.00
03251             860.00    -6720.00
03252             840.00    -6640.00
03253             840.00    -6720.00
03254             840.00    -6720.00
03255             840.00    -6720.00
03256             840.00    -6720.00
03257             840.00    -6640.00
03258             840.00    -6720.00
03259             840.00    -6720.00
03260             820.00    -6560.00
03261             840.00    -6640.00
03262             840.00    -6720.00
03263             840.00    -6640.00
03264             840.00    -6640.00
03265             840.00    -6640.00
03266             840.00    -6560.00
03267             840.00    -6560.00
03268             840.00    -6560.00
03269             840.00    -6560.00
03270             840.00    -6480.00
03271             840.00    -6560.00
03272             840.00    -6560.00
03273             820.00    -6560.00
03274             840.00    -6560.00
03275             840.00    -6560.00
03276             820.00    -6560.00
03277             840.00    -6560.00
03278             840.00    -6560.00
03279             820.00    -6480.00
03280             840.00    -6480.00
03281             840.00    -6480.00
03282             840.00    -6400.00
03283             820.00    -6400.00
03284             820.00    -6480.00
03285             840.00    -6400.00
03286             820.00    -6480.00
03287             820.00    -6400.00
03288             820.00    -6400.00
03289             820.00    -6320.00
03290             820.00    -6400.00
03291             820.00    -6400.00
03292             820.00    -6320.00
03293             820.00    -6320.00
03294             820.00    -6320.00
03295             820.00    -6400.00
03296             800.00    -6240.00
03297             820.00    -6240.00
03298             820.00    -6240.00
03299             820.00    -6240.00
03300             820.00    -6240.00
03301             820.00    -6240.00
03302             800.00    -6160.00
03303             820.00    -6160.00
03304             780.00    -6160.00
03305             800.00    -6160.00
03306             780.00    -6160.00
03307             780.00    -6160.00
03308             780.00    -6160.00
03309             780.00    -6080.00
03310             780.00    -6080.00
03311             780.00    -6080.00
03312             780.00    -6000.00
03313             800.00    -6000.00
03314             780.00    -5920.00
03315             780.00    -5920.00
03316             800.00    -5920.00
03317             760.00    -5920.00
03318             780.00    -5920.00
03319             760.00    -5920.00
03320             780.00    -5920.00
03321             760.00    -5840.00
03322             780.00    -5840.00
03323             760.00    -5840.00
03324             760.00    -5840.00
03325             760.00    -5840.00
03326             760.00    -5760.00
03327             760.00    -5680.00
03328             780.00    -5760.00
03329             760.00    -5760.00
03330             760.00    -5680.00
03331             760.00    -5600.00
03332             760.00    -5600.00
03333             740.00    -5520.00
03334             760.00    -5600.00
03335             740.00    -5520.00
03336             740.00    -5440.00
03337             740.00    -5520.00
03338             740.00    -5520.00
03339             740.00    -5440.00
03340             720.00    -5440.00
03341             740.00    -5440.00
03342             720.00    -5360.00
03343             700.00    -5360.00
03344             700.00    -5280.00
03345             700.00    -5280.00
03346             700.00    -5280.00
03347             700.00    -5280.00
03348             700.00    -5200.00
03349             680.00    -5200.00
03350             700.00    -5120.00
03351             680.00    -5200.00
03352             680.00    -5120.00
03353             680.00    -5120.00
03354             700.00    -5120.00
03355             680.00    -5040.00
03356             680.00    -5040.00
03357             680.00    -4960.00
03358             680.00    -4960.00
03359             680.00    -4880.00
03360             660.00    -4880.00
03361             660.00    -4880.00
03362             660.00    -4880.00
03363             680.00    -4800.00
03364             660.00    -4800.00
03365             660.00    -4800.00
03366             660.00    -4720.00
03367             660.00    -4800.00
03368             660.00    -4640.00
03369             640.00    -4640.00
03370             660.00    -4640.00
03371             620.00    -4560.00
03372             620.00    -4480.00
03373             640.00    -4560.00
03374             620.00    -4480.00
03375             620.00    -4400.00
03376             620.00    -4400.00
03377             620.00    -4320.00
03378             620.00    -4320.00
03379             600.00    -4320.00
03380             600.00    -4320.00
03381             620.00    -4240.00
03382             600.00    -4320.00
03383             600.00    -4160.00
03384             600.00    -4160.00
03385             580.00    -4160.00
03386             600.00    -4080.00
03387             580.00    -4080.00
03388             580.00    -4000.00
03389             580.00    -4000.00
03390             580.00    -4000.00
03391             580.00    -3920.00
03392             580.00    -3920.00
03393             580.00    -3920.00
03394             560.00    -3840.00
03395             540.00    -3840.00
03396             560.00    -3840.00
03397             540.00    -3760.00
03398             540.00    -3680.00
03399             540.00    -3680.00
03400             540.00    -3600.00
03401             540.00    -3600.00
03402             520.00    -3520.00
03403             520.00    -3520.00
03404             520.00    -3520.00
03405             520.00    -3520.00
03406             500.00    -3440.00
03407             500.00    -3360.00
03408             500.00    -3360.00
03409             500.00    -3360.00
03410             500.00    -3280.00
03411             500.00    -3200.00
03412             460.00    -3200.00
03413             480.00    -3200.00
03414             480.00    -3200.00
03415             460.00    -3200.00
03416             460.00    -3040.00
03417             440.00    -3040.00
03418             460.00    -2960.00
03419             440.00    -2960.00
03420             440.00    -2960.00
03421             440.00    -2880.00
03422             440.00    -2880.00
03423             440.00    -2800.00
03424             420.00    -2800.00
03425             420.00    -2720.00
03426             420.00    -2720.00
03427             420.00    -2640.00
03428             420.00    -2640.00
03429             420.00    -2560.00
03430             420.00    -2560.00
03431             420.00    -2560.00
03432             380.00    -2480.00
03433             380.00    -2480.00
03434             380.00    -2400.00
03435             360.00    -2400.00
03436             380.00    -2240.00
03437             380.00    -2320.00
03438             360.00    -2240.00
03439             360.00    -2240.00
03440             360.00    -2160.00
03441             360.00    -2080.00
03442             360.00    -2080.00
03443             360.00    -2000.00
03444             360.00    -2000.00
03445             340.00    -2000.00
03446             340.00    -1920.00
03447             340.00    -1840.00
03448             320.00    -1840.00
03449             340.00    -1760.00
03450             340.00    -1760.00
03451             300.00    -1680.00
03452             300.00    -1680.00
03453             300.00    -1680.00
03454             280.00    -1600.00
03455             280.00    -1600.00
03456             300.00    -1600.00
03457             280.00    -1520.00
03458             280.00    -1440.00
03459             280.00    -1360.00
03460             260.00    -1360.00
03461             280.00    -1280.00
03462             260.00    -1280.00
03463             260.00    -1280.00
03464             260.00    -1200.00
03465             240.00    -1120.00
03466             260.00    -1120.00
03467             220.00    -1120.00
03468             240.00    -1040.00
03469             220.00    -1120.00
03470             220.00     -960.00
03471             200.00     -960.00
03472             200.00     -880.00
03473             200.00     -880.00
03474             200.00     -800.00
03475             200.00     -800.00
03476             180.00     -800.00
03477             180.00     -720.00
03478             180.00     -640.00
03479             180.00     -640.00
03480             160.00     -560.00
03481             140.00     -480.00
03482             140.00     -480.00
03483             160.00     -400.00
03484             140.00     -320.00
03485             120.00     -400.00
03486             140.00     -320.00
03487             140.00     -320.00
03488             120.00     -240.00
03489             100.00     -160.00
03490             120.00     -160.00
03491             100.00      -80.00
03492             100.00      -80.00
03493             100.00        0.00
03494             100.00        0.00
03495             100.00        0.00
03496             100.00      160.00
03497              60.00      160.00
03498              60.00      160.00
03499             100.00      240.00
03500              60.00      240.00
03501              60.00      320.00
03502              60.00      320.00
03503              40.00      400.00
03504              40.00      400.00
03505              40.00      480.00
03506              60.00      560.00
03507              20.00      640.00
03508              20.00      560.00
03509              20.00      560.00
03510              20.00      800.00
03511              40.00      800.00
03512             -20.00      720.00
03513             -20.00      720.00
03514              20.00      960.00
03515             -20.00      880.00
03516             -40.00      800.00
03517             -20.00      960.00
03518              20.00     1120.00
03519             -40.00      960.00
03520             -40.00     1120.00
03521             -20.00     1200.00
03522             -40.00     1120.00
03523             -60.00     1200.00
03524             -40.00     1280.00
03525             -60.00     1280.00
03526             -60.00     1280.00
03527             -60.00     1440.00
03528             -60.00     1440.00
03529             -80.00     1520.00
03530            -100.00     1520.00
03531            -120.00     1520.00
03532            -120.00     1600.00
03533            -100.00     1680.00
03534            -120.00     1600.00
03535            -120.00     1760.00
03536            -120.00     1760.00
03537            -120.00     1760.00
03538            -120.00     1840.00
03539            -140.00     1840.00
03540            -140.00     1840.00
03541            -140.00     1920.00
03542            -160.00     1920.00
03543            -180.00     1920.00
03544            -160.00     2160.00
03545            -180.00     2160.00
03546            -180.00     2160.00
03547            -180.00     2240.00
03548            -200.00     2240.00
03549            -180.00     2320.00
03550            -200.00     2320.00
03551            -200.00     2400.00
03552            -220.00     2400.00
03553            -200.00     2400.00
03554            -220.00     2480.00
03555            -220.00     2480.00
03556            -220.00     2560.00
03557            -220.00     2560.00
03558            -240.00     2640.00
03559            -220.00     2720.00
03560            -220.00     2720.00
03561            -260.00     2720.00
03562            -260.00     2800.00
03563            -240.00     2880.00
03564            -260.00     2880.00
03565            -260.00     2880.00
03566            -280.00     2880.00
03567            -280.00     2960.00
03568            -280.00     3040.00
03569            -300.00     3040.00
03570            -280.00     3040.00
03571            -280.00     3120.00
03572            -300.00     3120.00
03573            -300.00     3200.00
03574            -300.00     3280.00
03575            -300.00     3280.00
03576            -300.00     3280.00
03577            -320.00     3360.00
03578            -340.00     3360.00
03579            -340.00     3440.00
03580            -340.00     3440.00
03581            -340.00     3520.00
03582            -360.00     3520.00
03583            -340.00     3520.00
03584            -360.00     3600.00
03585            -340.00     3520.00
03586            -360.00     3680.00
03587            -380.00     3680.00
03588            -380.00     3760.00
03589            -380.00     3760.00
03590            -400.00     3760.00
03591            -380.00     3840.00
03592            -380.00     3920.00
03593            -380.00     3920.00
03594            -420.00     3920.00
03595            -380.00     4000.00
03596            -420.00     4000.00
03597            -420.00     4080.00
03598            -440.00     4080.00
03599            -420.00     4160.00
03600            -440.00     4160.00
03601            -440.00     4160.00
03602            -440.00     4240.00
03603            -460.00     4320.00
03604            -460.00     4320.00
03605            -440.00     4320.00
03606            -460.00     4320.00
03607            -460.00     4320.00
03608            -460.00     4400.00
03609            -460.00     4400.00
03610            -460.00     4480.00
03611            -500.00     4480.00
03612            -500.00     4480.00
03613            -500.00     4560.00
03614            -500.00     4640.00
03615            -500.00     4640.00
03616            -500.00     4640.00
03617            -500.00     4640.00
03618            -520.00     4800.00
03619            -520.00     4720.00
03620            -520.00     4720.00
03621            -520.00     4800.00
03622            -520.00     4800.00
03623            -520.00     4880.00
03624            -520.00     4960.00
03625            -540.00     4960.00
03626            -540.00     4960.00
03627            -540.00     5040.00
03628            -540.00     5040.00
03629            -540.00     5040.00
03630            -540.00     5120.00
03631            -580.00     5120.00
03632            -560.00     5120.00
03633            -560.00     5120.00
03634            -580.00     5200.00
03635            -580.00     5200.00
03636            -580.00     5280.00
03637            -580.00     5280.00
03638            -580.00     5280.00
03639            -600.00     5280.00
03640            -600.00     5360.00
03641            -600.00     5360.00
03642            -600.00     5440.00
03643            -600.00     5440.00
03644            -600.00     5440.00
03645            -600.00     5440.00
03646            -620.00     5440.00
03647            -620.00     5520.00
03648            -620.00     5600.00
03649            -620.00     5600.00
03650            -620.00     5600.00
03651            -620.00     5680.00
03652            -620.00     5600.00
03653            -620.00     5680.00
03654            -640.00     5680.00
03655            -660.00     5680.00
03656            -640.00     5680.00
03657            -640.00     5760.00
03658            -640.00     5760.00
03659            -680.00     5760.00
03660            -660.00     5840.00
03661            -660.00     5840.00
03662            -680.00     5840.00
03663            -660.00     5920.00
03664            -680.00     5920.00
03665            -680.00     5920.00
03666            -700.00     5920.00
03667            -700.00     5920.00
03668            -680.00     6000.00
03669            -700.00     6000.00
03670            -700.00     6000.00
03671            -700.00     6000.00
03672            -700.00     6080.00
03673            -700.00     6080.00
03674            -700.00     6080.00
03675            -700.00     6080.00
03676            -700.00     6160.00
03677            -720.00     6240.00
03678            -720.00     6080.00
03679            -720.00     6240.00
03680            -700.00     6240.00
03681            -740.00     6240.00
03682            -720.00     6240.00
03683            -740.00     6240.00
03684            -760.00     6240.00
03685            -740.00     6320.00
03686            -740.00     6320.00
03687            -760.00     6320.00
03688            -740.00     6320.00
03689            -760.00     6320.00
03690            -760.00     6320.00
03691            -740.00     6400.00
03692            -740.00     6400.00
03693            -760.00     6400.00
03694            -760.00     6400.00
03695            -760.00     6480.00
03696            -760.00     6480.00
03697            -760.00     6480.00
03698            -760.00     6480.00
03699            -780.00     6480.00
03700            -760.00     6560.00
03701            -760.00     6560.00
03702            -760.00     6480.00
03703            -760.00     6560.00
03704            -780.00     6560.00
03705            -760.00     6560.00
03706            -760.00     6560.00
03707            -760.00     6640.00
03708            -760.00     6560.00
03709            -760.00     6640.00
03710            -760.00     6560.00
03711            -780.00     6560.00
03712            -780.00     6640.00
03713            -780.00     6640.00
03714            -800.00     6640.00
03715            -780.00     6640.00
03716            -780.00     6720.00
03717            -780.00     6640.00
03718            -780.00     6720.00
03719            -780.00     6640.00
03720            -800.00     6640.00
03721            -800.00     6640.00
03722            -820.00     6640.00
03723            -820.00     6720.00
03724            -780.00     6720.00
03725            -820.00     6720.00
03726            -820.00     6720.00
03727            -820.00     6720.00
03728            -820.00     6720.00
03729            -820.00     6720.00
03730            -820.00     6720.00
03731            -840.00     6720.00
03732            -820.00     6720.00
03733            -840.00     6720.00
03734            -820.00     6720.00
03735            -840.00     6800.00
03736            -840.00     6800.00
03737            -840.00     6720.00
03738            -840.00     6800.00
03739            -840.00     6720.00
03740            -820.00     6720.00
03741            -840.00     6800.00
03742            -840.00     6720.00
03743            -840.00     6800.00
03744            -840.00     6800.00
03745            -840.00     6800.00
03746            -840.00     6800.00
03747            -840.00     6720.00
03748            -820.00     6800.00
03749            -840.00     6720.00
03750            -840.00     6800.00
03751            -840.00     6800.00
03752            -840.00     6720.00
03753            -840.00     6720.00
03754            -840.00     6800.00
03755            -840.00     6720.00
03756            -840.00     6720.00
03757            -860.00     6800.00
03758            -840.00     6720.00
03759            -840.00     6800.00
03760            -820.00     6720.00
03761            -840.00     6720.00
03762            -820.00     6720.00
03763            -840.00     6720.00
03764            -840.00     6720.00
03765            -840.00     6720.00
03766            -820.00     6720.00
03767            -840.00     6720.00
03768            -820.00     6720.00
03769            -820.00     6720.00
03770            -840.00     6720.00
03771            -820.00     6720.00
03772            -840.00     6720.00
03773            -820.00     6640.00
03774            -840.00     6720.00
03775            -840.00     6720.00
03776            -840.00     6640.00
03777            -840.00     6640.00
03778            -820.00     6640.00
03779            -840.00     6640.00
03780            -820.00     6640.00
03781            -820.00     6640.00
03782            -840.00     6640.00
03783            -820.00     6640.00
03784            -820.00     6560.00
03785            -820.00     6560.00
03786            -820.00     6560.00
03787            -840.00     6560.00
03788            -840.00     6560.00
03789            -820.00     6560.00
03790            -820.00     6560.00
03791            -820.00     6560.00
03792            -820.00     6560.00
03793            -840.00     6560.00
03794            -820.00     6560.00
03795            -840.00     6480.00
03796            -840.00     6400.00
03797            -820.00     6480.00
03798            -820.00     6400.00
03799            -820.00     6400.00
03800            -820.00     6400.00
03801            -820.00     6400.00
03802            -820.00     6400.00
03803            -820.00     6320.00
03804            -820.00     6400.00
03805            -820.00     6400.00
03806            -820.00     6320.00
03807            -800.00     6320.00
03808            -820.00     6320.00
03809            -820.00     6320.00
03810            -820.00     6240.00
03811            -820.00     6320.00
03812            -820.00     6240.00
03813            -800.00     6240.00
03814            -800.00     6240.00
03815            -800.00     6240.00
03816            -780.00     6160.00
03817            -820.00     6080.00
03818            -820.00     6160.00
03819            -780.00     6080.00
03820            -780.00     6080.00
03821            -780.00     6080.00
03822            -780.00     6080.00
03823            -760.00     6080.00
03824            -760.00     6000.00
03825            -760.00     6000.00
03826            -760.00     6000.00
03827            -780.00     6000.00
03828            -780.00     5920.00
03829            -760.00     5920.00
03830            -760.00     5920.00
03831            -760.00     5920.00
03832            -780.00     5920.00
03833            -740.00     5840.00
03834            -760.00     5840.00
03835            -760.00     5840.00
03836            -760.00     5760.00
03837            -740.00     5760.00
03838            -760.00     5760.00
03839            -740.00     5680.00
03840            -740.00     5680.00
03841            -760.00     5680.00
03842            -740.00     5680.00
03843            -740.00     5680.00
03844            -740.00     5600.00
03845            -740.00     5600.00
03846            -740.00     5520.00
03847            -720.00     5440.00
03848            -720.00     5440.00
03849            -700.00     5440.00
03850            -700.00     5440.00
03851            -700.00     5440.00
03852            -700.00     5360.00
03853            -700.00     5360.00
03854            -720.00     5280.00
03855            -700.00     5360.00
03856            -700.00     5280.00
03857            -700.00     5280.00
03858            -700.00     5280.00
03859            -700.00     5280.00
03860            -700.00     5200.00
03861            -700.00     5120.00
03862            -700.00     5120.00
03863            -700.00     5120.00
03864            -700.00     5120.00
03865            -700.00     5120.00
03866            -700.00     5040.00
03867            -680.00     4960.00
03868            -680.00     5040.00
03869            -680.00     4960.00
03870            -660.00     4960.00
03871            -680.00     4960.00
03872            -680.00     4800.00
03873            -660.00     4800.00
03874            -660.00     4800.00
03875            -660.00     4800.00
03876            -660.00     4720.00
03877            -660.00     4720.00
03878            -660.00     4640.00
03879            -660.00     4640.00
03880            -640.00     4640.00
03881            -620.00     4560.00
03882            -640.00     4560.00
03883            -620.00     4480.00
03884            -620.00     4480.00
03885            -620.00     4400.00
03886            -620.00     4480.00
03887            -620.00     4400.00
03888            -600.00     4320.00
03889            -600.00     4320.00
03890            -600.00     4320.00
03891            -600.00     4320.00
03892            -600.00     4320.00
03893            -600.00     4320.00
03894            -600.00     4160.00
03895            -580.00     4160.00
03896            -580.00     4080.00
03897            -580.00     4080.00
03898            -560.00     4000.00
03899            -580.00     4080.00
03900            -580.00     4000.00
03901            -560.00     4000.00
03902            -540.00     4000.00
03903            -560.00     3840.00
03904            -540.00     3840.00
03905            -540.00     3760.00
03906            -540.00     3840.00
03907            -520.00     3760.00
03908            -520.00     3680.00
03909            -520.00     3680.00
03910            -520.00     3680.00
03911            -520.00     3680.00
03912            -520.00     3600.00
03913            -520.00     3520.00
03914            -500.00     3520.00
03915            -520.00     3440.00
03916            -520.00     3440.00
03917            -500.00     3360.00
03918            -500.00     3360.00
03919            -480.00     3360.00
03920            -500.00     3280.00
03921            -460.00     3280.00
03922            -460.00     3200.00
03923            -460.00     3200.00
03924            -460.00     3120.00
03925            -460.00     3120.00
03926            -460.00     3120.00
03927            -460.00     3040.00
03928            -460.00     3040.00
03929            -460.00     2960.00
03930            -440.00     2880.00
03931            -440.00     2880.00
03932            -440.00     2880.00
03933            -440.00     2800.00
03934            -440.00     2800.00
03935            -420.00     2720.00
03936            -420.00     2720.00
03937            -420.00     2720.00
03938            -420.00     2640.00
03939            -420.00     2560.00
03940            -380.00     2480.00
03941            -420.00     2480.00
03942            -380.00     2480.00
03943            -380.00     2480.00
03944            -380.00     2400.00
03945            -380.00     2400.00
03946            -380.00     2320.00
03947            -380.00     2240.00
03948            -360.00     2240.00
03949            -360.00     2240.00
03950            -360.00     2160.00
03951            -360.00     2160.00
03952            -340.00     2160.00
03953            -360.00     2080.00
03954            -340.00     2080.00
03955            -340.00     2000.00
03956            -340.00     1920.00
03957            -320.00     1920.00
03958            -300.00     1840.00
03959            -300.00     1840.00
03960            -300.00     1760.00
03961            -300.00     1760.00
03962            -280.00     1760.00
03963            -280.00     1600.00
03964            -280.00     1600.00
03965            -280.00     1600.00
03966            -260.00     1520.00
03967            -280.00     1520.00
03968            -260.00     1440.00
03969            -260.00     1440.00
03970            -260.00     1360.00
03971            -240.00     1360.00
03972            -220.00     1280.00
03973            -220.00     1280.00
03974            -240.00     1200.00
03975            -220.00     1120.00
03976            -220.00     1120.00
03977            -220.00     1120.00
03978            -220.00     1120.00
03979            -200.00      960.00
03980            -200.00      960.00
03981            -200.00      880.00
03982            -200.00      960.00
03983            -200.00      800.00
03984            -200.00      800.00
03985            -180.00      800.00
03986            -180.00      720.00
03987            -180.00      720.00
03988            -180.00      560.00
03989            -140.00      560.00
03990            -180.00      560.00
03991            -140.00      560.00
03992            -160.00      480.00
03993            -140.00      480.00
03994            -140.00      320.00
03995            -140.00      320.00
03996            -120.00      320.00
03997            -120.00      320.00
03998            -120.00      160.00
03999            -120.00      160.00
04000            -120.00      160.00
04001            -100.00       80.00
04002            -120.00       80.00
04003            -100.00        0.00
04004            -100.00      -80.00
04005            -100.00      -80.00
04006             -60.00     -160.00
04007             -80.00      -80.00
04008             -60.00     -160.00
04009             -60.00     -240.00
04010             -60.00     -240.00
04011             -60.00     -320.00
04012             -60.00     -320.00
04013             -60.00     -320.00
04014             -40.00     -400.00
04015             -40.00     -480.00
04016             -40.00     -560.00
04017             -40.00     -720.00
04018             -40.00     -720.00
04019             -20.00     -560.00
04020              20.00     -480.00
04021             -20.00     -800.00
04022             -20.00     -800.00
04023              20.00     -720.00
04024              20.00     -800.00
04025              20.00     -960.00
04026              20.00     -960.00
04027              40.00     -960.00
04028              20.00    -1120.00
04029              40.00    -1040.00
04030              60.00    -1040.00
04031              40.00    -1280.00
04032              40.00    -1120.00
04033              80.00    -1120.00
04034              60.00    -1280.00
04035              60.00    -1360.00
04036              80.00    -1360.00
04037             100.00    -1360.00
04038             100.00    -1440.00
04039             100.00    -1440.00
04040             100.00    -1520.00
04041             100.00    -1600.00
04042             120.00    -1600.00
04043             100.00    -1680.00
04044             120.00    -1680.00
04045             140.00    -1760.00
04046             120.00    -1760.00
04047             140.00    -1760.00
04048             140.00    -1760.00
04049             140.00    -1920.00
04050             140.00    -1920.00
04051             140.00    -1840.00
04052             140.00    -2000.00
04053             160.00    -2000.00
04054             180.00    -2080.00
04055             180.00    -2080.00
04056             180.00    -2080.00
04057             180.00    -2240.00
04058             200.00    -2240.00
04059             180.00    -2320.00
04060             180.00    -2320.00
04061             200.00    -2400.00
04062             200.00    -2400.00
04063             200.00    -2400.00
04064             200.00    -2480.00
04065             220.00    -2560.00
04066             220.00    -2560.00
04067             220.00    -2560.00
04068             220.00    -2640.00
04069             220.00    -2720.00
04070             260.00    -2640.00
04071             260.00    -2720.00
04072             260.00    -2720.00
04073             260.00    -2800.00
04074             260.00    -2880.00
04075             260.00    -2880.00
04076             280.00    -2960.00
04077             260.00    -2960.00
04078             280.00    -2960.00
04079             280.00    -3040.00
04080             280.00    -3120.00
04081             280.00    -3200.00
04082             300.00    -3200.00
04083             300.00    -3200.00
04084             300.00    -3280.00
04085             340.00    -3280.00
04086             320.00    -3360.00
04087             340.00    -3360.00
04088             340.00    -3360.00
04089             340.00    -3360.00
04090             340.00    -3440.00
04091             340.00    -3520.00
04092             360.00    -3520.00
04093             360.00    -3600.00
04094             360.00    -3520.00
04095             360.00    -3680.00
04096             380.00    -3680.00
04097             380.00    -3680.00
04098             380.00    -3680.00
04099             380.00    -3760.00
04100             420.00    -3760.00
04101             420.00    -3840.00
04102             380.00    -3840.00
04103             420.00    -3920.00
04104             420.00    -3920.00
04105             420.00    -4000.00
04106             420.00    -3920.00
04107             420.00    -4000.00
04108             420.00    -4000.00
04109             440.00    -4080.00
04110             440.00    -4160.00
04111             440.00    -4240.00
04112             440.00    -4160.00
04113             440.00    -4240.00
04114             440.00    -4240.00
04115             460.00    -4320.00
04116             460.00    -4320.00
04117             480.00    -4320.00
04118             460.00    -4320.00
04119             460.00    -4480.00
04120             500.00    -4480.00
04121             480.00    -4480.00
04122             500.00    -4480.00
04123             500.00    -4560.00
04124             500.00    -4560.00
04125             500.00    -4560.00
04126             520.00    -4640.00
04127             500.00    -4640.00
04128             520.00    -4640.00
04129             520.00    -4800.00
04130             520.00    -4800.00
04131             540.00    -4800.00
04132             520.00    -4800.00
04133             540.00    -4880.00
04134             540.00    -4880.00
04135             540.00    -4960.00
04136             540.00    -4880.00
04137             540.00    -4960.00
04138             540.00    -4960.00
04139             540.00    -4960.00
04140             560.00    -5040.00
04141             580.00    -5120.00
04142             580.00    -5120.00
04143             580.00    -5120.00
04144             580.00    -5120.00
04145             580.00    -5200.00
04146             580.00    -5200.00
04147             580.00    -5200.00
04148             580.00    -5280.00
04149             600.00    -5280.00
04150             600.00    -5280.00
04151             600.00    -5360.00
04152             600.00    -5360.00
04153             620.00    -5360.00
04154             600.00    -5440.00
04155             600.00    -5440.00
04156             620.00    -5440.00
04157             620.00    -5440.00
04158             620.00    -5520.00
04159             640.00    -5440.00
04160             620.00    -5520.00
04161             660.00    -5520.00
04162             660.00    -5600.00
04163             660.00    -5600.00
04164             660.00    -5600.00
04165             660.00    -5600.00
04166             660.00    -5680.00
04167             640.00    -5760.00
04168             660.00    -5760.00
04169             680.00    -5760.00
04170             680.00    -5760.00
04171             680.00    -5840.00
04172             680.00    -5840.00
04173             680.00    -5840.00
04174             680.00    -5840.00
04175             680.00    -5920.00
04176             680.00    -5920.00
04177             680.00    -5920.00
04178             680.00    -5840.00
04179             700.00    -5920.00
04180             700.00    -6000.00
04181             700.00    -6000.00
04182             700.00    -6080.00
04183             700.00    -6000.00
04184             700.00    -6080.00
04185             700.00    -6080.00
04186             700.00    -6080.00
04187             700.00    -6080.00
04188             700.00    -6160.00
04189             740.00    -6080.00
04190             700.00    -6160.00
04191             740.00    -6160.00
04192             740.00    -6160.00
04193             740.00    -6240.00
04194             740.00    -6160.00
04195             740.00    -6160.00
04196             740.00    -6240.00
04197             740.00    -6240.00
04198             740.00    -6240.00
04199             740.00    -6240.00
04200             740.00    -6240.00
04201             740.00    -6320.00
04202             740.00    -6240.00
04203             740.00    -6400.00
04204             760.00    -6400.00
04205             760.00    -6400.00
04206             740.00    -6400.00
04207             760.00    -6400.00
04208             760.00    -6480.00
04209             760.00    -6480.00
04210             760.00    -6400.00
04211             760.00    -6400.00
04212             780.00    -6480.00
04213             780.00    -6480.00
04214             780.00    -6560.00
04215             780.00    -6480.00
04216             780.00    -6560.00
04217             780.00    -6480.00
04218             780.00    -6560.00
04219             760.00    -6560.00
04220             820.00    -6560.00
04221             780.00    -6560.00
04222             800.00    -6560.00
04223             780.00    -6560.00
04224             820.00    -6560.00
04225             780.00    -6560.00
04226             820.00    -6560.00
04227             820.00    -6560.00
04228             800.00    -6560.00
04229             820.00    -6560.00
04230             820.00    -6560.00
04231             820.00    -6560.00
04232             820.00    -6560.00
04233             820.00    -6560.00
04234             820.00    -6560.00
04235             820.00    -6640.00
04236             820.00    -6560.00
04237             820.00    -6640.00
04238             840.00    -6720.00
04239             820.00    -6640.00
04240             820.00    -6720.00
04241             820.00    -6640.00
04242             840.00    -6720.00
04243             820.00    -6720.00
04244             820.00    -6720.00
04245             820.00    -6720.00
04246             820.00    -6640.00
04247             840.00    -6720.00
04248             820.00    -6720.00
04249             820.00    -6720.00
04250             840.00    -6720.00
04251             820.00    -6720.00
04252             820.00    -6720.00
04253             840.00    -6720.00
04254             820.00    -6720.00
04255             820.00    -6720.00
04256             840.00    -6720.00
04257             820.00    -6720.00
04258             840.00    -6720.00
04259             840.00    -6720.00
04260             840.00    -6720.00
04261             840.00    -6720.00
04262             840.00    -6720.00
04263             840.00    -6720.00
04264             840.00    -6640.00
04265             820.00    -6720.00
04266             840.00    -6720.00
04267             840.00    -6720.00
04268             840.00    -6640.00
04269             820.00    -6720.00
04270             820.00    -6640.00
04271             840.00    -6720.00
04272             840.00    -6560.00
04273             840.00    -6720.00
04274             840.00    -6720.00
04275             840.00    -6640.00
04276             840.00    -6640.00
04277             820.00    -6560.00
04278             840.00    -6640.00
04279             820.00    -6640.00
04280             840.00    -6560.00
04281             840.00    -6560.00
04282             840.00    -6560.00
04283             820.00    -6560.00
04284             820.00    -6560.00
04285             840.00    -6560.00
04286             840.00    -6560.00
04287             840.00    -6560.00
04288             840.00    -6560.00
04289             820.00    -6560.00
04290             820.00    -6560.00
04291             840.00    -6560.00
04292             820.00    -6480.00
04293             840.00    -6480.00
04294             820.00    -6480.00
04295             840.00    -6480.00
04296             820.00    -6480.00
04297             840.00    -6480.00
04298             840.00    -6480.00
04299             820.00    -6480.00
04300             840.00    -6480.00
04301             840.00    -6480.00
04302             840.00    -6400.00
04303             820.00    -6400.00
04304             820.00    -6400.00
04305             820.00    -6400.00
04306             840.00    -6320.00
04307             820.00    -6320.00
04308             820.00    -6400.00
04309             820.00    -6320.00
04310             820.00    -6240.00
04311             820.00    -6400.00
04312             820.00    -6240.00
04313             820.00    -6240.00
04314             820.00    -6240.00
04315             820.00    -6240.00
04316             820.00    -6240.00
04317             820.00    -6160.00
04318             820.00    -6160.00
04319             800.00    -6160.00
04320             820.00    -6160.00
04321             780.00    -6160.00
04322             800.00    -6080.00
04323             780.00    -6080.00
04324             780.00    -6080.00
04325             780.00    -6080.00
04326             780.00    -6080.00
04327             780.00    -6000.00
04328             780.00    -6080.00
04329             780.00    -6080.00
04330             780.00    -5920.00
04331             780.00    -5920.00
04332             760.00    -5920.00
04333             780.00    -5920.00
04334             780.00    -5920.00
04335             760.00    -5840.00
04336             780.00    -5920.00
04337             760.00    -5840.00
04338             760.00    -5840.00
04339             760.00    -5760.00
04340             760.00    -5760.00
04341             760.00    -5760.00
04342             760.00    -5760.00
04343             760.00    -5760.00
04344             760.00    -5760.00
04345             760.00    -5760.00
04346             760.00    -5600.00
04347             740.00    -5600.00
04348             740.00    -5600.00
04349             760.00    -5600.00
04350             740.00    -5520.00
04351             740.00    -5520.00
04352             740.00    -5520.00
04353             740.00    -5520.00
04354             760.00    -5440.00
04355             740.00    -5520.00
04356             740.00    -5440.00
04357             740.00    -5360.00
04358             740.00    -5440.00
04359             720.00    -5360.00
04360             720.00    -5360.00
04361             740.00    -5280.00
04362             700.00    -5280.00
04363             740.00    -5280.00
04364             700.00    -5200.00
04365             700.00    -5200.00
04366             700.00    -5120.00
04367             680.00    -5200.00
04368             680.00    -5120.00
04369             700.00    -5120.00
04370             700.00    -5120.00
04371             680.00    -5040.00
04372             700.00    -5040.00
04373             680.00    -5040.00
04374             680.00    -4960.00
04375             680.00    -4960.00
04376             680.00    -4880.00
04377             680.00    -4880.00
04378             660.00    -4880.00
04379             660.00    -4800.00
04380             660.00    -4800.00
04381             680.00    -4800.00
04382             660.00    -4720.00
04383             660.00    -4640.00
04384             660.00    -4640.00
04385             640.00    -4640.00
04386             660.00    -4560.00
04387             620.00    -4560.00
04388             620.00    -4560.00
04389             620.00    -4480.00
04390             620.00    -4400.00
04391             600.00    -4480.00
04392             620.00    -4400.00
04393             620.00    -4480.00
04394             600.00    -4320.00
04395             600.00    -4320.00
04396             600.00    -4320.00
04397             600.00    -4240.00
04398             600.00    -4240.00
04399             580.00    -4240.00
04400             580.00    -4160.00
04401             580.00    -4160.00
04402             580.00    -4160.00
04403             580.00    -4080.00
04404             580.00    -4000.00
04405             580.00    -4000.00
04406             580.00    -4000.00
04407             580.00    -3920.00
04408             560.00    -3920.00
04409             540.00    -3920.00
04410             540.00    -3840.00
04411             560.00    -3840.00
04412             540.00    -3840.00
04413             560.00    -3760.00
04414             540.00    -3680.00
04415             520.00    -3680.00
04416             540.00    -3600.00
04417             540.00    -3600.00
04418             520.00    -3600.00
04419             520.00    -3520.00
04420             520.00    -3520.00
04421             520.00    -3440.00
04422             520.00    -3520.00
04423             520.00    -3360.00
04424             520.00    -3360.00
04425             500.00    -3360.00
04426             500.00    -3360.00
04427             500.00    -3280.00
04428             500.00    -3280.00
04429             500.00    -3200.00
04430             480.00    -3200.00
04431             460.00    -3120.00
04432             460.00    -3120.00
04433             440.00    -3040.00
04434             460.00    -3040.00
04435             460.00    -2960.00
04436             440.00    -2960.00
04437             440.00    -2880.00
04438             440.00    -2880.00
04439             420.00    -2880.00
04440             440.00    -2720.00
04441             420.00    -2720.00
04442             440.00    -2720.00
04443             420.00    -2640.00
04444             440.00    -2640.00
04445             380.00    -2560.00
04446             420.00    -2640.00
04447             380.00    -2560.00
04448             380.00    -2400.00
04449             380.00    -2480.00
04450             360.00    -2400.00
04451             360.00    -2400.00
04452             360.00    -2320.00
04453             360.00    -2240.00
04454             360.00    -2240.00
04455             360.00    -2240.00
04456             360.00    -2240.00
04457             340.00    -2160.00
04458             340.00    -2080.00
04459             360.00    -2000.00
04460             340.00    -2000.00
04461             340.00    -2000.00
04462             340.00    -1920.00
04463             340.00    -1840.00
04464             300.00    -1840.00
04465             300.00    -1760.00
04466             300.00    -1760.00
04467             300.00    -1760.00
04468             300.00    -1680.00
04469             280.00    -1680.00
04470             300.00    -1600.00
04471             280.00    -1600.00
04472             280.00    -1600.00
04473             280.00    -1440.00
04474             280.00    -1440.00
04475             280.00    -1440.00
04476             260.00    -1360.00
04477             260.00    -1360.00
04478             260.00    -1360.00
04479             260.00    -1280.00
04480             260.00    -1200.00
04481             240.00    -1120.00
04482             220.00    -1120.00
04483             220.00    -1120.00
04484             220.00    -1040.00
04485             220.00    -1040.00
04486             220.00     -960.00
04487             220.00     -960.00
04488             220.00     -960.00
04489             200.00     -800.00
04490             200.00     -800.00
04491             200.00     -800.00
04492             180.00     -720.00
04493             200.00     -720.00
04494             180.00     -720.00
04495             180.00     -640.00
04496             180.00     -560.00
04497             180.00     -480.00
04498             160.00     -480.00
04499             180.00     -400.00
04500             160.00     -400.00
04501             140.00     -320.00
04502             140.00     -320.00
04503             120.00     -320.00
04504             140.00     -160.00
04505             120.00     -240.00
04506             120.00     -160.00
04507             120.00      -80.00
04508             100.00     -160.00
04509             100.00        0.00
04510             100.00        0.00
04511             100.00        0.00
04512             100.00       80.00
04513              60.00      160.00
04514              60.00      160.00
04515              60.00      240.00
04516              60.00      240.00
04517              60.00      320.00
04518              40.00      320.00
04519              40.00      320.00
04520              40.00      480.00
04521              40.00      480.00
04522              40.00      560.00
04523              40.00      560.00
04524              20.00      560.00
04525             -20.00      480.00
04526              20.00      720.00
04527              40.00      880.00
04528              20.00      800.00
04529             -40.00      560.00
04530             -20.00      880.00
04531              20.00      960.00
04532             -40.00      800.00
04533             -40.00      880.00
04534             -20.00     1120.00
04535             -40.00     1040.00
04536             -60.00      960.00
04537             -20.00     1200.00
04538             -60.00     1200.00
04539             -60.00     1120.00
04540             -60.00     1280.00
04541             -60.00     1280.00
04542             -60.00     1280.00
04543             -60.00     1360.00
04544             -60.00     1440.00
04545             -60.00     1520.00
04546            -100.00     1520.00
04547            -100.00     1440.00
04548            -100.00     1600.00
04549            -100.00     1600.00
04550            -120.00     1600.00
04551            -120.00     1760.00
04552            -120.00     1760.00
04553            -120.00     1760.00
04554            -120.00     1760.00
04555            -120.00     1920.00
04556            -140.00     1920.00
04557            -140.00     1920.00
04558            -140.00     2000.00
04559            -160.00     2000.00
04560            -140.00     2080.00
04561            -140.00     2160.00
04562            -180.00     2160.00
04563            -160.00     2240.00
04564            -180.00     2160.00
04565            -200.00     2240.00
04566            -200.00     2320.00
04567            -220.00     2400.00
04568            -200.00     2400.00
04569            -200.00     2400.00
04570            -200.00     2480.00
04571            -200.00     2560.00
04572            -220.00     2480.00
04573            -220.00     2560.00
04574            -240.00     2640.00
04575            -260.00     2720.00
04576            -220.00     2720.00
04577            -260.00     2720.00
04578            -260.00     2800.00
04579            -260.00     2720.00
04580            -260.00     2800.00
04581            -280.00     2880.00
04582            -280.00     2880.00
04583            -280.00     2880.00
04584            -280.00     3040.00
04585            -280.00     3040.00
04586            -300.00     3120.00
04587            -300.00     3120.00
04588            -300.00     3200.00
04589            -300.00     3200.00
04590            -300.00     3200.00
04591            -340.00     3280.00
04592            -300.00     3360.00
04593            -320.00     3280.00
04594            -340.00     3360.00
04595            -360.00     3440.00
04596            -340.00     3440.00
04597            -360.00     3440.00
04598            -360.00     3520.00
04599            -360.00     3520.00
04600            -360.00     3520.00
04601            -360.00     3680.00
04602            -380.00     3600.00
04603            -380.00     3680.00
04604            -380.00     3760.00
04605            -380.00     3760.00
04606            -380.00     3840.00
04607            -380.00     3840.00
04608            -380.00     3840.00
04609            -420.00     3920.00
04610            -420.00     4000.00
04611            -420.00     4000.00
04612            -420.00     4000.00
04613            -440.00     4000.00
04614            -420.00     4080.00
04615            -420.00     4080.00
04616            -420.00     4160.00
04617            -420.00     4160.00
04618            -440.00     4160.00
04619            -440.00     4320.00
04620            -440.00     4320.00
04621            -440.00     4320.00
04622            -460.00     4320.00
04623            -460.00     4400.00
04624            -460.00     4400.00
04625            -460.00     4480.00
04626            -460.00     4480.00
04627            -460.00     4480.00
04628            -460.00     4480.00
04629            -460.00     4560.00
04630            -500.00     4640.00
04631            -500.00     4640.00
04632            -500.00     4640.00
04633            -500.00     4720.00
04634            -500.00     4720.00
04635            -500.00     4720.00
04636            -520.00     4800.00
04637            -520.00     4800.00
04638            -520.00     4800.00
04639            -520.00     4800.00
04640            -540.00     4880.00
04641            -520.00     4960.00
04642            -540.00     4960.00
04643            -540.00     4960.00
04644            -560.00     4960.00
04645            -540.00     5040.00
04646            -560.00     5040.00
04647            -580.00     5040.00
04648            -560.00     5120.00
04649            -580.00     5200.00
04650            -580.00     5200.00
04651            -580.00     5200.00
04652            -580.00     5280.00
04653            -600.00     5280.00
04654            -580.00     5280.00
04655            -600.00     5280.00
04656            -600.00     5280.00
04657            -600.00     5360.00
04658            -600.00     5360.00
04659            -600.00     5440.00
04660            -600.00     5440.00
04661            -620.00     5440.00
04662            -620.00     5440.00
04663            -620.00     5440.00
04664            -620.00     5520.00
04665            -620.00     5520.00
04666            -620.00     5600.00
04667            -620.00     5600.00
04668            -660.00     5600.00
04669            -620.00     5680.00
04670            -660.00     5680.00
04671            -660.00     5680.00
04672            -620.00     5840.00
04673            -660.00     5760.00
04674            -660.00     5760.00
04675            -660.00     5760.00
04676            -660.00     5840.00
04677            -660.00     5920.00
04678            -680.00     5840.00
04679            -660.00     5920.00
04680            -660.00     5920.00
04681            -680.00     5920.00
04682            -680.00     6000.00
04683            -680.00     5920.00
04684            -680.00     6000.00
04685            -680.00     6080.00
04686            -700.00     6000.00
04687            -700.00     6080.00
04688            -700.00     6080.00
04689            -700.00     6080.00
04690            -700.00     6080.00
04691            -700.00     6080.00
04692            -700.00     6080.00
04693            -700.00     6240.00
04694            -700.00     6240.00
04695            -720.00     6240.00
04696            -700.00     6160.00
04697            -700.00     6240.00
04698            -740.00     6240.00
04699            -720.00     6240.00
04700            -740.00     6320.00
04701            -740.00     6320.00
04702            -740.00     6320.00
04703            -700.00     6240.00
04704            -740.00     6400.00
04705            -740.00     6320.00
04706            -760.00     6320.00
04707            -740.00     6320.00
04708            -760.00     6400.00
04709            -760.00     6400.00
04710            -760.00     6400.00
04711            -760.00     6400.00
04712            -760.00     6480.00
04713            -760.00     6480.00
04714            -760.00     6480.00
04715            -760.00     6480.00
04716            -760.00     6560.00
04717            -760.00     6560.00
04718            -760.00     6560.00
04719            -780.00     6480.00
04720            -780.00     6560.00
04721            -780.00     6560.00
04722            -760.00     6560.00
04723            -800.00     6560.00
04724            -780.00     6560.00
04725            -780.00     6560.00
04726            -780.00     6560.00
04727            -780.00     6640.00
04728            -780.00     6640.00
04729            -800.00     6560.00
04730            -800.00     6640.00
04731            -780.00     6720.00
04732            -780.00     6640.00
04733            -820.00     6720.00
04734            -800.00     6640.00
04735            -820.00     6640.00
04736            -820.00     6640.00
04737            -820.00     6720.00
04738            -780.00     6640.00
04739            -820.00     6720.00
04740            -800.00     6720.00
04741            -820.00     6640.00
04742            -820.00     6720.00
04743            -820.00     6720.00
04744            -820.00     6720.00
04745            -800.00     6720.00
04746            -820.00     6720.00
04747            -820.00     6720.00
04748            -820.00     6720.00
04749            -820.00     6720.00
04750            -800.00     6720.00
04751            -840.00     6800.00
04752            -820.00     6720.00
04753            -840.00     6720.00
04754            -820.00     6720.00
04755            -840.00     6720.00
04756            -820.00     6720.00
04757            -820.00     6720.00
04758            -840.00     6720.00
04759            -820.00     6800.00
04760            -840.00     6800.00
04761            -820.00     6720.00
04762            -820.00     6720.00
04763            -820.00     6720.00
04764            -840.00     6720.00
04765            -840.00     6800.00
04766            -820.00     6720.00
04767            -820.00     6720.00
04768            -840.00     6720.00
04769            -820.00     6720.00
04770            -840.00     6720.00
04771            -840.00     6720.00
04772            -840.00     6720.00
04773            -840.00     6800.00
04774            -840.00     6720.00
04775            -840.00     6720.00
04776            -840.00     6720.00
04777            -840.00     6720.00
04778            -860.00     6720.00
04779            -840.00     6720.00
04780            -860.00     6720.00
04781            -840.00     6720.00
04782            -840.00     6720.00
04783            -840.00     6720.00
04784            -840.00     6720.00
04785            -840.00     6800.00
04786            -860.00     6720.00
04787            -840.00     6720.00
04788            -840.00     6720.00
04789            -840.00     6720.00
04790            -840.00     6640.00
04791            -840.00     6720.00
04792            -840.00     6640.00
04793            -840.00     6640.00
04794            -840.00     6640.00
04795            -860.00     6640.00
04796            -840.00     6640.00
04797            -840.00     6640.00
04798            -840.00     6640.00
04799            -840.00     6640.00
04800            -840.00     6560.00
04801            -840.00     6560.00
04802            -840.00     6560.00
04803            -840.00     6560.00
04804            -840.00     6560.00
04805            -840.00     6560.00
04806            -820.00     6560.00
04807            -840.00     6560.00
04808            -840.00     6560.00
04809            -820.00     6560.00
04810            -840.00     6560.00
04811            -820.00     6480.00
04812            -840.00     6400.00
04813            -840.00     6480.00
04814            -820.00     6400.00
04815            -820.00     6400.00
04816            -820.00     6400.00
04817            -820.00     6400.00
04818            -820.00     6320.00
04819            -820.00     6400.00
04820            -820.00     6400.00
04821            -820.00     6320.00
04822            -820.00     6320.00
04823            -780.00     6320.00
04824            -820.00     6320.00
04825            -800.00     6320.00
04826            -800.00     6240.00
04827            -800.00     6240.00
04828            -780.00     6240.00
04829            -780.00     6240.00
04830            -780.00     6320.00
04831            -780.00     6240.00
04832            -780.00     6240.00
04833            -820.00     6080.00
04834            -780.00     6080.00
04835            -780.00     6080.00
04836            -780.00     6080.00
04837            -780.00     6080.00
04838            -780.00     6000.00
04839            -780.00     6000.00
04840            -780.00     6000.00
04841            -780.00     6000.00
04842            -780.00     6000.00
04843            -780.00     6000.00
04844            -780.00     5920.00
04845            -780.00     5920.00
04846            -780.00     5920.00
04847            -760.00     5920.00
04848            -760.00     5920.00
04849            -760.00     5840.00
04850            -760.00     5920.00
04851            -780.00     5840.00
04852            -780.00     5760.00
04853            -760.00     5760.00
04854            -760.00     5760.00
04855            -760.00     5680.00
04856            -760.00     5680.00
04857            -760.00     5680.00
04858            -760.00     5680.00
04859            -760.00     5680.00
04860            -760.00     5600.00
04861            -740.00     5600.00
04862            -740.00     5600.00
04863            -740.00     5520.00
04864            -740.00     5440.00
04865            -720.00     5440.00
04866            -740.00     5440.00
04867            -740.00     5440.00
04868            -700.00     5440.00
04869            -700.00     5360.00
04870            -700.00     5440.00
04871            -700.00     5360.00
04872            -700.00     5280.00
04873            -700.00     5280.00
04874            -700.00     5280.00
04875            -680.00     5280.00
04876            -700.00     5200.00
04877            -700.00     5200.00
04878            -680.00     5120.00
04879            -700.00     5120.00
04880            -680.00     5120.00
04881            -680.00     5120.00
04882            -680.00     5040.00
04883            -680.00     5040.00
04884            -660.00     4960.00
04885            -680.00     4960.00
04886            -660.00     4960.00
04887            -680.00     4960.00
04888            -660.00     4800.00
04889            -660.00     4880.00
04890            -660.00     4800.00
04891            -660.00     4800.00
04892            -660.00     4720.00
04893            -620.00     4720.00
04894            -640.00     4720.00
04895            -620.00     4720.00
04896            -620.00     4640.00
04897            -620.00     4640.00
04898            -620.00     4560.00
04899            -620.00     4560.00
04900            -620.00     4480.00
04901            -620.00     4480.00
04902            -600.00     4400.00
04903            -620.00     4400.00
04904            -600.00     4400.00
04905            -620.00     4400.00
04906            -600.00     4320.00
04907            -600.00     4320.00
04908            -600.00     4320.00
04909            -600.00     4160.00
04910            -600.00     4160.00
04911            -600.00     4160.00
04912            -600.00     4160.00
04913            -600.00     4080.00
04914            -580.00     4080.00
04915            -580.00     4000.00
04916            -560.00     4000.00
04917            -580.00     4000.00
04918            -580.00     3920.00
04919            -540.00     3920.00
04920            -560.00     3840.00
04921            -540.00     3840.00
04922            -560.00     3760.00
04923            -520.00     3760.00
04924            -540.00     3760.00
04925            -540.00     3680.00
04926            -540.00     3680.00
04927            -520.00     3680.00
04928            -540.00     3520.00
04929            -520.00     3600.00
04930            -520.00     3520.00
04931            -520.00     3440.00
04932            -500.00     3440.00
04933            -500.00     3440.00
04934            -500.00     3440.00
04935            -480.00     3360.00
04936            -500.00     3360.00
04937            -480.00     3200.00
04938            -460.00     3280.00
04939            -460.00     3200.00
04940            -460.00     3120.00
04941            -460.00     3120.00
04942            -460.00     3040.00
04943            -440.00     3040.00
04944            -460.00     3040.00
04945            -440.00     3040.00
04946            -440.00     2960.00
04947            -440.00     2880.00
04948            -440.00     2880.00
04949            -420.00     2800.00
04950            -420.00     2800.00
04951            -420.00     2720.00
04952            -440.00     2720.00
04953            -420.00     2720.00
04954            -400.00     2640.00
04955            -420.00     2640.00
04956            -400.00     2560.00
04957            -380.00     2480.00
04958            -380.00     2560.00
04959            -380.00     2480.00
04960            -360.00     2480.00
04961            -380.00     2400.00
04962            -380.00     2400.00
04963            -360.00     2320.00
04964            -360.00     2240.00
04965            -360.00     2240.00
04966            -380.00     2160.00
04967            -360.00     2160.00
04968            -360.00     2080.00
04969            -360.00     2080.00
04970            -340.00     2000.00
04971            -340.00     1920.00
04972            -360.00     1920.00
04973            -340.00     1920.00
04974            -340.00     1840.00
04975            -340.00     1840.00
04976            -300.00     1760.00
04977            -320.00     1760.00
04978            -300.00     1680.00
04979            -300.00     1600.00
04980            -300.00     1600.00
04981            -280.00     1600.00
04982            -280.00     1600.00
04983            -280.00     1520.00
04984            -280.00     1440.00
04985            -280.00     1440.00
04986            -260.00     1440.00
04987            -280.00     1360.00
04988            -260.00     1280.00
04989            -260.00     1280.00
04990            -260.00     1280.00
04991            -260.00     1200.00
04992            -240.00     1120.00
04993            -220.00     1120.00
04994            -220.00     1120.00
04995            -220.00      960.00
04996            -220.00      960.00
04997            -200.00      960.00
04998            -200.00      880.00
04999            -200.00      880.00
05000            -200.00      800.00
