Unit:(mV)
                     CH1         CH2
Frequency              ? 261.293 kHz
00001               8.00    -4000.00
00002               4.00    -3800.00
00003               6.00    -3600.00
00004               0.00    -3600.00
00005               0.00    -3200.00
00006               0.00    -3200.00
00007               4.00    -2800.00
00008               2.00    -2800.00
00009               4.00    -2600.00
00010              -2.00    -2400.00
00011              -4.00    -2200.00
00012              -4.00    -1800.00
00013              -2.00    -1800.00
00014              -2.00    -1600.00
00015              -2.00    -1200.00
00016              -2.00    -1200.00
00017              -4.00    -1000.00
00018              -8.00     -800.00
00019              -8.00     -800.00
00020              -4.00     -400.00
00021              -4.00     -400.00
00022              -4.00        0.00
00023              -4.00        0.00
00024               0.00      400.00
00025              20.00      400.00
00026               6.00      600.00
00027             -20.00     1000.00
00028             -18.00     1200.00
00029               4.00     1200.00
00030               8.00     1400.00
00031             108.00     1600.00
00032             252.00     2000.00
00033             -52.00     2000.00
00034            -248.00     2400.00
00035            -248.00     2200.00
00036              38.00     2200.00
00037             252.00     2800.00
00038             252.00     2800.00
00039            -248.00     3000.00
00040            -248.00     3600.00
00041             252.00     3200.00
00042             -36.00     4000.00
00043            -248.00     3800.00
00044             252.00     3400.00
00045              36.00     4600.00
00046            -236.00     4000.00
00047             206.00     4200.00
00048            -240.00     5200.00
00049              16.00     4600.00
00050             176.00     4800.00
00051            -212.00     5800.00
00052              62.00     4800.00
00053             -34.00     5600.00
00054            -108.00     6400.00
00055             134.00     5200.00
00056             -42.00     6400.00
00057             -80.00     6400.00
00058             -82.00     6000.00
00059              60.00     7000.00
00060              44.00     6600.00
00061            -194.00     6600.00
00062              96.00     7400.00
00063              -6.00     7200.00
00064            -164.00     7400.00
00065             108.00     7400.00
00066             -64.00     7800.00
00067             -58.00     7600.00
00068              54.00     7800.00
00069             -92.00     8400.00
00070             -58.00     8000.00
00071              12.00     8400.00
00072              14.00     8400.00
00073             -80.00     8400.00
00074             -34.00     9000.00
00075              12.00     8600.00
00076             -96.00     8800.00
00077              22.00     9000.00
00078             -10.00     9000.00
00079            -104.00     9200.00
00080              22.00     9200.00
00081             -18.00     9600.00
00082             -70.00     9400.00
00083             -20.00     9600.00
00084             -26.00    10000.00
00085             -36.00     9600.00
00086             -20.00    10000.00
00087             -32.00    10200.00
00088             -60.00    10200.00
00089             -12.00    10400.00
00090             -16.00    10400.00
00091             -72.00    10400.00
00092             -20.00    10400.00
00093             -20.00    10600.00
00094             -58.00    10800.00
00095             -20.00    10800.00
00096             -34.00    10800.00
00097             -66.00    10800.00
00098             -26.00    11000.00
00099             -16.00    11200.00
00100             -50.00    11000.00
00101             -40.00    11200.00
00102             -28.00    11400.00
00103             -50.00    11200.00
00104             -32.00    11200.00
00105             -28.00    11600.00
00106             -48.00    11200.00
00107             -34.00    11600.00
00108             -36.00    11200.00
00109             -50.00    11400.00
00110             -34.00    11600.00
00111             -34.00    11400.00
00112             -44.00    11400.00
00113             -32.00    11400.00
00114             -32.00    11600.00
00115             -52.00    11600.00
00116             -40.00    11400.00
00117             -32.00    11400.00
00118             -42.00    11600.00
00119             -36.00    11600.00
00120             -32.00    11600.00
00121             -44.00    11600.00
00122             -40.00    11600.00
00123             -34.00    11600.00
00124             -40.00    11600.00
00125             -36.00    11600.00
00126             -32.00    11400.00
00127             -40.00    11400.00
00128             -36.00    11400.00
00129             -36.00    11200.00
00130             -42.00    11200.00
00131             -36.00    11200.00
00132             -26.00    11200.00
00133             -36.00    11200.00
00134             -36.00    11200.00
00135             -32.00    11200.00
00136             -42.00    11000.00
00137             -34.00    11000.00
00138             -24.00    10800.00
00139             -38.00    11000.00
00140             -40.00    10800.00
00141             -26.00    10600.00
00142             -32.00    10400.00
00143             -34.00    10400.00
00144             -34.00    10400.00
00145             -40.00    10400.00
00146             -32.00    10200.00
00147             -20.00    10200.00
00148             -28.00    10200.00
00149             -36.00    10000.00
00150             -34.00     9800.00
00151             -34.00    10000.00
00152             -26.00    10000.00
00153             -20.00     9600.00
00154             -34.00     9600.00
00155             -36.00     9400.00
00156             -28.00     9400.00
00157             -32.00     9200.00
00158             -28.00     9000.00
00159             -24.00     8800.00
00160             -28.00     8800.00
00161             -32.00     8600.00
00162             -26.00     8600.00
00163             -28.00     8400.00
00164             -28.00     8400.00
00165             -22.00     8200.00
00166             -26.00     8000.00
00167             -28.00     7800.00
00168             -26.00     7800.00
00169             -28.00     7600.00
00170             -24.00     7600.00
00171             -20.00     7400.00
00172             -22.00     7200.00
00173             -24.00     7000.00
00174             -18.00     7000.00
00175             -26.00     6800.00
00176             -26.00     6800.00
00177             -20.00     6400.00
00178             -20.00     6200.00
00179             -20.00     6000.00
00180             -18.00     6000.00
00181             -18.00     5800.00
00182             -20.00     5600.00
00183             -18.00     5400.00
00184             -16.00     5200.00
00185             -16.00     5200.00
00186             -16.00     5000.00
00187             -12.00     4800.00
00188             -16.00     4600.00
00189             -14.00     4400.00
00190             -18.00     4200.00
00191             -16.00     4000.00
00192             -12.00     3800.00
00193              -8.00     3800.00
00194             -10.00     3600.00
00195             -12.00     3200.00
00196             -10.00     3200.00
00197             -10.00     3000.00
00198              -6.00     2800.00
00199              -4.00     2600.00
00200              -4.00     2400.00
00201              -6.00     2400.00
00202              -8.00     2200.00
00203              -8.00     2000.00
00204              -4.00     1600.00
00205              -4.00     1600.00
00206               0.00     1200.00
00207              -2.00     1200.00
00208              -2.00     1000.00
00209              -2.00      800.00
00210              -2.00      600.00
00211              -2.00      400.00
00212               2.00      200.00
00213               4.00        0.00
00214               6.00     -200.00
00215               8.00     -200.00
00216              26.00     -400.00
00217              28.00     -800.00
00218               0.00    -1000.00
00219              -8.00    -1200.00
00220              14.00    -1200.00
00221              22.00    -1600.00
00222              38.00    -1600.00
00223             164.00    -1600.00
00224             252.00    -2400.00
00225            -104.00    -2600.00
00226            -248.00    -2600.00
00227            -192.00    -2800.00
00228              90.00    -2800.00
00229             252.00    -2600.00
00230             252.00    -3600.00
00231            -248.00    -3600.00
00232            -248.00    -3000.00
00233             252.00    -4200.00
00234             252.00    -3800.00
00235            -248.00    -3600.00
00236              40.00    -4800.00
00237             172.00    -4000.00
00238              36.00    -4400.00
00239              62.00    -5200.00
00240            -156.00    -4600.00
00241              -4.00    -5000.00
00242             140.00    -5800.00
00243              64.00    -5000.00
00244              -2.00    -5600.00
00245            -132.00    -5800.00
00246              70.00    -5800.00
00247             196.00    -6200.00
00248             -42.00    -6400.00
00249             -68.00    -6400.00
00250              20.00    -6600.00
00251              80.00    -6800.00
00252              80.00    -6800.00
00253             -40.00    -7000.00
00254             -20.00    -7400.00
00255              52.00    -7400.00
00256              76.00    -7400.00
00257               8.00    -7800.00
00258             -20.00    -7600.00
00259              62.00    -8000.00
00260              38.00    -8200.00
00261              22.00    -8200.00
00262              14.00    -8400.00
00263              -2.00    -8600.00
00264              78.00    -8600.00
00265              60.00    -8800.00
00266             -20.00    -9000.00
00267              16.00    -9200.00
00268              42.00    -9000.00
00269              40.00    -9400.00
00270              38.00    -9400.00
00271              22.00    -9400.00
00272              16.00    -9800.00
00273              44.00    -9600.00
00274              44.00    -9800.00
00275               4.00   -10000.00
00276              30.00   -10000.00
00277              54.00   -10000.00
00278              30.00   -10200.00
00279              28.00   -10400.00
00280              28.00   -10400.00
00281              24.00   -10400.00
00282              40.00   -10400.00
00283              38.00   -10600.00
00284              24.00   -10600.00
00285              36.00   -10600.00
00286              40.00   -10800.00
00287              22.00   -10800.00
00288              28.00   -10800.00
00289              30.00   -11200.00
00290              32.00   -11200.00
00291              44.00   -11200.00
00292              40.00   -11200.00
00293              20.00   -11200.00
00294              28.00   -11400.00
00295              38.00   -11400.00
00296              32.00   -11400.00
00297              32.00   -11600.00
00298              38.00   -11600.00
00299              30.00   -11600.00
00300              24.00   -11600.00
00301              32.00   -11600.00
00302              30.00   -11600.00
00303              36.00   -11600.00
00304              40.00   -11600.00
00305              32.00   -11600.00
00306              30.00   -11800.00
00307              30.00   -11600.00
00308              28.00   -11600.00
00309              30.00   -11600.00
00310              38.00   -11600.00
00311              36.00   -11600.00
00312              32.00   -11600.00
00313              32.00   -11600.00
00314              28.00   -11800.00
00315              28.00   -11600.00
00316              36.00   -11600.00
00317              36.00   -11400.00
00318              32.00   -11600.00
00319              32.00   -11600.00
00320              28.00   -11600.00
00321              26.00   -11600.00
00322              30.00   -11400.00
00323              34.00   -11400.00
00324              36.00   -11400.00
00325              34.00   -11400.00
00326              28.00   -11200.00
00327              28.00   -11200.00
00328              28.00   -11200.00
00329              28.00   -11000.00
00330              32.00   -10800.00
00331              36.00   -10800.00
00332              28.00   -10800.00
00333              24.00   -10600.00
00334              28.00   -10600.00
00335              28.00   -10600.00
00336              30.00   -10600.00
00337              30.00   -10400.00
00338              30.00   -10400.00
00339              26.00   -10400.00
00340              24.00   -10400.00
00341              22.00   -10000.00
00342              26.00   -10000.00
00343              26.00   -10000.00
00344              30.00   -10000.00
00345              26.00    -9600.00
00346              24.00    -9600.00
00347              20.00    -9600.00
00348              20.00    -9400.00
00349              22.00    -9200.00
00350              24.00    -9200.00
00351              24.00    -9000.00
00352              22.00    -9000.00
00353              18.00    -8800.00
00354              14.00    -8800.00
00355              16.00    -8600.00
00356              20.00    -8400.00
00357              22.00    -8400.00
00358              20.00    -8000.00
00359              18.00    -8000.00
00360              14.00    -8000.00
00361              14.00    -7600.00
00362              14.00    -7400.00
00363              16.00    -7400.00
00364              16.00    -7400.00
00365              16.00    -7200.00
00366              12.00    -7000.00
00367              10.00    -6800.00
00368              10.00    -6600.00
00369              12.00    -6600.00
00370              12.00    -6400.00
00371              12.00    -6400.00
00372              12.00    -6000.00
00373               8.00    -6000.00
00374               6.00    -5600.00
00375               6.00    -5400.00
00376              10.00    -5200.00
00377               8.00    -5200.00
00378               6.00    -5000.00
00379               0.00    -4800.00
00380              -2.00    -4800.00
00381               4.00    -4400.00
00382               6.00    -4200.00
00383              12.00    -4000.00
00384              14.00    -4000.00
00385              12.00    -3600.00
00386               8.00    -3600.00
00387               4.00    -3400.00
00388              -4.00    -3400.00
00389              -8.00    -3200.00
00390             -10.00    -2800.00
00391              -4.00    -2600.00
00392              -2.00    -2400.00
00393               4.00    -2400.00
00394               6.00    -2000.00
00395               8.00    -2000.00
00396               4.00    -1600.00
00397               0.00    -1600.00
00398              -8.00    -1400.00
00399             -16.00    -1200.00
00400             -12.00     -800.00
00401             -10.00     -800.00
00402              -2.00     -400.00
00403               0.00     -400.00
00404               0.00     -200.00
00405               0.00        0.00
00406              -2.00        0.00
00407               4.00      400.00
00408              16.00      600.00
00409              -2.00      800.00
00410             -20.00     1000.00
00411              -8.00     1000.00
00412               8.00     1200.00
00413              20.00     1400.00
00414             182.00     1800.00
00415             252.00     2000.00
00416            -240.00     2200.00
00417            -248.00     2400.00
00418            -188.00     2200.00
00419             154.00     2400.00
00420             252.00     3000.00
00421             216.00     2800.00
00422            -248.00     3000.00
00423             104.00     3200.00
00424             252.00     3200.00
00425            -248.00     4000.00
00426            -248.00     3600.00
00427             252.00     3800.00
00428            -218.00     4400.00
00429             -52.00     3800.00
00430             128.00     4600.00
00431            -248.00     5200.00
00432             166.00     4400.00
00433              38.00     5400.00
00434            -178.00     5600.00
00435             108.00     4800.00
00436            -120.00     6000.00
00437             -24.00     6000.00
00438             110.00     5400.00
00439             -88.00     6800.00
00440             -68.00     6000.00
00441             -68.00     6200.00
00442             108.00     7000.00
00443             -50.00     6400.00
00444            -148.00     7000.00
00445             146.00     7000.00
00446            -116.00     7000.00
00447             -86.00     7400.00
00448             104.00     7600.00
00449            -116.00     7800.00
00450               4.00     7600.00
00451              20.00     8000.00
00452            -102.00     8200.00
00453             -32.00     7800.00
00454              20.00     8600.00
00455              -8.00     8400.00
00456             -96.00     8400.00
00457               0.00     9000.00
00458             -24.00     8800.00
00459             -84.00     9000.00
00460              48.00     9000.00
00461             -56.00     9200.00
00462             -74.00     9200.00
00463              36.00     9600.00
00464             -48.00     9600.00
00465             -60.00     9400.00
00466             -18.00    10000.00
00467             -32.00    10000.00
00468             -36.00     9800.00
00469             -18.00    10000.00
00470             -42.00    10000.00
00471             -56.00    10400.00
00472               0.00    10200.00
00473             -36.00    10400.00
00474             -64.00    10400.00
00475              -6.00    10400.00
00476             -36.00    10600.00
00477             -50.00    10600.00
00478             -14.00    10800.00
00479             -48.00    11000.00
00480             -56.00    10800.00
00481             -14.00    11000.00
00482             -24.00    11000.00
00483             -52.00    11000.00
00484             -32.00    11200.00
00485             -36.00    11200.00
00486             -50.00    11200.00
00487             -26.00    11200.00
00488             -34.00    11200.00
00489             -46.00    11200.00
00490             -28.00    11400.00
00491             -40.00    11400.00
00492             -48.00    11600.00
00493             -28.00    11600.00
00494             -38.00    11600.00
00495             -44.00    11600.00
00496             -26.00    11600.00
00497             -40.00    11600.00
00498             -50.00    11600.00
00499             -34.00    11600.00
00500             -36.00    11400.00
00501             -42.00    11600.00
00502             -32.00    11600.00
00503             -36.00    11600.00
00504             -44.00    11600.00
00505             -36.00    11600.00
00506             -36.00    11600.00
00507             -42.00    11200.00
00508             -34.00    11600.00
00509             -34.00    11600.00
00510             -40.00    11400.00
00511             -34.00    11600.00
00512             -40.00    11200.00
00513             -42.00    11200.00
00514             -30.00    11200.00
00515             -32.00    11200.00
00516             -36.00    11200.00
00517             -34.00    11200.00
00518             -36.00    11200.00
00519             -40.00    11000.00
00520             -32.00    11000.00
00521             -28.00    10800.00
00522             -34.00    10800.00
00523             -32.00    10800.00
00524             -32.00    10800.00
00525             -36.00    10800.00
00526             -34.00    10400.00
00527             -32.00    10400.00
00528             -32.00    10400.00
00529             -28.00    10200.00
00530             -28.00    10000.00
00531             -34.00    10200.00
00532             -32.00    10000.00
00533             -32.00    10000.00
00534             -32.00     9600.00
00535             -26.00     9600.00
00536             -28.00     9600.00
00537             -32.00     9600.00
00538             -28.00     9400.00
00539             -28.00     9200.00
00540             -28.00     9200.00
00541             -26.00     9200.00
00542             -26.00     8800.00
00543             -26.00     8800.00
00544             -26.00     8600.00
00545             -28.00     8600.00
00546             -26.00     8400.00
00547             -26.00     8400.00
00548             -24.00     8000.00
00549             -24.00     8000.00
00550             -24.00     7800.00
00551             -26.00     7800.00
00552             -24.00     7600.00
00553             -22.00     7400.00
00554             -20.00     7400.00
00555             -24.00     7200.00
00556             -20.00     7000.00
00557             -22.00     6800.00
00558             -24.00     6800.00
00559             -26.00     6400.00
00560             -20.00     6400.00
00561             -18.00     6200.00
00562             -18.00     6000.00
00563             -18.00     6000.00
00564             -20.00     5800.00
00565             -20.00     5600.00
00566             -18.00     5400.00
00567             -16.00     5200.00
00568             -16.00     5200.00
00569             -16.00     4800.00
00570             -16.00     4600.00
00571             -14.00     4600.00
00572             -16.00     4200.00
00573             -16.00     4200.00
00574             -12.00     4000.00
00575             -10.00     3800.00
00576             -10.00     3600.00
00577             -10.00     3400.00
00578             -10.00     3200.00
00579             -10.00     3200.00
00580             -10.00     2800.00
00581              -8.00     2800.00
00582              -4.00     2400.00
00583              -4.00     2400.00
00584              -8.00     2200.00
00585              -8.00     2000.00
00586              -4.00     2000.00
00587              -4.00     1600.00
00588              -2.00     1400.00
00589               0.00     1400.00
00590              -4.00     1200.00
00591              -2.00      800.00
00592              -4.00      600.00
00593              -2.00      400.00
00594              -2.00      400.00
00595               4.00        0.00
00596               6.00        0.00
00597               6.00     -200.00
00598              12.00     -400.00
00599              30.00     -600.00
00600              20.00     -800.00
00601              -8.00    -1000.00
00602              -2.00    -1200.00
00603              20.00    -1200.00
00604              24.00    -1600.00
00605              54.00    -1600.00
00606             224.00    -1800.00
00607             228.00    -2400.00
00608            -248.00    -2600.00
00609            -248.00    -2600.00
00610             -70.00    -2800.00
00611             120.00    -2800.00
00612             252.00    -2600.00
00613             252.00    -3600.00
00614            -248.00    -3200.00
00615            -188.00    -3400.00
00616             252.00    -4400.00
00617             -40.00    -3400.00
00618            -248.00    -4000.00
00619             166.00    -4800.00
00620             104.00    -4000.00
00621              60.00    -4800.00
00622               4.00    -5000.00
00623            -160.00    -4600.00
00624              68.00    -5200.00
00625             124.00    -5600.00
00626              52.00    -5200.00
00627             -48.00    -5800.00
00628            -116.00    -5800.00
00629             150.00    -6000.00
00630             136.00    -6000.00
00631             -84.00    -6400.00
00632             -38.00    -6600.00
00633              38.00    -6600.00
00634              94.00    -6800.00
00635              46.00    -7000.00
00636             -52.00    -7200.00
00637              -4.00    -7600.00
00638              66.00    -7400.00
00639              64.00    -7600.00
00640             -18.00    -8000.00
00641               4.00    -7600.00
00642              68.00    -8200.00
00643              22.00    -8200.00
00644              28.00    -8200.00
00645               0.00    -8400.00
00646              16.00    -8600.00
00647              92.00    -8800.00
00648              24.00    -8800.00
00649             -20.00    -9000.00
00650              28.00    -9200.00
00651              44.00    -9200.00
00652              38.00    -9600.00
00653              36.00    -9200.00
00654              20.00    -9600.00
00655              22.00    -9600.00
00656              52.00    -9600.00
00657              30.00   -10000.00
00658               6.00    -9800.00
00659              40.00   -10000.00
00660              48.00   -10000.00
00661              24.00   -10400.00
00662              32.00   -10400.00
00663              24.00   -10400.00
00664              28.00   -10400.00
00665              44.00   -10400.00
00666              34.00   -10600.00
00667              26.00   -10600.00
00668              38.00   -10600.00
00669              36.00   -10800.00
00670              24.00   -11000.00
00671              30.00   -10800.00
00672              32.00   -11200.00
00673              36.00   -11200.00
00674              46.00   -11200.00
00675              34.00   -11400.00
00676              22.00   -11400.00
00677              32.00   -11400.00
00678              36.00   -11400.00
00679              30.00   -11400.00
00680              38.00   -11400.00
00681              38.00   -11400.00
00682              28.00   -11600.00
00683              28.00   -11600.00
00684              32.00   -11600.00
00685              28.00   -11600.00
00686              38.00   -11600.00
00687              44.00   -11600.00
00688              30.00   -11600.00
00689              28.00   -11600.00
00690              28.00   -11600.00
00691              30.00   -11600.00
00692              36.00   -11600.00
00693              36.00   -11600.00
00694              32.00   -11600.00
00695              32.00   -11600.00
00696              30.00   -11800.00
00697              26.00   -11600.00
00698              28.00   -11600.00
00699              36.00   -11600.00
00700              34.00   -11600.00
00701              32.00   -11600.00
00702              30.00   -11600.00
00703              24.00   -11400.00
00704              28.00   -11400.00
00705              30.00   -11400.00
00706              34.00   -11400.00
00707              36.00   -11400.00
00708              32.00   -11200.00
00709              28.00   -11200.00
00710              28.00   -11200.00
00711              28.00   -11200.00
00712              28.00   -11200.00
00713              32.00   -10800.00
00714              32.00   -10800.00
00715              26.00   -10800.00
00716              28.00   -10600.00
00717              28.00   -10600.00
00718              24.00   -10600.00
00719              28.00   -10400.00
00720              30.00   -10400.00
00721              28.00   -10400.00
00722              28.00   -10400.00
00723              22.00   -10400.00
00724              22.00   -10200.00
00725              28.00    -9800.00
00726              28.00    -9800.00
00727              28.00    -9800.00
00728              24.00    -9600.00
00729              22.00    -9600.00
00730              20.00    -9200.00
00731              22.00    -9400.00
00732              22.00    -9200.00
00733              24.00    -9200.00
00734              24.00    -9000.00
00735              22.00    -8800.00
00736              20.00    -8800.00
00737              16.00    -8800.00
00738              20.00    -8400.00
00739              22.00    -8200.00
00740              20.00    -8200.00
00741              20.00    -8000.00
00742              18.00    -8000.00
00743              14.00    -8000.00
00744              14.00    -7600.00
00745              14.00    -7400.00
00746              16.00    -7400.00
00747              16.00    -7200.00
00748              16.00    -7200.00
00749              12.00    -7000.00
00750               8.00    -6800.00
00751              12.00    -6600.00
00752              12.00    -6400.00
00753              14.00    -6200.00
00754              12.00    -6200.00
00755              12.00    -6000.00
00756               8.00    -5800.00
00757               6.00    -5600.00
00758               6.00    -5400.00
00759               8.00    -5200.00
00760               6.00    -5200.00
00761               8.00    -4800.00
00762               6.00    -4800.00
00763               4.00    -4400.00
00764               4.00    -4400.00
00765               4.00    -4400.00
00766               6.00    -4000.00
00767               4.00    -4000.00
00768               4.00    -3600.00
00769               0.00    -3600.00
00770              -2.00    -3400.00
00771              -2.00    -3200.00
00772               4.00    -2800.00
00773               2.00    -2800.00
00774               2.00    -2600.00
00775              -2.00    -2600.00
00776              -4.00    -2400.00
00777              -4.00    -2000.00
00778              -4.00    -2000.00
00779              -4.00    -1600.00
00780               0.00    -1600.00
00781              -4.00    -1400.00
00782              -4.00    -1200.00
00783              -4.00    -1000.00
00784              -8.00     -800.00
00785              -8.00     -600.00
00786              -4.00     -400.00
00787              -4.00     -200.00
00788               0.00        0.00
00789              -4.00        0.00
00790              12.00      400.00
00791              16.00      600.00
00792             -10.00      800.00
00793             -22.00     1000.00
00794              -4.00     1200.00
00795               8.00     1200.00
00796              38.00     1400.00
00797             252.00     1800.00
00798             190.00     2000.00
00799            -248.00     2400.00
00800            -248.00     2200.00
00801             -84.00     2200.00
00802             252.00     2600.00
00803             252.00     2800.00
00804            -248.00     2800.00
00805            -248.00     3200.00
00806             252.00     3200.00
00807             252.00     3400.00
00808            -248.00     4000.00
00809              64.00     3600.00
00810             252.00     4000.00
00811            -248.00     4400.00
00812             112.00     4000.00
00813             -22.00     5200.00
00814            -212.00     5000.00
00815             242.00     4400.00
00816            -106.00     5600.00
00817             -84.00     5200.00
00818              84.00     5000.00
00819            -160.00     6400.00
00820              68.00     5600.00
00821              56.00     5800.00
00822             -96.00     6600.00
00823             -74.00     6000.00
00824             -28.00     6400.00
00825             120.00     6800.00
00826            -144.00     6400.00
00827             -52.00     7000.00
00828             126.00     7200.00
00829            -186.00     7400.00
00830              14.00     7200.00
00831              54.00     7600.00
00832            -128.00     7800.00
00833              48.00     7400.00
00834             -34.00     8200.00
00835             -96.00     8000.00
00836             -10.00     8000.00
00837              24.00     8600.00
00838             -36.00     8200.00
00839             -84.00     8800.00
00840              24.00     9000.00
00841             -64.00     8600.00
00842             -48.00     9200.00
00843              44.00     9200.00
00844             -96.00     9200.00
00845             -36.00     9200.00
00846              24.00     9600.00
00847             -72.00     9600.00
00848             -42.00     9400.00
00849             -16.00    10000.00
00850             -38.00     9600.00
00851             -30.00    10000.00
00852             -18.00    10200.00
00853             -56.00    10000.00
00854             -40.00    10200.00
00855               2.00    10400.00
00856             -56.00    10400.00
00857             -48.00    10400.00
00858              -4.00    10400.00
00859             -50.00    10800.00
00860             -36.00    10800.00
00861             -12.00    11000.00
00862             -58.00    11000.00
00863             -44.00    10800.00
00864              -8.00    11000.00
00865             -36.00    11000.00
00866             -48.00    11000.00
00867             -26.00    11200.00
00868             -44.00    11200.00
00869             -42.00    11200.00
00870             -20.00    11200.00
00871             -40.00    11200.00
00872             -40.00    11400.00
00873             -26.00    11600.00
00874             -42.00    11400.00
00875             -42.00    11600.00
00876             -28.00    11600.00
00877             -42.00    11600.00
00878             -40.00    11600.00
00879             -26.00    11600.00
00880             -42.00    11600.00
00881             -48.00    11600.00
00882             -30.00    11600.00
00883             -36.00    11600.00
00884             -40.00    11400.00
00885             -28.00    11800.00
00886             -38.00    11600.00
00887             -42.00    11600.00
00888             -34.00    11600.00
00889             -36.00    11600.00
00890             -40.00    11400.00
00891             -32.00    11400.00
00892             -36.00    11600.00
00893             -36.00    11400.00
00894             -34.00    11400.00
00895             -42.00    11200.00
00896             -40.00    11400.00
00897             -28.00    11200.00
00898             -34.00    11200.00
00899             -38.00    11200.00
00900             -34.00    11000.00
00901             -40.00    11000.00
00902             -40.00    11000.00
00903             -28.00    11000.00
00904             -32.00    10800.00
00905             -36.00    10800.00
00906             -32.00    10800.00
00907             -32.00    10600.00
00908             -36.00    10400.00
00909             -32.00    10400.00
00910             -34.00    10400.00
00911             -28.00    10200.00
00912             -28.00    10200.00
00913             -34.00    10000.00
00914             -32.00    10000.00
00915             -32.00    10000.00
00916             -32.00    10000.00
00917             -32.00     9800.00
00918             -26.00     9600.00
00919             -28.00     9600.00
00920             -32.00     9400.00
00921             -28.00     9400.00
00922             -30.00     9200.00
00923             -28.00     9000.00
00924             -24.00     9000.00
00925             -26.00     8800.00
00926             -26.00     8800.00
00927             -26.00     8600.00
00928             -26.00     8600.00
00929             -28.00     8400.00
00930             -24.00     8200.00
00931             -22.00     8000.00
00932             -24.00     8000.00
00933             -24.00     7800.00
00934             -26.00     7800.00
00935             -24.00     7600.00
00936             -20.00     7600.00
00937             -20.00     7200.00
00938             -20.00     7200.00
00939             -20.00     7000.00
00940             -20.00     6800.00
00941             -24.00     6600.00
00942             -20.00     6800.00
00943             -20.00     6400.00
00944             -20.00     6200.00
00945             -18.00     6000.00
00946             -18.00     6000.00
00947             -20.00     5600.00
00948             -20.00     5600.00
00949             -16.00     5400.00
00950             -16.00     5200.00
00951             -16.00     5000.00
00952             -16.00     4800.00
00953             -12.00     4600.00
00954             -14.00     4400.00
00955             -18.00     4200.00
00956             -16.00     4000.00
00957             -14.00     3800.00
00958             -16.00     3800.00
00959             -16.00     3600.00
00960             -12.00     3600.00
00961              -4.00     3200.00
00962              -4.00     3000.00
00963              -8.00     2800.00
00964             -12.00     2600.00
00965             -16.00     2400.00
00966             -10.00     2200.00
00967              -4.00     2200.00
00968              -4.00     2000.00
00969              -4.00     1600.00
00970              -8.00     1600.00
00971              -4.00     1400.00
00972              -4.00     1400.00
00973              -4.00     1000.00
00974              -4.00      800.00
00975              -4.00      800.00
00976              -4.00      400.00
00977              -2.00      400.00
00978               4.00        0.00
00979               6.00     -200.00
00980               6.00     -200.00
00981              14.00     -400.00
00982              32.00     -600.00
00983              10.00    -1000.00
00984              -8.00    -1000.00
00985               4.00    -1200.00
00986              22.00    -1200.00
00987              24.00    -1600.00
00988              86.00    -1600.00
00989             252.00    -2000.00
00990             118.00    -2600.00
00991            -248.00    -2600.00
00992            -248.00    -2800.00
00993              12.00    -2800.00
00994             174.00    -2600.00
00995             252.00    -2800.00
00996              48.00    -3600.00
00997            -248.00    -2800.00
00998             190.00    -3600.00
00999             252.00    -4200.00
01000            -248.00    -3400.00
01001            -222.00    -4400.00
01002             212.00    -4400.00
01003              52.00    -4000.00
01004              88.00    -5000.00
01005             -80.00    -5000.00
01006            -116.00    -4800.00
01007             124.00    -5600.00
01008              96.00    -5200.00
01009              36.00    -5400.00
01010             -92.00    -5800.00
01011             -58.00    -5800.00
01012             198.00    -6000.00
01013              60.00    -6400.00
01014             -94.00    -6400.00
01015              -8.00    -6600.00
01016              54.00    -6400.00
01017             100.00    -7000.00
01018               6.00    -6800.00
01019             -50.00    -7200.00
01020              18.00    -7400.00
01021              76.00    -7200.00
01022              46.00    -7600.00
01023             -32.00    -7600.00
01024              28.00    -7800.00
01025              62.00    -8200.00
01026              14.00    -8200.00
01027              26.00    -8200.00
01028             -10.00    -8600.00
01029              40.00    -8600.00
01030              86.00    -8600.00
01031              -8.00    -9000.00
01032              -8.00    -9200.00
01033              38.00    -9200.00
01034              44.00    -9200.00
01035              38.00    -9200.00
01036              26.00    -9400.00
01037              12.00    -9800.00
01038              32.00    -9600.00
01039              56.00    -9800.00
01040              16.00   -10000.00
01041               8.00   -10000.00
01042              46.00   -10200.00
01043              38.00   -10000.00
01044              30.00   -10400.00
01045              32.00   -10400.00
01046              22.00   -10400.00
01047              30.00   -10600.00
01048              42.00   -10600.00
01049              28.00   -10600.00
01050              32.00   -10800.00
01051              42.00   -10800.00
01052              30.00   -10800.00
01053              24.00   -10800.00
01054              36.00   -11000.00
01055              32.00   -11200.00
01056              40.00   -11200.00
01057              48.00   -11400.00
01058              28.00   -11200.00
01059              22.00   -11400.00
01060              36.00   -11200.00
01061              36.00   -11400.00
01062              34.00   -11400.00
01063              40.00   -11400.00
01064              36.00   -11400.00
01065              28.00   -11600.00
01066              32.00   -11600.00
01067              30.00   -11600.00
01068              32.00   -11600.00
01069              40.00   -11600.00
01070              38.00   -11600.00
01071              30.00   -11600.00
01072              28.00   -11800.00
01073              28.00   -11600.00
01074              32.00   -11600.00
01075              36.00   -11600.00
01076              36.00   -11600.00
01077              34.00   -11600.00
01078              32.00   -11600.00
01079              28.00   -11600.00
01080              28.00   -11600.00
01081              32.00   -11600.00
01082              36.00   -11600.00
01083              32.00   -11600.00
01084              34.00   -11400.00
01085              30.00   -11600.00
01086              26.00   -11400.00
01087              30.00   -11400.00
01088              30.00   -11400.00
01089              34.00   -11200.00
01090              32.00   -11400.00
01091              32.00   -11400.00
01092              26.00   -11200.00
01093              28.00   -11200.00
01094              24.00   -11000.00
01095              30.00   -11000.00
01096              36.00   -11000.00
01097              30.00   -10800.00
01098              28.00   -10800.00
01099              28.00   -10600.00
01100              24.00   -10800.00
01101              28.00   -10600.00
01102              30.00   -10400.00
01103              30.00   -10400.00
01104              24.00   -10400.00
01105              22.00   -10200.00
01106              22.00   -10200.00
01107              22.00   -10000.00
01108              24.00   -10000.00
01109              30.00    -9800.00
01110              28.00    -9800.00
01111              24.00    -9600.00
01112              22.00    -9400.00
01113              20.00    -9400.00
01114              22.00    -9400.00
01115              22.00    -9200.00
01116              24.00    -9200.00
01117              22.00    -9000.00
01118              20.00    -8800.00
01119              16.00    -8800.00
01120              16.00    -8600.00
01121              20.00    -8400.00
01122              22.00    -8400.00
01123              22.00    -8200.00
01124              20.00    -8000.00
01125              16.00    -8000.00
01126              14.00    -7600.00
01127              14.00    -7600.00
01128              18.00    -7400.00
01129              18.00    -7400.00
01130              16.00    -7200.00
01131              14.00    -7000.00
01132              12.00    -7000.00
01133              14.00    -6600.00
01134              12.00    -6600.00
01135              12.00    -6400.00
01136              12.00    -6200.00
01137              12.00    -6000.00
01138              10.00    -5800.00
01139               6.00    -5800.00
01140               6.00    -5600.00
01141               6.00    -5200.00
01142               8.00    -5200.00
01143               8.00    -5000.00
01144               6.00    -5000.00
01145               4.00    -4800.00
01146               4.00    -4400.00
01147               2.00    -4400.00
01148               4.00    -4200.00
01149               6.00    -4000.00
01150               4.00    -3800.00
01151               4.00    -3600.00
01152               0.00    -3400.00
01153              -2.00    -3400.00
01154              -2.00    -3200.00
01155               2.00    -2800.00
01156               2.00    -2800.00
01157               4.00    -2600.00
01158              -2.00    -2400.00
01159              -4.00    -2200.00
01160              -4.00    -2000.00
01161              -2.00    -1800.00
01162              -4.00    -1600.00
01163               0.00    -1400.00
01164              -2.00    -1200.00
01165              -4.00    -1200.00
01166              -8.00     -800.00
01167              -6.00     -800.00
01168             -10.00     -600.00
01169              -4.00     -400.00
01170              -4.00     -200.00
01171              -4.00        0.00
01172              -2.00      400.00
01173              20.00      400.00
01174              12.00      600.00
01175             -18.00     1000.00
01176             -20.00     1000.00
01177               0.00     1200.00
01178               8.00     1200.00
01179              80.00     1600.00
01180             252.00     2000.00
01181              36.00     2000.00
01182            -248.00     2200.00
01183            -248.00     2400.00
01184               4.00     2200.00
01185             252.00     2800.00
01186             252.00     3000.00
01187            -248.00     2800.00
01188            -248.00     3200.00
01189             252.00     3200.00
01190             244.00     3600.00
01191            -248.00     4000.00
01192             252.00     3600.00
01193             180.00     4400.00
01194            -248.00     4200.00
01195             204.00     4000.00
01196            -180.00     5200.00
01197             -64.00     4800.00
01198             220.00     4600.00
01199            -196.00     5600.00
01200              22.00     4800.00
01201               8.00     5400.00
01202            -140.00     6400.00
01203             124.00     5400.00
01204             -14.00     6200.00
01205             -84.00     6400.00
01206             -80.00     5600.00
01207              28.00     6800.00
01208              78.00     6600.00
01209            -194.00     6600.00
01210              54.00     7200.00
01211              46.00     7000.00
01212            -192.00     7400.00
01213              88.00     7200.00
01214             -28.00     7800.00
01215             -86.00     7600.00
01216              62.00     7600.00
01217             -80.00     8400.00
01218             -74.00     7800.00
01219               4.00     8400.00
01220              20.00     8600.00
01221             -68.00     8400.00
01222             -52.00     8600.00
01223              22.00     8800.00
01224             -94.00     8800.00
01225               0.00     9200.00
01226              16.00     9000.00
01227            -106.00     9400.00
01228               6.00     9200.00
01229              -4.00     9600.00
01230             -74.00     9600.00
01231             -26.00     9600.00
01232             -20.00    10000.00
01233             -40.00     9800.00
01234             -26.00    10000.00
01235             -28.00    10000.00
01236             -60.00    10200.00
01237             -20.00    10200.00
01238              -8.00    10200.00
01239             -70.00    10400.00
01240             -26.00    10600.00
01241             -16.00    10600.00
01242             -58.00    10800.00
01243             -24.00    10800.00
01244             -26.00    11000.00
01245             -64.00    10800.00
01246             -28.00    11000.00
01247             -12.00    11200.00
01248             -44.00    11000.00
01249             -42.00    11200.00
01250             -28.00    11200.00
01251             -50.00    11200.00
01252             -32.00    11200.00
01253             -18.00    11200.00
01254             -44.00    11400.00
01255             -36.00    11400.00
01256             -32.00    11600.00
01257             -44.00    11600.00
01258             -34.00    11600.00
01259             -28.00    11600.00
01260             -44.00    11400.00
01261             -32.00    11600.00
01262             -26.00    11600.00
01263             -44.00    11600.00
01264             -40.00    11600.00
01265             -28.00    11600.00
01266             -44.00    11600.00
01267             -36.00    11600.00
01268             -26.00    11600.00
01269             -42.00    11600.00
01270             -44.00    11600.00
01271             -34.00    11600.00
01272             -40.00    11600.00
01273             -36.00    11400.00
01274             -30.00    11400.00
01275             -38.00    11400.00
01276             -36.00    11400.00
01277             -36.00    11200.00
01278             -42.00    11200.00
01279             -36.00    11200.00
01280             -28.00    11200.00
01281             -36.00    11200.00
01282             -36.00    11200.00
01283             -34.00    11000.00
01284             -40.00    11200.00
01285             -36.00    11000.00
01286             -30.00    11000.00
01287             -34.00    10800.00
01288             -36.00    10800.00
01289             -32.00    10800.00
01290             -36.00    10600.00
01291             -40.00    10600.00
01292             -36.00    10400.00
01293             -34.00    10200.00
01294             -32.00    10200.00
01295             -28.00    10200.00
01296             -36.00    10200.00
01297             -32.00    10000.00
01298             -32.00    10000.00
01299             -30.00     9800.00
01300             -28.00     9600.00
01301             -26.00     9600.00
01302             -32.00     9600.00
01303             -32.00     9400.00
01304             -28.00     9400.00
01305             -32.00     9200.00
01306             -26.00     9200.00
01307             -24.00     9200.00
01308             -24.00     8800.00
01309             -26.00     8600.00
01310             -26.00     8600.00
01311             -26.00     8400.00
01312             -26.00     8400.00
01313             -24.00     8200.00
01314             -22.00     8200.00
01315             -24.00     8000.00
01316             -26.00     7800.00
01317             -26.00     7800.00
01318             -22.00     7600.00
01319             -20.00     7400.00
01320             -24.00     7200.00
01321             -20.00     7000.00
01322             -18.00     7000.00
01323             -24.00     6800.00
01324             -26.00     6800.00
01325             -20.00     6400.00
01326             -18.00     6400.00
01327             -18.00     6200.00
01328             -18.00     6000.00
01329             -18.00     5800.00
01330             -20.00     5600.00
01331             -20.00     5600.00
01332             -16.00     5400.00
01333             -16.00     5200.00
01334             -16.00     4800.00
01335             -16.00     4800.00
01336             -16.00     4600.00
01337             -16.00     4400.00
01338             -18.00     4200.00
01339             -12.00     4000.00
01340             -12.00     3800.00
01341             -10.00     3600.00
01342             -14.00     3600.00
01343             -12.00     3200.00
01344             -10.00     3200.00
01345             -12.00     3000.00
01346             -10.00     2800.00
01347              -6.00     2400.00
01348              -8.00     2400.00
01349             -10.00     2400.00
01350             -10.00     2200.00
01351              -8.00     2000.00
01352              -8.00     1600.00
01353              -4.00     1400.00
01354              -2.00     1200.00
01355              -4.00     1200.00
01356              -4.00     1200.00
01357              -4.00      800.00
01358              -4.00      600.00
01359              -4.00      400.00
01360               0.00      400.00
01361               4.00        0.00
01362               4.00        0.00
01363               6.00     -200.00
01364              22.00     -400.00
01365              28.00     -800.00
01366               0.00    -1000.00
01367              -8.00    -1000.00
01368               8.00    -1200.00
01369              24.00    -1400.00
01370              32.00    -1600.00
01371             136.00    -1800.00
01372             252.00    -2000.00
01373             -26.00    -2600.00
01374            -248.00    -2400.00
01375            -248.00    -2800.00
01376              70.00    -2800.00
01377             250.00    -2600.00
01378             252.00    -3200.00
01379            -248.00    -3600.00
01380            -248.00    -2800.00
01381             252.00    -4200.00
01382             252.00    -4000.00
01383            -248.00    -3200.00
01384             -36.00    -4800.00
01385             198.00    -4200.00
01386              30.00    -4200.00
01387              78.00    -5200.00
01388            -132.00    -4800.00
01389             -42.00    -4800.00
01390             140.00    -5400.00
01391              72.00    -5000.00
01392              14.00    -5600.00
01393            -124.00    -5800.00
01394              28.00    -6000.00
01395             208.00    -6400.00
01396             -14.00    -6200.00
01397             -82.00    -6400.00
01398              12.00    -6400.00
01399              76.00    -6800.00
01400              86.00    -6800.00
01401             -26.00    -6800.00
01402             -34.00    -7200.00
01403              40.00    -7400.00
01404              78.00    -7200.00
01405              22.00    -7800.00
01406             -26.00    -7600.00
01407              54.00    -7800.00
01408              44.00    -8200.00
01409              16.00    -8200.00
01410              20.00    -8200.00
01411             -10.00    -8400.00
01412              68.00    -8800.00
01413              70.00    -8800.00
01414             -18.00    -9000.00
01415               6.00    -9200.00
01416              40.00    -9000.00
01417              40.00    -9200.00
01418              36.00    -9400.00
01419              28.00    -9400.00
01420              14.00    -9600.00
01421              36.00    -9600.00
01422              46.00    -9800.00
01423               6.00    -9800.00
01424              22.00   -10000.00
01425              54.00   -10200.00
01426              32.00   -10200.00
01427              28.00   -10400.00
01428              28.00   -10400.00
01429              24.00   -10400.00
01430              38.00   -10600.00
01431              42.00   -10600.00
01432              26.00   -10800.00
01433              32.00   -10800.00
01434              42.00   -10800.00
01435              28.00   -10800.00
01436              28.00   -10800.00
01437              36.00   -11200.00
01438              32.00   -11200.00
01439              44.00   -11200.00
01440              44.00   -11200.00
01441              22.00   -11400.00
01442              28.00   -11400.00
01443              38.00   -11400.00
01444              32.00   -11400.00
01445              36.00   -11200.00
01446              44.00   -11400.00
01447              32.00   -11600.00
01448              28.00   -11400.00
01449              32.00   -11600.00
01450              30.00   -11600.00
01451              36.00   -11600.00
01452              40.00   -11600.00
01453              38.00   -11600.00
01454              30.00   -11600.00
01455              36.00   -11600.00
01456              30.00   -11600.00
01457              32.00   -11600.00
01458              38.00   -11600.00
01459              36.00   -11600.00
01460              34.00   -11600.00
01461              32.00   -11600.00
01462              28.00   -11600.00
01463              28.00   -11600.00
01464              32.00   -11600.00
01465              34.00   -11600.00
01466              32.00   -11400.00
01467              30.00   -11600.00
01468              28.00   -11400.00
01469              28.00   -11400.00
01470              30.00   -11400.00
01471              32.00   -11400.00
01472              32.00   -11400.00
01473              32.00   -11200.00
01474              28.00   -11200.00
01475              26.00   -11200.00
01476              28.00   -11200.00
01477              28.00   -11200.00
01478              30.00   -11000.00
01479              32.00   -10800.00
01480              28.00   -10800.00
01481              24.00   -10800.00
01482              24.00   -10800.00
01483              22.00   -10600.00
01484              28.00   -10400.00
01485              28.00   -10400.00
01486              30.00   -10400.00
01487              24.00   -10400.00
01488              22.00   -10200.00
01489              22.00   -10000.00
01490              22.00   -10000.00
01491              28.00   -10000.00
01492              28.00    -9800.00
01493              24.00    -9600.00
01494              22.00    -9600.00
01495              20.00    -9600.00
01496              18.00    -9600.00
01497              22.00    -9200.00
01498              24.00    -9200.00
01499              22.00    -9000.00
01500              22.00    -9000.00
01501              20.00    -8800.00
01502              16.00    -8800.00
01503              20.00    -8600.00
01504              20.00    -8400.00
01505              22.00    -8200.00
01506              22.00    -8200.00
01507              16.00    -8000.00
01508              12.00    -7800.00
01509              14.00    -7600.00
01510              14.00    -7400.00
01511              14.00    -7400.00
01512              20.00    -7200.00
01513              16.00    -7200.00
01514              12.00    -7000.00
01515              12.00    -6800.00
01516              12.00    -6600.00
01517              12.00    -6400.00
01518              12.00    -6400.00
01519              14.00    -6200.00
01520              12.00    -6000.00
01521              12.00    -5800.00
01522               8.00    -5800.00
01523               8.00    -5400.00
01524               8.00    -5200.00
01525              12.00    -5200.00
01526              12.00    -5000.00
01527               8.00    -4800.00
01528               4.00    -4800.00
01529               0.00    -4600.00
01530               0.00    -4400.00
01531               6.00    -4200.00
01532               6.00    -4000.00
01533               4.00    -3800.00
01534               0.00    -3600.00
01535               0.00    -3400.00
01536               0.00    -3200.00
01537              -2.00    -3000.00
01538               4.00    -3000.00
01539               4.00    -2600.00
01540               0.00    -2600.00
01541              -4.00    -2400.00
01542              -4.00    -2200.00
01543              -4.00    -2000.00
01544              -4.00    -1800.00
01545              -4.00    -1600.00
01546              -2.00    -1400.00
01547              -4.00    -1200.00
01548              -6.00    -1000.00
01549             -10.00     -800.00
01550              -8.00     -800.00
01551              -6.00     -400.00
01552              -6.00     -400.00
01553              -4.00     -200.00
01554              -4.00        0.00
01555               0.00      400.00
01556              22.00      400.00
01557               4.00      600.00
01558             -20.00     1000.00
01559             -14.00     1000.00
01560               6.00     1200.00
01561              14.00     1400.00
01562             142.00     1800.00
01563             252.00     2000.00
01564            -148.00     2200.00
01565            -248.00     2400.00
01566            -248.00     2200.00
01567              94.00     2200.00
01568             252.00     2800.00
01569             252.00     2800.00
01570            -248.00     3000.00
01571            -168.00     3400.00
01572             252.00     3200.00
01573            -248.00     3800.00
01574            -248.00     3600.00
01575             252.00     3800.00
01576            -104.00     4600.00
01577            -148.00     4000.00
01578             182.00     4400.00
01579            -248.00     5200.00
01580             102.00     4400.00
01581             112.00     5000.00
01582            -204.00     5600.00
01583              96.00     4800.00
01584             -76.00     6000.00
01585             -68.00     6200.00
01586             130.00     5200.00
01587             -64.00     6400.00
01588             -72.00     6200.00
01589             -78.00     6000.00
01590              88.00     7000.00
01591              -2.00     6400.00
01592            -180.00     6800.00
01593             128.00     7200.00
01594             -66.00     7000.00
01595            -130.00     7400.00
01596             114.00     7400.00
01597             -96.00     7800.00
01598             -26.00     7600.00
01599              38.00     8000.00
01600            -100.00     8400.00
01601             -44.00     7800.00
01602              14.00     8600.00
01603               6.00     8400.00
01604             -90.00     8400.00
01605             -18.00     9000.00
01606              -6.00     8600.00
01607             -92.00     9000.00
01608              38.00     9000.00
01609             -34.00     9200.00
01610             -96.00     9200.00
01611              30.00     9400.00
01612             -36.00     9600.00
01613             -66.00     9400.00
01614             -18.00     9600.00
01615             -28.00    10000.00
01616             -40.00     9800.00
01617             -20.00    10000.00
01618             -36.00    10200.00
01619             -60.00    10000.00
01620              -4.00    10400.00
01621             -26.00    10400.00
01622             -68.00    10400.00
01623             -12.00    10400.00
01624             -28.00    10600.00
01625             -52.00    10800.00
01626             -12.00    10800.00
01627             -42.00    11000.00
01628             -62.00    10800.00
01629             -18.00    11000.00
01630             -20.00    11200.00
01631             -50.00    11000.00
01632             -32.00    11200.00
01633             -34.00    11200.00
01634             -50.00    11200.00
01635             -28.00    11200.00
01636             -28.00    11400.00
01637             -46.00    11400.00
01638             -32.00    11400.00
01639             -34.00    11600.00
01640             -48.00    11600.00
01641             -32.00    11600.00
01642             -32.00    11600.00
01643             -42.00    11600.00
01644             -26.00    11600.00
01645             -34.00    11600.00
01646             -50.00    11600.00
01647             -36.00    11600.00
01648             -32.00    11600.00
01649             -42.00    11600.00
01650             -32.00    11600.00
01651             -32.00    11600.00
01652             -44.00    11600.00
01653             -36.00    11600.00
01654             -32.00    11600.00
01655             -42.00    11600.00
01656             -34.00    11600.00
01657             -32.00    11600.00
01658             -40.00    11600.00
01659             -34.00    11400.00
01660             -40.00    11400.00
01661             -42.00    11200.00
01662             -32.00    11200.00
01663             -32.00    11200.00
01664             -40.00    11200.00
01665             -36.00    11200.00
01666             -36.00    11000.00
01667             -42.00    11000.00
01668             -34.00    11000.00
01669             -28.00    10800.00
01670             -36.00    11000.00
01671             -34.00    10800.00
01672             -34.00    10600.00
01673             -36.00    10600.00
01674             -36.00    10400.00
01675             -34.00    10400.00
01676             -32.00    10400.00
01677             -28.00    10200.00
01678             -32.00    10200.00
01679             -34.00    10000.00
01680             -34.00    10000.00
01681             -32.00    10000.00
01682             -32.00     9800.00
01683             -28.00     9800.00
01684             -28.00     9600.00
01685             -34.00     9400.00
01686             -32.00     9400.00
01687             -26.00     9400.00
01688             -30.00     9200.00
01689             -26.00     9000.00
01690             -26.00     9000.00
01691             -28.00     8800.00
01692             -28.00     8600.00
01693             -26.00     8600.00
01694             -28.00     8400.00
01695             -28.00     8400.00
01696             -24.00     8200.00
01697             -24.00     8000.00
01698             -24.00     7800.00
01699             -24.00     7800.00
01700             -26.00     7600.00
01701             -22.00     7600.00
01702             -20.00     7400.00
01703             -24.00     7200.00
01704             -20.00     7000.00
01705             -16.00     7000.00
01706             -26.00     6800.00
01707             -22.00     6600.00
01708             -20.00     6400.00
01709             -20.00     6200.00
01710             -16.00     6200.00
01711             -20.00     6000.00
01712             -18.00     6000.00
01713             -18.00     5600.00
01714             -16.00     5400.00
01715             -18.00     5200.00
01716             -16.00     5200.00
01717             -12.00     5000.00
01718             -16.00     4800.00
01719             -16.00     4600.00
01720             -12.00     4400.00
01721             -18.00     4000.00
01722             -12.00     4000.00
01723             -10.00     3800.00
01724             -10.00     3600.00
01725             -12.00     3400.00
01726             -10.00     3400.00
01727             -10.00     3200.00
01728             -10.00     2800.00
01729              -8.00     2800.00
01730              -4.00     2600.00
01731              -8.00     2400.00
01732              -8.00     2200.00
01733              -8.00     2000.00
01734              -8.00     2000.00
01735              -8.00     1600.00
01736              -4.00     1400.00
01737              -2.00     1200.00
01738              -2.00     1200.00
01739              -4.00     1000.00
01740              -4.00      800.00
01741              -4.00      400.00
01742              -2.00      400.00
01743               0.00      200.00
01744               4.00     -200.00
01745               6.00     -200.00
01746               6.00     -400.00
01747              28.00     -600.00
01748              22.00     -800.00
01749              -4.00    -1000.00
01750              -4.00    -1000.00
01751              16.00    -1200.00
01752              24.00    -1400.00
01753              44.00    -1600.00
01754             196.00    -1600.00
01755             252.00    -2400.00
01756            -186.00    -2800.00
01757            -248.00    -2600.00
01758            -128.00    -3000.00
01759             104.00    -2800.00
01760             252.00    -2600.00
01761             252.00    -3600.00
01762            -248.00    -3400.00
01763            -248.00    -3000.00
01764             252.00    -4400.00
01765             130.00    -3600.00
01766            -248.00    -3800.00
01767             114.00    -4800.00
01768             140.00    -4000.00
01769              46.00    -4400.00
01770              36.00    -5200.00
01771            -160.00    -4400.00
01772              36.00    -5200.00
01773             134.00    -5400.00
01774              56.00    -5200.00
01775             -20.00    -5600.00
01776            -128.00    -5800.00
01777             112.00    -5800.00
01778             168.00    -6200.00
01779             -66.00    -6400.00
01780             -50.00    -6600.00
01781              34.00    -6600.00
01782              88.00    -6800.00
01783              64.00    -7200.00
01784             -46.00    -7000.00
01785             -12.00    -7400.00
01786              60.00    -7400.00
01787              74.00    -7600.00
01788              -4.00    -8000.00
01789              -8.00    -7600.00
01790              68.00    -8000.00
01791              28.00    -8200.00
01792              22.00    -8400.00
01793               6.00    -8400.00
01794               4.00    -8600.00
01795              86.00    -8600.00
01796              44.00    -8800.00
01797             -20.00    -9000.00
01798              22.00    -9200.00
01799              40.00    -9200.00
01800              40.00    -9600.00
01801              36.00    -9400.00
01802              20.00    -9600.00
01803              16.00    -9800.00
01804              48.00    -9800.00
01805              36.00   -10000.00
01806               4.00   -10000.00
01807              38.00   -10000.00
01808              48.00   -10000.00
01809              26.00   -10400.00
01810              30.00   -10400.00
01811              28.00   -10400.00
01812              24.00   -10400.00
01813              42.00   -10600.00
01814              36.00   -10600.00
01815              24.00   -10600.00
01816              38.00   -10800.00
01817              38.00   -10800.00
01818              24.00   -10800.00
01819              30.00   -11200.00
01820              32.00   -11000.00
01821              32.00   -11200.00
01822              44.00   -11200.00
01823              36.00   -11400.00
01824              20.00   -11400.00
01825              30.00   -11400.00
01826              38.00   -11400.00
01827              32.00   -11400.00
01828              38.00   -11400.00
01829              40.00   -11400.00
01830              30.00   -11600.00
01831              28.00   -11400.00
01832              32.00   -11600.00
01833              30.00   -11600.00
01834              36.00   -11600.00
01835              40.00   -11600.00
01836              32.00   -11400.00
01837              30.00   -11600.00
01838              30.00   -11600.00
01839              30.00   -11800.00
01840              36.00   -11600.00
01841              38.00   -11600.00
01842              34.00   -11600.00
01843              36.00   -11600.00
01844              30.00   -11600.00
01845              28.00   -11600.00
01846              30.00   -11600.00
01847              38.00   -11600.00
01848              36.00   -11600.00
01849              32.00   -11600.00
01850              32.00   -11600.00
01851              28.00   -11400.00
01852              28.00   -11400.00
01853              30.00   -11400.00
01854              32.00   -11400.00
01855              32.00   -11200.00
01856              30.00   -11400.00
01857              28.00   -11200.00
01858              26.00   -11200.00
01859              28.00   -11200.00
01860              26.00   -11200.00
01861              32.00   -10800.00
01862              30.00   -10800.00
01863              28.00   -10800.00
01864              22.00   -10800.00
01865              28.00   -10600.00
01866              24.00   -10600.00
01867              28.00   -10600.00
01868              30.00   -10400.00
01869              28.00   -10400.00
01870              24.00   -10200.00
01871              22.00   -10400.00
01872              22.00   -10000.00
01873              22.00   -10000.00
01874              24.00    -9800.00
01875              26.00    -9600.00
01876              24.00    -9800.00
01877              20.00    -9600.00
01878              20.00    -9400.00
01879              20.00    -9400.00
01880              24.00    -9200.00
01881              24.00    -9000.00
01882              22.00    -9000.00
01883              22.00    -8800.00
01884              20.00    -8800.00
01885              16.00    -8800.00
01886              20.00    -8600.00
01887              20.00    -8400.00
01888              20.00    -8200.00
01889              20.00    -8200.00
01890              18.00    -8000.00
01891              14.00    -7600.00
01892              14.00    -7600.00
01893              16.00    -7600.00
01894              20.00    -7200.00
01895              16.00    -7200.00
01896              16.00    -7000.00
01897              14.00    -6800.00
01898              12.00    -6800.00
01899              12.00    -6600.00
01900              14.00    -6400.00
01901              14.00    -6400.00
01902              14.00    -6200.00
01903              12.00    -5800.00
01904               8.00    -5800.00
01905               8.00    -5600.00
01906               8.00    -5400.00
01907              12.00    -5200.00
01908              12.00    -5000.00
01909               8.00    -5000.00
01910               6.00    -4800.00
01911               6.00    -4600.00
01912               6.00    -4400.00
01913               6.00    -4200.00
01914               6.00    -4000.00
01915               6.00    -4000.00
01916               4.00    -3600.00
01917               4.00    -3400.00
01918               4.00    -3400.00
01919               0.00    -3200.00
01920              -4.00    -3200.00
01921               0.00    -2800.00
01922               6.00    -2600.00
01923               4.00    -2600.00
01924              -2.00    -2400.00
01925              -8.00    -2200.00
01926             -12.00    -1800.00
01927              -2.00    -1600.00
01928               4.00    -1600.00
01929              -2.00    -1200.00
01930              -4.00    -1200.00
01931             -10.00    -1000.00
01932             -10.00     -800.00
01933              -4.00     -600.00
01934              -2.00     -400.00
01935              -8.00     -200.00
01936              -6.00        0.00
01937              -4.00        0.00
01938               6.00      400.00
01939              20.00      600.00
01940              -6.00      600.00
01941             -26.00      800.00
01942             -10.00     1000.00
01943               8.00     1200.00
01944              28.00     1400.00
01945             220.00     2000.00
01946             246.00     2000.00
01947            -248.00     2400.00
01948            -248.00     2400.00
01949            -130.00     2200.00
01950             220.00     2600.00
01951             252.00     3000.00
01952              -6.00     2800.00
01953            -248.00     3200.00
01954             252.00     3200.00
01955             252.00     3400.00
01956            -248.00     3800.00
01957            -130.00     3600.00
01958             252.00     4000.00
01959            -248.00     4600.00
01960              38.00     3800.00
01961              62.00     4800.00
01962            -248.00     5200.00
01963             216.00     4400.00
01964             -36.00     5400.00
01965            -132.00     5400.00
01966             104.00     5000.00
01967            -146.00     6200.00
01968              28.00     5600.00
01969              88.00     5600.00
01970             -90.00     6800.00
01971             -72.00     6000.00
01972             -52.00     6200.00
01973             120.00     7000.00
01974            -100.00     6400.00
01975            -104.00     7000.00
01976             146.00     7200.00
01977            -156.00     7400.00
01978             -34.00     7400.00
01979              86.00     7600.00
01980            -124.00     8000.00
01981              30.00     7600.00
01982              -8.00     8200.00
01983            -104.00     8000.00
01984             -20.00     7800.00
01985              22.00     8800.00
01986             -20.00     8000.00
01987             -90.00     8600.00
01988              16.00     8800.00
01989             -44.00     8800.00
01990             -68.00     9000.00
01991              48.00     9000.00
01992             -84.00     9200.00
01993             -58.00     9400.00
01994              30.00     9400.00
01995             -64.00     9600.00
01996             -50.00     9400.00
01997             -16.00     9800.00
01998             -36.00     9600.00
01999             -34.00    10000.00
02000             -20.00    10200.00
02001             -50.00    10000.00
02002             -50.00    10200.00
02003               2.00    10400.00
02004             -48.00    10400.00
02005             -58.00    10400.00
02006              -4.00    10400.00
02007             -48.00    10800.00
02008             -44.00    10800.00
02009             -16.00    11000.00
02010             -56.00    10800.00
02011             -52.00    11000.00
02012             -10.00    11000.00
02013             -30.00    11200.00
02014             -50.00    11200.00
02015             -28.00    11000.00
02016             -42.00    11200.00
02017             -48.00    11200.00
02018             -24.00    11200.00
02019             -36.00    11400.00
02020             -42.00    11400.00
02021             -26.00    11600.00
02022             -42.00    11600.00
02023             -44.00    11600.00
02024             -26.00    11600.00
02025             -42.00    11600.00
02026             -38.00    11600.00
02027             -26.00    11600.00
02028             -40.00    11600.00
02029             -48.00    11600.00
02030             -32.00    11600.00
02031             -36.00    11600.00
02032             -40.00    11600.00
02033             -28.00    11600.00
02034             -36.00    11600.00
02035             -42.00    11600.00
02036             -32.00    11600.00
02037             -36.00    11600.00
02038             -42.00    11600.00
02039             -32.00    11600.00
02040             -34.00    11400.00
02041             -38.00    11600.00
02042             -34.00    11400.00
02043             -40.00    11400.00
02044             -40.00    11400.00
02045             -28.00    11200.00
02046             -32.00    11200.00
02047             -36.00    11200.00
02048             -34.00    11000.00
02049             -36.00    11200.00
02050             -40.00    11000.00
02051             -32.00    11000.00
02052             -32.00    10800.00
02053             -36.00    10800.00
02054             -34.00    10800.00
02055             -34.00    10600.00
02056             -40.00    10800.00
02057             -34.00    10400.00
02058             -32.00    10400.00
02059             -34.00    10400.00
02060             -28.00    10200.00
02061             -32.00    10200.00
02062             -36.00    10200.00
02063             -34.00    10000.00
02064             -34.00    10000.00
02065             -30.00     9800.00
02066             -26.00     9600.00
02067             -28.00     9600.00
02068             -32.00     9400.00
02069             -32.00     9400.00
02070             -28.00     9200.00
02071             -28.00     9200.00
02072             -28.00     8800.00
02073             -26.00     9000.00
02074             -28.00     8800.00
02075             -28.00     8800.00
02076             -28.00     8400.00
02077             -28.00     8400.00
02078             -26.00     8400.00
02079             -24.00     8000.00
02080             -24.00     8000.00
02081             -24.00     7800.00
02082             -26.00     7800.00
02083             -24.00     7600.00
02084             -24.00     7600.00
02085             -20.00     7400.00
02086             -24.00     7000.00
02087             -16.00     7000.00
02088             -20.00     7000.00
02089             -24.00     6600.00
02090             -24.00     6400.00
02091             -18.00     6400.00
02092             -18.00     6200.00
02093             -18.00     6000.00
02094             -16.00     6000.00
02095             -18.00     6000.00
02096             -18.00     5600.00
02097             -18.00     5400.00
02098             -16.00     5200.00
02099             -12.00     5000.00
02100             -12.00     4800.00
02101             -12.00     4800.00
02102             -12.00     4600.00
02103             -14.00     4400.00
02104             -12.00     4200.00
02105             -10.00     4000.00
02106              -8.00     3800.00
02107             -10.00     3800.00
02108             -10.00     3600.00
02109             -10.00     3200.00
02110             -10.00     3200.00
02111             -10.00     2800.00
02112              -4.00     2800.00
02113              -6.00     2600.00
02114              -8.00     2400.00
02115              -4.00     2200.00
02116              -8.00     2000.00
02117              -8.00     1600.00
02118              -4.00     1600.00
02119              -2.00     1400.00
02120              -2.00     1400.00
02121              -4.00     1000.00
02122              -4.00     1000.00
02123              -4.00      600.00
02124              -2.00      600.00
02125               0.00      400.00
02126               0.00        0.00
02127               4.00     -200.00
02128               4.00     -400.00
02129              12.00     -400.00
02130              30.00     -600.00
02131              14.00     -800.00
02132             -10.00    -1000.00
02133               0.00    -1000.00
02134              20.00    -1200.00
02135              22.00    -1600.00
02136              68.00    -1600.00
02137             252.00    -1800.00
02138             180.00    -2600.00
02139            -248.00    -2600.00
02140            -248.00    -2600.00
02141             -24.00    -2800.00
02142             140.00    -2600.00
02143             252.00    -2800.00
02144             204.00    -3600.00
02145            -248.00    -3000.00
02146               0.00    -3400.00
02147             252.00    -4400.00
02148            -196.00    -3400.00
02149            -248.00    -4200.00
02150             204.00    -4600.00
02151              72.00    -4000.00
02152              76.00    -5000.00
02153             -32.00    -5000.00
02154            -140.00    -4600.00
02155             100.00    -5400.00
02156             112.00    -5200.00
02157              44.00    -5200.00
02158             -68.00    -5800.00
02159             -90.00    -5800.00
02160             182.00    -6000.00
02161              96.00    -6400.00
02162             -90.00    -6400.00
02163             -20.00    -6600.00
02164              46.00    -6800.00
02165             100.00    -7000.00
02166              28.00    -6800.00
02167             -50.00    -7200.00
02168               8.00    -7400.00
02169              72.00    -7400.00
02170              56.00    -7600.00
02171             -24.00    -7800.00
02172              20.00    -7800.00
02173              68.00    -8000.00
02174              20.00    -8200.00
02175              28.00    -8200.00
02176              -4.00    -8400.00
02177              26.00    -8600.00
02178              92.00    -8800.00
02179              12.00    -8800.00
02180             -12.00    -9200.00
02181              32.00    -9200.00
02182              42.00    -9200.00
02183              38.00    -9400.00
02184              32.00    -9400.00
02185              14.00    -9600.00
02186              24.00    -9800.00
02187              52.00    -9800.00
02188              22.00    -9800.00
02189               8.00   -10000.00
02190              46.00   -10000.00
02191              40.00   -10200.00
02192              24.00   -10400.00
02193              30.00   -10400.00
02194              24.00   -10400.00
02195              30.00   -10600.00
02196              44.00   -10600.00
02197              30.00   -10600.00
02198              28.00   -10800.00
02199              40.00   -10800.00
02200              34.00   -10800.00
02201              22.00   -11000.00
02202              30.00   -10800.00
02203              30.00   -11200.00
02204              36.00   -11200.00
02205              46.00   -11200.00
02206              30.00   -11400.00
02207              20.00   -11400.00
02208              36.00   -11400.00
02209              36.00   -11400.00
02210              32.00   -11400.00
02211              40.00   -11600.00
02212              36.00   -11400.00
02213              28.00   -11600.00
02214              30.00   -11600.00
02215              32.00   -11600.00
02216              30.00   -11600.00
02217              40.00   -11600.00
02218              40.00   -11600.00
02219              32.00   -11600.00
02220              28.00   -11600.00
02221              30.00   -11600.00
02222              30.00   -11600.00
02223              36.00   -11600.00
02224              38.00   -11600.00
02225              34.00   -11600.00
02226              32.00   -11800.00
02227              30.00   -11600.00
02228              28.00   -11600.00
02229              34.00   -11600.00
02230              36.00   -11600.00
02231              32.00   -11600.00
02232              32.00   -11400.00
02233              32.00   -11600.00
02234              26.00   -11600.00
02235              28.00   -11400.00
02236              32.00   -11400.00
02237              32.00   -11400.00
02238              36.00   -11200.00
02239              32.00   -11200.00
02240              28.00   -11200.00
02241              28.00   -11200.00
02242              28.00   -11000.00
02243              28.00   -11200.00
02244              34.00   -11000.00
02245              30.00   -10800.00
02246              28.00   -10800.00
02247              22.00   -10800.00
02248              24.00   -10800.00
02249              26.00   -10600.00
02250              28.00   -10600.00
02251              28.00   -10400.00
02252              28.00   -10400.00
02253              24.00   -10400.00
02254              22.00   -10400.00
02255              20.00   -10000.00
02256              24.00   -10000.00
02257              28.00    -9800.00
02258              24.00    -9600.00
02259              22.00    -9600.00
02260              22.00    -9600.00
02261              20.00    -9600.00
02262              20.00    -9400.00
02263              22.00    -9200.00
02264              22.00    -9000.00
02265              22.00    -9000.00
02266              22.00    -9000.00
02267              16.00    -8800.00
02268              16.00    -8800.00
02269              16.00    -8400.00
02270              22.00    -8200.00
02271              22.00    -8200.00
02272              22.00    -8000.00
02273              16.00    -8000.00
02274              14.00    -7600.00
02275              14.00    -7600.00
02276              14.00    -7600.00
02277              16.00    -7400.00
02278              16.00    -7200.00
02279              14.00    -7000.00
02280               8.00    -7000.00
02281              12.00    -6800.00
02282              12.00    -6600.00
02283              14.00    -6600.00
02284              14.00    -6200.00
02285              14.00    -6000.00
02286              12.00    -6000.00
02287               8.00    -5800.00
02288               6.00    -5400.00
02289               8.00    -5400.00
02290               8.00    -5200.00
02291              14.00    -5000.00
02292              10.00    -5000.00
02293               6.00    -4800.00
02294               4.00    -4600.00
02295               4.00    -4400.00
02296               6.00    -4200.00
02297               6.00    -4000.00
02298               6.00    -4000.00
02299               4.00    -3600.00
02300               4.00    -3600.00
02301               0.00    -3400.00
02302               0.00    -3200.00
02303               0.00    -2800.00
02304               4.00    -2800.00
02305               4.00    -2600.00
02306               0.00    -2400.00
02307              -4.00    -2200.00
02308              -4.00    -2000.00
02309              -2.00    -1600.00
02310              -2.00    -1600.00
02311              -2.00    -1600.00
02312              -4.00    -1200.00
02313              -4.00    -1000.00
02314              -8.00    -1000.00
02315              -8.00     -800.00
02316              -8.00     -600.00
02317              -4.00     -400.00
02318              -4.00        0.00
02319              -4.00        0.00
02320              -4.00        0.00
02321              16.00      400.00
02322              14.00      400.00
02323             -14.00     1000.00
02324             -20.00     1000.00
02325              -2.00     1000.00
02326              10.00     1200.00
02327              54.00     1400.00
02328             252.00     2000.00
02329             118.00     2000.00
02330            -248.00     2400.00
02331            -248.00     2400.00
02332             -42.00     2200.00
02333             252.00     2600.00
02334             252.00     3000.00
02335            -248.00     2800.00
02336            -248.00     3200.00
02337             252.00     3200.00
02338             252.00     3600.00
02339            -248.00     3800.00
02340             244.00     3600.00
02341             252.00     4400.00
02342            -248.00     4400.00
02343             172.00     3800.00
02344            -100.00     5200.00
02345            -144.00     4800.00
02346             244.00     4600.00
02347            -162.00     5800.00
02348             -24.00     5000.00
02349              52.00     5200.00
02350            -158.00     6400.00
02351             104.00     5400.00
02352              22.00     6000.00
02353             -92.00     6800.00
02354             -76.00     5800.00
02355               2.00     6800.00
02356             108.00     7000.00
02357            -176.00     6400.00
02358               2.00     7200.00
02359              94.00     7000.00
02360            -196.00     7400.00
02361              58.00     7200.00
02362              14.00     7600.00
02363            -106.00     7800.00
02364              60.00     7600.00
02365             -56.00     8400.00
02366             -82.00     7800.00
02367              -4.00     8000.00
02368              20.00     8600.00
02369             -52.00     8400.00
02370             -68.00     8800.00
02371              24.00     8800.00
02372             -80.00     8800.00
02373             -20.00     9200.00
02374              30.00     9200.00
02375            -108.00     9400.00
02376             -14.00     9200.00
02377              12.00     9600.00
02378             -74.00     9600.00
02379             -34.00     9600.00
02380             -20.00    10000.00
02381             -40.00     9800.00
02382             -28.00    10000.00
02383             -24.00    10200.00
02384             -60.00    10000.00
02385             -32.00    10200.00
02386              -4.00    10200.00
02387             -66.00    10200.00
02388             -40.00    10400.00
02389             -10.00    10800.00
02390             -58.00    10800.00
02391             -32.00    10800.00
02392             -24.00    11000.00
02393             -64.00    10800.00
02394             -42.00    10800.00
02395             -10.00    11000.00
02396             -44.00    11000.00
02397             -48.00    11200.00
02398             -28.00    11200.00
02399             -50.00    11200.00
02400             -42.00    11200.00
02401             -24.00    11200.00
02402             -42.00    11200.00
02403             -36.00    11400.00
02404             -28.00    11600.00
02405             -48.00    11600.00
02406             -38.00    11400.00
02407             -30.00    11600.00
02408             -42.00    11600.00
02409             -36.00    11600.00
02410             -28.00    11600.00
02411             -48.00    11600.00
02412             -42.00    11600.00
02413             -28.00    11800.00
02414             -40.00    11400.00
02415             -36.00    11600.00
02416             -28.00    11800.00
02417             -38.00    11600.00
02418             -42.00    11600.00
02419             -34.00    11600.00
02420             -40.00    11600.00
02421             -36.00    11400.00
02422             -32.00    11600.00
02423             -34.00    11400.00
02424             -36.00    11400.00
02425             -36.00    11400.00
02426             -42.00    11200.00
02427             -38.00    11200.00
02428             -28.00    11200.00
02429             -36.00    11200.00
02430             -36.00    11200.00
02431             -32.00    11000.00
02432             -40.00    11000.00
02433             -36.00    11000.00
02434             -28.00    11000.00
02435             -32.00    11000.00
02436             -36.00    10800.00
02437             -32.00    10800.00
02438             -34.00    10800.00
02439             -36.00    10400.00
02440             -32.00    10600.00
02441             -32.00    10400.00
02442             -28.00    10400.00
02443             -28.00    10200.00
02444             -34.00    10000.00
02445             -34.00    10000.00
02446             -32.00    10000.00
02447             -32.00     9800.00
02448             -30.00     9800.00
02449             -26.00     9600.00
02450             -30.00     9600.00
02451             -32.00     9400.00
02452             -28.00     9400.00
02453             -30.00     9200.00
02454             -32.00     9200.00
02455             -26.00     8800.00
02456             -26.00     8800.00
02457             -28.00     8800.00
02458             -28.00     8600.00
02459             -32.00     8400.00
02460             -26.00     8400.00
02461             -26.00     8200.00
02462             -24.00     8000.00
02463             -26.00     8000.00
02464             -26.00     7800.00
02465             -26.00     7600.00
02466             -24.00     7600.00
02467             -22.00     7400.00
02468             -20.00     7200.00
02469             -20.00     7200.00
02470             -18.00     7000.00
02471             -20.00     7000.00
02472             -24.00     6600.00
02473             -20.00     6400.00
02474             -18.00     6200.00
02475             -20.00     6200.00
02476             -18.00     6000.00
02477             -18.00     5800.00
02478             -18.00     5600.00
02479             -18.00     5400.00
02480             -16.00     5400.00
02481             -12.00     5200.00
02482             -16.00     5200.00
02483             -12.00     4800.00
02484             -12.00     4600.00
02485             -16.00     4600.00
02486             -16.00     4400.00
02487             -10.00     4000.00
02488             -10.00     3800.00
02489             -10.00     3800.00
02490             -10.00     3600.00
02491             -10.00     3400.00
02492             -12.00     3200.00
02493             -10.00     3000.00
02494              -8.00     2800.00
02495              -8.00     2800.00
02496              -4.00     2400.00
02497              -6.00     2400.00
02498              -8.00     2200.00
02499              -4.00     2000.00
02500             -10.00     1800.00
02501              -4.00     1600.00
02502              -2.00     1400.00
02503              -2.00     1200.00
02504              -4.00     1000.00
02505              -4.00      800.00
02506              -2.00      600.00
02507              -4.00      400.00
02508              -2.00        0.00
02509               2.00        0.00
02510               4.00        0.00
02511               6.00     -400.00
02512              20.00     -400.00
02513              30.00     -800.00
02514               6.00    -1000.00
02515             -12.00    -1000.00
02516               6.00    -1200.00
02517              22.00    -1400.00
02518              24.00    -1400.00
02519             108.00    -1600.00
02520             252.00    -2000.00
02521              48.00    -2800.00
02522            -248.00    -2600.00
02523            -248.00    -2800.00
02524              48.00    -2800.00
02525             200.00    -2600.00
02526             252.00    -3200.00
02527            -100.00    -3600.00
02528            -248.00    -2800.00
02529             252.00    -3800.00
02530             252.00    -4200.00
02531            -248.00    -3400.00
02532            -128.00    -4600.00
02533             216.00    -4400.00
02534              32.00    -4000.00
02535              84.00    -5000.00
02536            -106.00    -4800.00
02537             -82.00    -4800.00
02538             132.00    -5600.00
02539              80.00    -5200.00
02540              28.00    -5400.00
02541            -112.00    -6000.00
02542             -18.00    -5800.00
02543             210.00    -6000.00
02544              22.00    -6200.00
02545             -84.00    -6600.00
02546               8.00    -6400.00
02547              72.00    -6800.00
02548              84.00    -7200.00
02549              -6.00    -6800.00
02550             -42.00    -7200.00
02551              20.00    -7200.00
02552              40.00    -7400.00
02553              32.00    -7800.00
02554              28.00    -7600.00
02555              56.00    -8000.00
02556              62.00    -8000.00
02557               4.00    -8200.00
02558              44.00    -8400.00
02559             -34.00    -8600.00
02560              16.00    -8800.00
02561              70.00    -8800.00
02562              20.00    -9000.00
02563              16.00    -9000.00
02564              24.00    -9000.00
02565              44.00    -9200.00
02566              54.00    -9400.00
02567              48.00    -9600.00
02568              -4.00    -9600.00
02569              20.00    -9800.00
02570              46.00    -9800.00
02571              16.00   -10000.00
02572              24.00   -10000.00
02573              54.00   -10000.00
02574              40.00   -10200.00
02575              20.00   -10400.00
02576              28.00   -10400.00
02577              28.00   -10600.00
02578              34.00   -10600.00
02579              32.00   -10600.00
02580              24.00   -10800.00
02581              46.00   -10800.00
02582              44.00   -10800.00
02583              14.00   -10800.00
02584              22.00   -11200.00
02585              42.00   -11000.00
02586              36.00   -11200.00
02587              36.00   -11200.00
02588              42.00   -11200.00
02589              28.00   -11400.00
02590              26.00   -11400.00
02591              38.00   -11400.00
02592              32.00   -11400.00
02593              28.00   -11400.00
02594              32.00   -11400.00
02595              36.00   -11600.00
02596              34.00   -11600.00
02597              32.00   -11600.00
02598              22.00   -11600.00
02599              30.00   -11800.00
02600              46.00   -11600.00
02601              36.00   -11600.00
02602              22.00   -11800.00
02603              28.00   -11600.00
02604              46.00   -11600.00
02605              44.00   -11600.00
02606              32.00   -11600.00
02607              22.00   -11600.00
02608              24.00   -11600.00
02609              34.00   -11600.00
02610              38.00   -11600.00
02611              36.00   -11600.00
02612              34.00   -11600.00
02613              36.00   -11600.00
02614              36.00   -11600.00
02615              36.00   -11600.00
02616              28.00   -11400.00
02617              24.00   -11400.00
02618              28.00   -11400.00
02619              36.00   -11400.00
02620              36.00   -11400.00
02621              36.00   -11200.00
02622              32.00   -11400.00
02623              28.00   -11200.00
02624              28.00   -11200.00
02625              28.00   -11000.00
02626              32.00   -10800.00
02627              32.00   -10800.00
02628              28.00   -10800.00
02629              26.00   -10800.00
02630              24.00   -10800.00
02631              28.00   -10600.00
02632              28.00   -10400.00
02633              30.00   -10400.00
02634              30.00   -10600.00
02635              24.00   -10400.00
02636              24.00   -10400.00
02637              22.00   -10200.00
02638              22.00   -10000.00
02639              24.00   -10000.00
02640              28.00    -9800.00
02641              26.00    -9800.00
02642              22.00    -9600.00
02643              22.00    -9600.00
02644              20.00    -9400.00
02645              22.00    -9200.00
02646              22.00    -9200.00
02647              22.00    -9000.00
02648              20.00    -9000.00
02649              20.00    -8800.00
02650              16.00    -8800.00
02651              16.00    -8400.00
02652              16.00    -8400.00
02653              20.00    -8200.00
02654              20.00    -8200.00
02655              20.00    -8000.00
02656              14.00    -8000.00
02657              12.00    -7600.00
02658              14.00    -7600.00
02659              14.00    -7400.00
02660              16.00    -7400.00
02661              16.00    -7200.00
02662              12.00    -7200.00
02663               8.00    -7000.00
02664              10.00    -6600.00
02665              12.00    -6600.00
02666              12.00    -6400.00
02667              14.00    -6200.00
02668              12.00    -6000.00
02669               6.00    -5800.00
02670               6.00    -5800.00
02671               6.00    -5400.00
02672               6.00    -5200.00
02673              12.00    -5200.00
02674              12.00    -5000.00
02675               8.00    -4800.00
02676               4.00    -4800.00
02677               6.00    -4400.00
02678               4.00    -4400.00
02679               6.00    -4200.00
02680               6.00    -4000.00
02681               6.00    -3800.00
02682               4.00    -3600.00
02683               2.00    -3400.00
02684               0.00    -3200.00
02685               0.00    -3200.00
02686               2.00    -2800.00
02687               4.00    -2800.00
02688               2.00    -2600.00
02689               0.00    -2200.00
02690              -4.00    -2000.00
02691              -4.00    -2000.00
02692              -4.00    -1600.00
02693              -2.00    -1600.00
02694              -2.00    -1400.00
02695              -2.00    -1200.00
02696              -4.00    -1000.00
02697              -8.00     -800.00
02698              -8.00     -800.00
02699              -4.00     -400.00
02700              -8.00     -200.00
02701              -2.00     -200.00
02702              -4.00        0.00
02703               0.00      400.00
02704              20.00      400.00
02705               6.00      600.00
02706             -20.00     1000.00
02707             -20.00     1000.00
02708               6.00     1200.00
02709              12.00     1200.00
02710             108.00     1600.00
02711             252.00     2000.00
02712             -52.00     2200.00
02713            -248.00     2200.00
02714            -248.00     2200.00
02715              42.00     2400.00
02716             252.00     2800.00
02717             252.00     2800.00
02718            -248.00     2800.00
02719            -248.00     3400.00
02720             252.00     3200.00
02721             -42.00     3800.00
02722            -248.00     3800.00
02723             252.00     3600.00
02724              32.00     4600.00
02725            -240.00     4200.00
02726             204.00     4200.00
02727            -236.00     5200.00
02728              20.00     4400.00
02729             168.00     4800.00
02730            -214.00     5800.00
02731              68.00     4800.00
02732             -36.00     5600.00
02733            -108.00     6200.00
02734             134.00     5400.00
02735             -42.00     6400.00
02736             -80.00     6400.00
02737             -82.00     6000.00
02738              60.00     7000.00
02739              44.00     6600.00
02740            -194.00     6800.00
02741              96.00     7400.00
02742              -8.00     7200.00
02743            -168.00     7400.00
02744             108.00     7400.00
02745             -64.00     7800.00
02746             -58.00     7600.00
02747              52.00     7800.00
02748             -92.00     8400.00
02749             -56.00     7800.00
02750              14.00     8600.00
02751              12.00     8600.00
02752             -82.00     8400.00
02753             -34.00     8800.00
02754              12.00     8800.00
02755             -96.00     8800.00
02756              24.00     9200.00
02757              -8.00     9200.00
02758            -106.00     9400.00
02759              22.00     9400.00
02760             -18.00     9800.00
02761             -70.00     9600.00
02762             -22.00     9600.00
02763             -26.00    10000.00
02764             -40.00     9800.00
02765             -22.00    10000.00
02766             -32.00    10200.00
02767             -60.00    10200.00
02768             -14.00    10400.00
02769             -18.00    10200.00
02770             -74.00    10400.00
02771             -18.00    10400.00
02772             -20.00    10800.00
02773             -58.00    10600.00
02774             -18.00    11000.00
02775             -34.00    11000.00
02776             -64.00    10800.00
02777             -24.00    11000.00
02778             -16.00    11000.00
02779             -50.00    11000.00
02780             -36.00    11200.00
02781             -32.00    11200.00
02782             -50.00    11000.00
02783             -32.00    11200.00
02784             -28.00    11200.00
02785             -48.00    11200.00
02786             -34.00    11200.00
02787             -32.00    11400.00
02788             -50.00    11400.00
02789             -36.00    11600.00
02790             -34.00    11600.00
02791             -42.00    11600.00
02792             -28.00    11600.00
02793             -32.00    11600.00
02794             -50.00    11600.00
02795             -38.00    11600.00
02796             -28.00    11600.00
02797             -40.00    11600.00
02798             -34.00    11600.00
02799             -30.00    11600.00
02800             -44.00    11600.00
02801             -40.00    11600.00
02802             -32.00    11600.00
02803             -40.00    11600.00
02804             -36.00    11600.00
02805             -28.00    11400.00
02806             -36.00    11400.00
02807             -36.00    11600.00
02808             -34.00    11200.00
02809             -42.00    11200.00
02810             -32.00    11200.00
02811             -26.00    11200.00
02812             -40.00    11400.00
02813             -38.00    11200.00
02814             -30.00    11200.00
02815             -36.00    11200.00
02816             -32.00    11000.00
02817             -32.00    11000.00
02818             -40.00    10800.00
02819             -32.00    10800.00
02820             -26.00    10800.00
02821             -34.00    10600.00
02822             -38.00    10600.00
02823             -36.00    10400.00
02824             -32.00    10400.00
02825             -26.00    10200.00
02826             -28.00    10200.00
02827             -36.00    10200.00
02828             -34.00    10000.00
02829             -32.00    10000.00
02830             -28.00    10000.00
02831             -26.00     9800.00
02832             -26.00     9600.00
02833             -34.00     9400.00
02834             -32.00     9400.00
02835             -28.00     9200.00
02836             -32.00     9200.00
02837             -28.00     9200.00
02838             -26.00     8800.00
02839             -28.00     8800.00
02840             -26.00     8600.00
02841             -28.00     8600.00
02842             -28.00     8400.00
02843             -28.00     8400.00
02844             -24.00     8000.00
02845             -26.00     8000.00
02846             -26.00     7800.00
02847             -26.00     7800.00
02848             -28.00     7800.00
02849             -26.00     7600.00
02850             -24.00     7400.00
02851             -26.00     7200.00
02852             -20.00     7000.00
02853             -20.00     7000.00
02854             -24.00     6800.00
02855             -26.00     6600.00
02856             -20.00     6400.00
02857             -20.00     6200.00
02858             -20.00     6200.00
02859             -18.00     6000.00
02860             -20.00     6000.00
02861             -16.00     5600.00
02862             -20.00     5400.00
02863             -16.00     5400.00
02864             -16.00     5200.00
02865             -18.00     5000.00
02866             -12.00     4800.00
02867             -16.00     4600.00
02868             -20.00     4400.00
02869             -10.00     4000.00
02870             -12.00     4000.00
02871             -10.00     3800.00
02872              -8.00     3600.00
02873             -10.00     3600.00
02874             -12.00     3200.00
02875              -8.00     3200.00
02876             -10.00     3000.00
02877             -14.00     2800.00
02878               0.00     2600.00
02879              -8.00     2400.00
02880             -10.00     2200.00
02881              -2.00     2000.00
02882              -4.00     1800.00
02883             -10.00     1600.00
02884              -6.00     1400.00
02885               4.00     1400.00
02886              -2.00     1200.00
02887              -6.00     1000.00
02888              -2.00      800.00
02889               0.00      600.00
02890              -2.00      400.00
02891               2.00      400.00
02892               4.00        0.00
02893               4.00     -200.00
02894               4.00     -400.00
02895              28.00     -600.00
02896              30.00     -800.00
02897               0.00     -800.00
02898             -12.00    -1200.00
02899               8.00    -1200.00
02900              22.00    -1200.00
02901              38.00    -1600.00
02902             164.00    -1800.00
02903             252.00    -2200.00
02904            -108.00    -2600.00
02905            -248.00    -2600.00
02906            -188.00    -2800.00
02907              92.00    -2800.00
02908             252.00    -2600.00
02909             252.00    -3400.00
02910            -248.00    -3400.00
02911            -248.00    -3000.00
02912             252.00    -4200.00
02913             252.00    -3800.00
02914            -248.00    -3600.00
02915              42.00    -4800.00
02916             172.00    -4000.00
02917              34.00    -4400.00
02918              60.00    -5200.00
02919            -154.00    -4800.00
02920              -4.00    -5000.00
02921             136.00    -5600.00
02922              64.00    -5200.00
02923              -2.00    -5600.00
02924            -130.00    -5800.00
02925              70.00    -5800.00
02926             190.00    -6200.00
02927             -44.00    -6400.00
02928             -66.00    -6600.00
02929              22.00    -6400.00
02930              80.00    -6800.00
02931              82.00    -7000.00
02932             -40.00    -6800.00
02933             -26.00    -7600.00
02934              52.00    -7400.00
02935              78.00    -7400.00
02936               6.00    -7800.00
02937             -16.00    -7600.00
02938              64.00    -8000.00
02939              36.00    -8200.00
02940              22.00    -8000.00
02941              14.00    -8400.00
02942              -4.00    -8400.00
02943              82.00    -8800.00
02944              56.00    -8800.00
02945             -18.00    -9000.00
02946              16.00    -9000.00
02947              42.00    -9200.00
02948              40.00    -9200.00
02949              40.00    -9400.00
02950              26.00    -9600.00
02951              14.00    -9600.00
02952              44.00    -9800.00
02953              44.00    -9800.00
02954               6.00    -9800.00
02955              30.00   -10000.00
02956              54.00   -10000.00
02957              28.00   -10200.00
02958              28.00   -10400.00
02959              30.00   -10400.00
02960              22.00   -10600.00
02961              40.00   -10600.00
02962              40.00   -10600.00
02963              24.00   -10800.00
02964              36.00   -10800.00
02965              38.00   -10800.00
02966              24.00   -10800.00
02967              28.00   -11200.00
02968              34.00   -11200.00
02969              30.00   -11200.00
02970              44.00   -11200.00
02971              40.00   -11400.00
02972              20.00   -11200.00
02973              28.00   -11400.00
02974              38.00   -11400.00
02975              30.00   -11400.00
02976              36.00   -11400.00
02977              40.00   -11600.00
02978              30.00   -11600.00
02979              28.00   -11600.00
02980              30.00   -11600.00
02981              30.00   -11400.00
02982              36.00   -11600.00
02983              42.00   -11600.00
02984              32.00   -11600.00
02985              30.00   -11600.00
02986              30.00   -11800.00
02987              28.00   -11600.00
02988              32.00   -11600.00
02989              38.00   -11600.00
02990              36.00   -11800.00
02991              34.00   -11600.00
02992              32.00   -11600.00
02993              28.00   -11600.00
02994              28.00   -11600.00
02995              36.00   -11600.00
02996              36.00   -11600.00
02997              32.00   -11600.00
02998              30.00   -11600.00
02999              28.00   -11600.00
03000              30.00   -11600.00
03001              32.00   -11400.00
03002              32.00   -11400.00
03003              34.00   -11400.00
03004              32.00   -11200.00
03005              30.00   -11000.00
03006              30.00   -11200.00
03007              24.00   -11200.00
03008              24.00   -11000.00
03009              34.00   -11200.00
03010              36.00   -10800.00
03011              30.00   -10800.00
03012              28.00   -10800.00
03013              24.00   -10600.00
03014              28.00   -10600.00
03015              28.00   -10600.00
03016              30.00   -10400.00
03017              30.00   -10400.00
03018              24.00   -10400.00
03019              24.00   -10200.00
03020              20.00   -10200.00
03021              24.00   -10000.00
03022              28.00    -9800.00
03023              28.00    -9600.00
03024              24.00    -9800.00
03025              22.00    -9600.00
03026              20.00    -9600.00
03027              20.00    -9600.00
03028              22.00    -9200.00
03029              22.00    -9000.00
03030              22.00    -9200.00
03031              22.00    -9000.00
03032              16.00    -8800.00
03033              16.00    -8400.00
03034              16.00    -8800.00
03035              20.00    -8400.00
03036              22.00    -8200.00
03037              16.00    -8200.00
03038              16.00    -8000.00
03039              14.00    -7800.00
03040              14.00    -7600.00
03041              14.00    -7600.00
03042              14.00    -7400.00
03043              16.00    -7200.00
03044              16.00    -7200.00
03045              12.00    -7200.00
03046              12.00    -6800.00
03047              12.00    -6800.00
03048              12.00    -6400.00
03049              12.00    -6400.00
03050              12.00    -6200.00
03051               8.00    -6000.00
03052               8.00    -6000.00
03053               6.00    -5600.00
03054               6.00    -5400.00
03055               8.00    -5200.00
03056              10.00    -5200.00
03057               8.00    -5000.00
03058               6.00    -4800.00
03059               4.00    -4600.00
03060               4.00    -4400.00
03061               0.00    -4400.00
03062               6.00    -4200.00
03063               4.00    -4000.00
03064               4.00    -3800.00
03065               4.00    -3600.00
03066               0.00    -3400.00
03067               0.00    -3200.00
03068               0.00    -3000.00
03069               2.00    -2800.00
03070               4.00    -2800.00
03071               0.00    -2400.00
03072              -4.00    -2400.00
03073              -2.00    -2000.00
03074              -4.00    -1800.00
03075              -4.00    -1600.00
03076              -2.00    -1600.00
03077              -2.00    -1400.00
03078              -4.00    -1200.00
03079              -6.00    -1000.00
03080              -8.00     -800.00
03081             -10.00     -600.00
03082              -6.00     -400.00
03083              -4.00     -200.00
03084              -4.00        0.00
03085              -2.00        0.00
03086               6.00      400.00
03087              22.00      600.00
03088              -2.00      600.00
03089             -24.00      800.00
03090             -10.00     1000.00
03091               6.00     1200.00
03092              20.00     1400.00
03093             182.00     1600.00
03094             252.00     2000.00
03095            -240.00     2000.00
03096            -248.00     2400.00
03097            -188.00     2200.00
03098             148.00     2400.00
03099             252.00     2800.00
03100             220.00     2800.00
03101            -248.00     3000.00
03102             108.00     3400.00
03103             252.00     3200.00
03104            -248.00     4000.00
03105            -248.00     3600.00
03106             252.00     3800.00
03107            -224.00     4600.00
03108             -58.00     3800.00
03109             132.00     4800.00
03110            -248.00     5200.00
03111             166.00     4400.00
03112              34.00     5200.00
03113            -178.00     5400.00
03114             110.00     4800.00
03115            -120.00     6000.00
03116             -24.00     6000.00
03117             110.00     5400.00
03118             -82.00     6600.00
03119             -66.00     6000.00
03120             -70.00     6200.00
03121             110.00     7200.00
03122             -50.00     6400.00
03123            -148.00     7000.00
03124             148.00     7400.00
03125            -114.00     7200.00
03126             -84.00     7400.00
03127             104.00     7600.00
03128            -116.00     8000.00
03129               6.00     7600.00
03130              14.00     8000.00
03131            -104.00     8200.00
03132             -26.00     8000.00
03133              20.00     8600.00
03134              -6.00     8400.00
03135             -90.00     8400.00
03136               4.00     9000.00
03137             -26.00     8600.00
03138             -82.00     9200.00
03139              50.00     9200.00
03140             -60.00     9200.00
03141             -76.00     9400.00
03142              36.00     9600.00
03143             -48.00     9600.00
03144             -56.00     9600.00
03145             -16.00     9600.00
03146             -34.00    10000.00
03147             -34.00     9600.00
03148             -18.00    10200.00
03149             -42.00    10000.00
03150             -52.00    10200.00
03151              -2.00    10400.00
03152             -40.00    10400.00
03153             -64.00    10400.00
03154              -4.00    10400.00
03155             -38.00    10800.00
03156             -50.00    10800.00
03157             -12.00    10800.00
03158             -50.00    10800.00
03159             -60.00    10800.00
03160             -16.00    11000.00
03161             -26.00    11000.00
03162             -48.00    11200.00
03163             -32.00    11200.00
03164             -36.00    11200.00
03165             -50.00    11200.00
03166             -26.00    11200.00
03167             -34.00    11400.00
03168             -44.00    11200.00
03169             -32.00    11200.00
03170             -42.00    11600.00
03171             -48.00    11600.00
03172             -28.00    11600.00
03173             -36.00    11600.00
03174             -42.00    11600.00
03175             -26.00    11600.00
03176             -36.00    11600.00
03177             -48.00    11600.00
03178             -32.00    11600.00
03179             -34.00    11600.00
03180             -42.00    11600.00
03181             -34.00    11400.00
03182             -36.00    11600.00
03183             -44.00    11600.00
03184             -36.00    11600.00
03185             -34.00    11600.00
03186             -42.00    11600.00
03187             -34.00    11600.00
03188             -34.00    11400.00
03189             -36.00    11400.00
03190             -36.00    11400.00
03191             -40.00    11200.00
03192             -42.00    11200.00
03193             -32.00    11200.00
03194             -32.00    11200.00
03195             -36.00    11200.00
03196             -34.00    11200.00
03197             -36.00    11000.00
03198             -42.00    11000.00
03199             -34.00    11000.00
03200             -32.00    11000.00
03201             -36.00    10800.00
03202             -34.00    10800.00
03203             -32.00    10800.00
03204             -36.00    10600.00
03205             -34.00    10400.00
03206             -32.00    10400.00
03207             -30.00    10400.00
03208             -28.00    10200.00
03209             -32.00    10200.00
03210             -34.00    10200.00
03211             -32.00    10000.00
03212             -32.00    10000.00
03213             -28.00    10000.00
03214             -26.00     9800.00
03215             -28.00     9600.00
03216             -32.00     9400.00
03217             -28.00     9400.00
03218             -28.00     9400.00
03219             -30.00     9200.00
03220             -26.00     9000.00
03221             -24.00     8800.00
03222             -28.00     8800.00
03223             -28.00     8600.00
03224             -28.00     8600.00
03225             -28.00     8400.00
03226             -26.00     8400.00
03227             -24.00     8000.00
03228             -26.00     8000.00
03229             -24.00     7800.00
03230             -26.00     7800.00
03231             -26.00     7600.00
03232             -24.00     7600.00
03233             -20.00     7200.00
03234             -24.00     7200.00
03235             -20.00     7000.00
03236             -20.00     7000.00
03237             -26.00     6800.00
03238             -24.00     6400.00
03239             -20.00     6400.00
03240             -20.00     6200.00
03241             -20.00     6000.00
03242             -20.00     6000.00
03243             -18.00     5600.00
03244             -20.00     5600.00
03245             -18.00     5400.00
03246             -18.00     5200.00
03247             -16.00     5000.00
03248             -16.00     5000.00
03249             -18.00     4800.00
03250             -16.00     4600.00
03251             -18.00     4400.00
03252             -18.00     4200.00
03253             -12.00     4000.00
03254             -10.00     4000.00
03255             -10.00     3800.00
03256             -12.00     3400.00
03257             -10.00     3200.00
03258             -10.00     3000.00
03259             -10.00     3000.00
03260              -8.00     2800.00
03261              -8.00     2400.00
03262              -8.00     2400.00
03263              -8.00     2200.00
03264              -4.00     2200.00
03265              -6.00     2000.00
03266              -4.00     1600.00
03267              -4.00     1400.00
03268              -2.00     1200.00
03269              -2.00     1200.00
03270              -4.00      800.00
03271              -2.00     1000.00
03272               0.00      400.00
03273              -2.00      400.00
03274               0.00        0.00
03275               6.00     -200.00
03276               6.00     -400.00
03277              12.00     -400.00
03278              30.00     -600.00
03279              20.00     -800.00
03280              -6.00    -1000.00
03281              -2.00    -1200.00
03282              20.00    -1200.00
03283              28.00    -1200.00
03284              54.00    -1600.00
03285             226.00    -1800.00
03286             228.00    -2600.00
03287            -248.00    -2600.00
03288            -248.00    -2600.00
03289             -72.00    -3000.00
03290             118.00    -2600.00
03291             252.00    -2800.00
03292             252.00    -3600.00
03293            -248.00    -3200.00
03294            -186.00    -3200.00
03295             252.00    -4400.00
03296             -38.00    -3400.00
03297            -248.00    -4000.00
03298             166.00    -4800.00
03299             102.00    -4000.00
03300              60.00    -4800.00
03301               6.00    -5200.00
03302            -156.00    -4600.00
03303              68.00    -5200.00
03304             124.00    -5600.00
03305              52.00    -5200.00
03306             -42.00    -5800.00
03307            -112.00    -6000.00
03308             148.00    -6000.00
03309             132.00    -6000.00
03310             -80.00    -6400.00
03311             -36.00    -6600.00
03312              36.00    -6400.00
03313              94.00    -6800.00
03314              46.00    -6800.00
03315             -52.00    -7000.00
03316              -2.00    -7400.00
03317              68.00    -7200.00
03318              64.00    -7400.00
03319             -12.00    -7600.00
03320               6.00    -7600.00
03321              72.00    -8000.00
03322              20.00    -8200.00
03323              24.00    -8200.00
03324               2.00    -8400.00
03325              16.00    -8400.00
03326              92.00    -8800.00
03327              26.00    -8800.00
03328             -18.00    -9000.00
03329              28.00    -9000.00
03330              44.00    -9200.00
03331              40.00    -9400.00
03332              38.00    -9400.00
03333              20.00    -9600.00
03334              22.00    -9800.00
03335              52.00    -9800.00
03336              30.00    -9800.00
03337               8.00   -10000.00
03338              46.00   -10000.00
03339              48.00   -10000.00
03340              28.00   -10400.00
03341              30.00   -10400.00
03342              24.00   -10400.00
03343              28.00   -10600.00
03344              44.00   -10600.00
03345              36.00   -10800.00
03346              26.00   -10800.00
03347              40.00   -10800.00
03348              38.00   -10800.00
03349              24.00   -11000.00
03350              32.00   -11000.00
03351              32.00   -11200.00
03352              36.00   -11200.00
03353              46.00   -11200.00
03354              36.00   -11200.00
03355              20.00   -11400.00
03356              32.00   -11400.00
03357              36.00   -11400.00
03358              32.00   -11400.00
03359              38.00   -11400.00
03360              38.00   -11400.00
03361              28.00   -11600.00
03362              30.00   -11600.00
03363              32.00   -11600.00
03364              30.00   -11600.00
03365              38.00   -11600.00
03366              40.00   -11600.00
03367              32.00   -11600.00
03368              28.00   -11600.00
03369              30.00   -11600.00
03370              28.00   -11600.00
03371              36.00   -11600.00
03372              36.00   -11600.00
03373              32.00   -11600.00
03374              32.00   -11600.00
03375              30.00   -11600.00
03376              24.00   -11600.00
03377              32.00   -11600.00
03378              34.00   -11600.00
03379              36.00   -11600.00
03380              32.00   -11600.00
03381              32.00   -11600.00
03382              28.00   -11600.00
03383              28.00   -11400.00
03384              30.00   -11400.00
03385              32.00   -11400.00
03386              32.00   -11400.00
03387              30.00   -11200.00
03388              28.00   -11200.00
03389              24.00   -11200.00
03390              28.00   -11000.00
03391              28.00   -11200.00
03392              36.00   -11000.00
03393              32.00   -10800.00
03394              28.00   -10800.00
03395              28.00   -10800.00
03396              28.00   -10800.00
03397              26.00   -10600.00
03398              30.00   -10400.00
03399              30.00   -10600.00
03400              30.00   -10400.00
03401              24.00   -10400.00
03402              26.00   -10000.00
03403              22.00   -10200.00
03404              24.00    -9800.00
03405              28.00   -10000.00
03406              28.00    -9800.00
03407              24.00    -9600.00
03408              22.00    -9600.00
03409              22.00    -9600.00
03410              20.00    -9200.00
03411              24.00    -9200.00
03412              24.00    -9200.00
03413              22.00    -9000.00
03414              24.00    -9000.00
03415              18.00    -8800.00
03416              20.00    -8600.00
03417              16.00    -8400.00
03418              20.00    -8400.00
03419              20.00    -8200.00
03420              20.00    -8000.00
03421              16.00    -8000.00
03422              12.00    -7600.00
03423              14.00    -7600.00
03424              16.00    -7600.00
03425              16.00    -7400.00
03426              16.00    -7400.00
03427              14.00    -7200.00
03428              12.00    -7000.00
03429               8.00    -6800.00
03430              12.00    -6600.00
03431              12.00    -6400.00
03432              12.00    -6400.00
03433              12.00    -6000.00
03434              10.00    -6000.00
03435               6.00    -5800.00
03436               6.00    -5400.00
03437               6.00    -5400.00
03438               8.00    -5200.00
03439              12.00    -5200.00
03440               8.00    -5000.00
03441               6.00    -4800.00
03442               0.00    -4600.00
03443               4.00    -4400.00
03444               4.00    -4200.00
03445               6.00    -4000.00
03446               6.00    -3800.00
03447               6.00    -3800.00
03448               4.00    -3600.00
03449               0.00    -3400.00
03450              -2.00    -3200.00
03451               0.00    -3000.00
03452               4.00    -2800.00
03453               0.00    -2600.00
03454              -2.00    -2400.00
03455              -4.00    -2400.00
03456              -4.00    -2000.00
03457              -4.00    -1800.00
03458              -2.00    -1600.00
03459              -2.00    -1600.00
03460              -2.00    -1200.00
03461              -4.00    -1200.00
03462              -8.00    -1000.00
03463              -8.00     -600.00
03464              -8.00     -400.00
03465              -4.00     -400.00
03466              -2.00     -400.00
03467              -4.00        0.00
03468              -2.00      200.00
03469              14.00      600.00
03470              18.00      600.00
03471             -10.00      600.00
03472             -20.00     1000.00
03473              -2.00     1200.00
03474              10.00     1200.00
03475              40.00     1400.00
03476             252.00     2000.00
03477             190.00     2200.00
03478            -248.00     2200.00
03479            -248.00     2400.00
03480             -82.00     2400.00
03481             252.00     2800.00
03482             252.00     2800.00
03483            -246.00     2800.00
03484            -248.00     3200.00
03485             252.00     3200.00
03486             252.00     3600.00
03487            -248.00     3800.00
03488              70.00     3600.00
03489             252.00     4400.00
03490            -248.00     4600.00
03491             114.00     3800.00
03492             -18.00     5000.00
03493            -210.00     5200.00
03494             238.00     4400.00
03495            -108.00     5600.00
03496             -82.00     5200.00
03497              86.00     5000.00
03498            -160.00     6400.00
03499              66.00     5600.00
03500              54.00     5600.00
03501             -92.00     6800.00
03502             -74.00     6000.00
03503             -32.00     6400.00
03504             122.00     6800.00
03505            -144.00     6400.00
03506             -54.00     7000.00
03507             126.00     7000.00
03508            -186.00     7400.00
03509              12.00     7200.00
03510              54.00     7600.00
03511            -122.00     7800.00
03512              46.00     7600.00
03513             -34.00     8200.00
03514             -92.00     8000.00
03515             -10.00     8000.00
03516              22.00     8800.00
03517             -40.00     8400.00
03518             -82.00     8600.00
03519              24.00     8800.00
03520             -66.00     8800.00
03521             -44.00     9200.00
03522              46.00     9200.00
03523             -96.00     9400.00
03524             -36.00     9200.00
03525              28.00     9400.00
03526             -66.00     9600.00
03527             -42.00     9400.00
03528             -16.00    10000.00
03529             -40.00     9800.00
03530             -30.00    10000.00
03531             -18.00    10200.00
03532             -56.00    10200.00
03533             -40.00    10400.00
03534               4.00    10400.00
03535             -58.00    10400.00
03536             -48.00    10400.00
03537              -4.00    10600.00
03538             -50.00    10800.00
03539             -36.00    10800.00
03540             -12.00    11000.00
03541             -58.00    10800.00
03542             -48.00    11000.00
03543              -8.00    11200.00
03544             -36.00    11200.00
03545             -50.00    11000.00
03546             -28.00    11200.00
03547             -42.00    11200.00
03548             -42.00    11200.00
03549             -24.00    11200.00
03550             -40.00    11400.00
03551             -42.00    11400.00
03552             -28.00    11600.00
03553             -44.00    11400.00
03554             -42.00    11400.00
03555             -28.00    11600.00
03556             -42.00    11600.00
03557             -36.00    11600.00
03558             -28.00    11600.00
03559             -44.00    11600.00
03560             -46.00    11600.00
03561             -28.00    11600.00
03562             -38.00    11600.00
03563             -40.00    11600.00
03564             -28.00    11600.00
03565             -42.00    11600.00
03566             -42.00    11600.00
03567             -32.00    11600.00
03568             -36.00    11400.00
03569             -42.00    11600.00
03570             -32.00    11600.00
03571             -36.00    11600.00
03572             -40.00    11600.00
03573             -34.00    11600.00
03574             -42.00    11600.00
03575             -38.00    11200.00
03576             -28.00    11200.00
03577             -34.00    11400.00
03578             -36.00    11200.00
03579             -34.00    11200.00
03580             -36.00    11200.00
03581             -40.00    11000.00
03582             -32.00    11000.00
03583             -34.00    10800.00
03584             -36.00    10800.00
03585             -34.00    10600.00
03586             -34.00    10600.00
03587             -36.00    10800.00
03588             -34.00    10400.00
03589             -34.00    10400.00
03590             -32.00    10400.00
03591             -28.00    10200.00
03592             -34.00    10200.00
03593             -36.00    10000.00
03594             -30.00    10000.00
03595             -34.00    10000.00
03596             -32.00     9800.00
03597             -26.00     9600.00
03598             -28.00     9600.00
03599             -34.00     9600.00
03600             -28.00     9400.00
03601             -28.00     9400.00
03602             -30.00     9200.00
03603             -26.00     9200.00
03604             -26.00     8800.00
03605             -28.00     8800.00
03606             -26.00     8600.00
03607             -28.00     8600.00
03608             -26.00     8400.00
03609             -24.00     8400.00
03610             -20.00     8200.00
03611             -26.00     8000.00
03612             -24.00     8000.00
03613             -26.00     7800.00
03614             -26.00     7600.00
03615             -20.00     7600.00
03616             -22.00     7200.00
03617             -24.00     7200.00
03618             -18.00     6800.00
03619             -20.00     6800.00
03620             -24.00     6600.00
03621             -26.00     6400.00
03622             -18.00     6400.00
03623             -20.00     6200.00
03624             -16.00     6000.00
03625             -18.00     5800.00
03626             -18.00     5600.00
03627             -20.00     5600.00
03628             -18.00     5400.00
03629             -16.00     5200.00
03630             -16.00     5200.00
03631             -16.00     4800.00
03632             -16.00     4800.00
03633             -12.00     4600.00
03634             -16.00     4400.00
03635             -12.00     4000.00
03636             -10.00     4000.00
03637             -10.00     3800.00
03638             -12.00     3600.00
03639             -10.00     3600.00
03640             -10.00     3600.00
03641             -12.00     3000.00
03642             -10.00     2800.00
03643              -6.00     2600.00
03644              -8.00     2400.00
03645              -8.00     2400.00
03646              -4.00     2200.00
03647              -8.00     2000.00
03648              -8.00     2000.00
03649              -8.00     1600.00
03650              -4.00     1600.00
03651              -2.00     1400.00
03652              -2.00     1200.00
03653              -4.00      800.00
03654              -4.00      600.00
03655              -2.00      400.00
03656               0.00      400.00
03657               4.00        0.00
03658               6.00     -200.00
03659               6.00     -400.00
03660              14.00     -400.00
03661              32.00     -600.00
03662              10.00     -800.00
03663              -8.00     -800.00
03664               6.00    -1200.00
03665              22.00    -1200.00
03666              28.00    -1600.00
03667              88.00    -1600.00
03668             252.00    -2000.00
03669             118.00    -2600.00
03670            -248.00    -2600.00
03671            -248.00    -2800.00
03672              18.00    -2800.00
03673             166.00    -2600.00
03674             252.00    -3000.00
03675              56.00    -3600.00
03676            -248.00    -3000.00
03677             188.00    -3600.00
03678             252.00    -4200.00
03679            -248.00    -3400.00
03680            -220.00    -4400.00
03681             216.00    -4600.00
03682              44.00    -4000.00
03683              80.00    -5200.00
03684             -68.00    -5000.00
03685            -114.00    -4600.00
03686             118.00    -5400.00
03687              94.00    -5200.00
03688              36.00    -5400.00
03689             -92.00    -5800.00
03690             -58.00    -5800.00
03691             196.00    -6000.00
03692              56.00    -6200.00
03693             -90.00    -6400.00
03694              -8.00    -6400.00
03695              52.00    -6600.00
03696              98.00    -7000.00
03697               8.00    -7200.00
03698             -50.00    -7200.00
03699              22.00    -7400.00
03700              76.00    -7400.00
03701              44.00    -7800.00
03702             -28.00    -7600.00
03703              36.00    -7800.00
03704              54.00    -8200.00
03705              12.00    -8000.00
03706              30.00    -8400.00
03707              -4.00    -8400.00
03708              40.00    -8800.00
03709              84.00    -8800.00
03710              -8.00    -9000.00
03711              -4.00    -9200.00
03712              44.00    -9000.00
03713              38.00    -9400.00
03714              36.00    -9400.00
03715              30.00    -9400.00
03716              12.00    -9800.00
03717              36.00    -9600.00
03718              56.00    -9800.00
03719              14.00   -10000.00
03720              10.00   -10000.00
03721              54.00   -10200.00
03722              38.00   -10400.00
03723              26.00   -10400.00
03724              32.00   -10400.00
03725              20.00   -10600.00
03726              32.00   -10600.00
03727              44.00   -10800.00
03728              28.00   -10600.00
03729              30.00   -10800.00
03730              42.00   -10800.00
03731              32.00   -11000.00
03732              22.00   -11000.00
03733              36.00   -10800.00
03734              30.00   -11200.00
03735              38.00   -11200.00
03736              46.00   -11200.00
03737              24.00   -11400.00
03738              22.00   -11400.00
03739              38.00   -11400.00
03740              36.00   -11400.00
03741              32.00   -11400.00
03742              42.00   -11200.00
03743              36.00   -11600.00
03744              28.00   -11600.00
03745              32.00   -11600.00
03746              30.00   -11600.00
03747              30.00   -11600.00
03748              42.00   -11600.00
03749              38.00   -11600.00
03750              28.00   -11600.00
03751              30.00   -11800.00
03752              30.00   -11800.00
03753              28.00   -11600.00
03754              36.00   -11800.00
03755              34.00   -11600.00
03756              30.00   -11600.00
03757              36.00   -11600.00
03758              28.00   -11600.00
03759              24.00   -11600.00
03760              32.00   -11600.00
03761              36.00   -11600.00
03762              34.00   -11400.00
03763              32.00   -11600.00
03764              28.00   -11600.00
03765              26.00   -11600.00
03766              28.00   -11600.00
03767              30.00   -11400.00
03768              32.00   -11400.00
03769              32.00   -11400.00
03770              28.00   -11200.00
03771              28.00   -11200.00
03772              24.00   -11200.00
03773              28.00   -11200.00
03774              28.00   -11000.00
03775              32.00   -11000.00
03776              32.00   -10800.00
03777              24.00   -10600.00
03778              24.00   -10800.00
03779              24.00   -10800.00
03780              24.00   -10600.00
03781              28.00   -10400.00
03782              30.00   -10400.00
03783              28.00   -10400.00
03784              24.00   -10200.00
03785              22.00   -10000.00
03786              22.00   -10000.00
03787              26.00    -9800.00
03788              30.00    -9800.00
03789              28.00    -9600.00
03790              24.00    -9600.00
03791              22.00    -9600.00
03792              20.00    -9600.00
03793              22.00    -9200.00
03794              24.00    -9200.00
03795              24.00    -9200.00
03796              22.00    -9000.00
03797              20.00    -8800.00
03798              18.00    -8800.00
03799              16.00    -8600.00
03800              20.00    -8600.00
03801              20.00    -8200.00
03802              20.00    -8200.00
03803              22.00    -8000.00
03804              16.00    -8000.00
03805              14.00    -7800.00
03806              14.00    -7600.00
03807              16.00    -7600.00
03808              16.00    -7400.00
03809              14.00    -7200.00
03810              14.00    -7200.00
03811              10.00    -6800.00
03812              12.00    -6800.00
03813              12.00    -6600.00
03814              12.00    -6600.00
03815              14.00    -6200.00
03816              10.00    -6200.00
03817              10.00    -6000.00
03818               6.00    -5600.00
03819               6.00    -5400.00
03820               8.00    -5400.00
03821               8.00    -5200.00
03822              12.00    -5000.00
03823               6.00    -4800.00
03824               6.00    -4800.00
03825               2.00    -4600.00
03826               4.00    -4400.00
03827               4.00    -4400.00
03828               4.00    -4000.00
03829               6.00    -3800.00
03830               4.00    -3600.00
03831              -2.00    -3600.00
03832               0.00    -3200.00
03833              -2.00    -3200.00
03834               2.00    -3000.00
03835               4.00    -2800.00
03836               4.00    -2600.00
03837              -2.00    -2600.00
03838              -4.00    -2200.00
03839              -4.00    -2000.00
03840              -2.00    -1800.00
03841              -2.00    -1600.00
03842              -4.00    -1400.00
03843              -4.00    -1200.00
03844              -8.00    -1200.00
03845             -10.00     -800.00
03846              -8.00     -800.00
03847              -8.00     -400.00
03848              -4.00     -400.00
03849              -4.00     -200.00
03850              -4.00        0.00
03851              -2.00      400.00
03852              20.00      400.00
03853              12.00      600.00
03854             -16.00     1000.00
03855             -20.00     1000.00
03856               4.00     1200.00
03857              12.00     1200.00
03858              80.00     1400.00
03859             252.00     1800.00
03860              36.00     2000.00
03861            -248.00     2400.00
03862            -248.00     2400.00
03863               4.00     2400.00
03864             252.00     3000.00
03865             252.00     2800.00
03866            -248.00     2800.00
03867            -248.00     3400.00
03868             252.00     3200.00
03869             238.00     3800.00
03870            -248.00     3800.00
03871             252.00     3600.00
03872             180.00     4600.00
03873            -248.00     4200.00
03874             204.00     4000.00
03875            -176.00     5200.00
03876             -64.00     4600.00
03877             214.00     4800.00
03878            -196.00     5800.00
03879              28.00     4800.00
03880               6.00     5400.00
03881            -140.00     6200.00
03882             126.00     5200.00
03883             -14.00     6200.00
03884             -84.00     6400.00
03885             -82.00     6000.00
03886              30.00     7000.00
03887              78.00     6800.00
03888            -196.00     6600.00
03889              56.00     7200.00
03890              44.00     7000.00
03891            -192.00     7400.00
03892              92.00     7400.00
03893             -26.00     7800.00
03894             -88.00     7600.00
03895              60.00     7600.00
03896             -78.00     8400.00
03897             -68.00     7800.00
03898               0.00     8400.00
03899              20.00     8600.00
03900             -66.00     8200.00
03901             -56.00     8800.00
03902              20.00     8800.00
03903             -92.00     8800.00
03904               2.00     9200.00
03905              14.00     9200.00
03906            -112.00     9400.00
03907               6.00     9200.00
03908               0.00     9600.00
03909             -74.00     9600.00
03910             -28.00     9600.00
03911             -22.00    10000.00
03912             -42.00     9600.00
03913             -26.00    10000.00
03914             -26.00    10200.00
03915             -60.00    10200.00
03916             -24.00    10400.00
03917              -8.00    10200.00
03918             -68.00    10400.00
03919             -26.00    10400.00
03920             -14.00    10800.00
03921             -56.00    10800.00
03922             -20.00    10800.00
03923             -28.00    11000.00
03924             -66.00    10800.00
03925             -28.00    11000.00
03926              -8.00    11200.00
03927             -46.00    11200.00
03928             -44.00    11200.00
03929             -28.00    11200.00
03930             -44.00    11200.00
03931             -34.00    11200.00
03932             -24.00    11400.00
03933             -48.00    11400.00
03934             -36.00    11400.00
03935             -28.00    11600.00
03936             -44.00    11400.00
03937             -36.00    11600.00
03938             -32.00    11600.00
03939             -42.00    11600.00
03940             -32.00    11600.00
03941             -28.00    11600.00
03942             -52.00    11600.00
03943             -42.00    11600.00
03944             -28.00    11600.00
03945             -42.00    11600.00
03946             -36.00    11600.00
03947             -32.00    11600.00
03948             -42.00    11600.00
03949             -40.00    11600.00
03950             -34.00    11600.00
03951             -40.00    11400.00
03952             -40.00    11600.00
03953             -34.00    11600.00
03954             -40.00    11400.00
03955             -40.00    11400.00
03956             -36.00    11400.00
03957             -42.00    11200.00
03958             -36.00    11400.00
03959             -28.00    11200.00
03960             -36.00    11200.00
03961             -36.00    11200.00
03962             -34.00    11200.00
03963             -42.00    11000.00
03964             -36.00    11200.00
03965             -26.00    11000.00
03966             -34.00    11000.00
03967             -36.00    10800.00
03968             -32.00    10600.00
03969             -34.00    10800.00
03970             -36.00    10600.00
03971             -34.00    10400.00
03972             -30.00    10400.00
03973             -32.00    10200.00
03974             -28.00    10200.00
03975             -34.00    10200.00
03976             -34.00    10000.00
03977             -28.00    10000.00
03978             -32.00    10000.00
03979             -26.00     9600.00
03980             -26.00     9800.00
03981             -30.00     9600.00
03982             -28.00     9400.00
03983             -26.00     9200.00
03984             -28.00     9200.00
03985             -28.00     9200.00
03986             -24.00     8800.00
03987             -26.00     8800.00
03988             -26.00     8800.00
03989             -26.00     8600.00
03990             -26.00     8400.00
03991             -26.00     8400.00
03992             -22.00     8400.00
03993             -22.00     8000.00
03994             -24.00     8000.00
03995             -26.00     7800.00
03996             -26.00     7600.00
03997             -24.00     7600.00
03998             -20.00     7200.00
03999             -24.00     7400.00
04000             -20.00     7200.00
04001             -18.00     6800.00
04002             -22.00     6800.00
04003             -24.00     6600.00
04004             -20.00     6400.00
04005             -18.00     6200.00
04006             -20.00     6000.00
04007             -16.00     6000.00
04008             -18.00     5800.00
04009             -18.00     5800.00
04010             -18.00     5600.00
04011             -18.00     5200.00
04012             -12.00     5200.00
04013             -16.00     5200.00
04014             -16.00     4800.00
04015             -12.00     4600.00
04016             -14.00     4600.00
04017             -18.00     4400.00
04018             -12.00     4000.00
04019             -10.00     3800.00
04020             -10.00     3600.00
04021             -10.00     3600.00
04022             -12.00     3400.00
04023             -10.00     3200.00
04024             -10.00     3000.00
04025              -8.00     2800.00
04026              -4.00     2800.00
04027              -8.00     2600.00
04028             -10.00     2400.00
04029              -8.00     2200.00
04030              -8.00     2000.00
04031              -8.00     1600.00
04032              -4.00     1400.00
04033              -2.00     1200.00
04034              -2.00     1200.00
04035              -4.00     1000.00
04036              -2.00      800.00
04037              -2.00      600.00
04038              -2.00      400.00
04039               0.00      200.00
04040               4.00        0.00
04041               6.00     -200.00
04042               6.00     -400.00
04043              22.00     -400.00
04044              30.00     -800.00
04045               2.00    -1000.00
04046             -10.00     -800.00
04047              12.00    -1200.00
04048              22.00    -1200.00
04049              32.00    -1600.00
04050             140.00    -1600.00
04051             252.00    -2000.00
04052             -26.00    -2600.00
04053            -248.00    -2600.00
04054            -248.00    -3000.00
04055              72.00    -2800.00
04056             246.00    -2400.00
04057             252.00    -3200.00
04058            -248.00    -3600.00
04059            -248.00    -2800.00
04060             252.00    -4000.00
04061             252.00    -4000.00
04062            -248.00    -3400.00
04063             -34.00    -4600.00
04064             200.00    -4200.00
04065              28.00    -4200.00
04066              76.00    -5200.00
04067            -134.00    -4800.00
04068             -40.00    -5000.00
04069             140.00    -5400.00
04070              70.00    -5200.00
04071              14.00    -5600.00
04072            -124.00    -5800.00
04073              22.00    -5600.00
04074             204.00    -6200.00
04075             -16.00    -6400.00
04076             -76.00    -6400.00
04077              12.00    -6400.00
04078              70.00    -6800.00
04079              92.00    -7200.00
04080             -28.00    -7000.00
04081             -36.00    -7400.00
04082              46.00    -7400.00
04083              76.00    -7400.00
04084              18.00    -8000.00
04085             -24.00    -8000.00
04086              56.00    -8000.00
04087              40.00    -8200.00
04088              20.00    -8200.00
04089              20.00    -8400.00
04090             -10.00    -8400.00
04091              64.00    -8800.00
04092              70.00    -8800.00
04093             -18.00    -9000.00
04094               8.00    -9200.00
04095              40.00    -9000.00
04096              38.00    -9400.00
04097              38.00    -9400.00
04098              28.00    -9400.00
04099              14.00    -9600.00
04100              38.00    -9800.00
04101              46.00    -9800.00
04102               6.00   -10000.00
04103              24.00   -10000.00
04104              54.00   -10200.00
04105              30.00   -10400.00
04106              28.00   -10400.00
04107              30.00   -10400.00
04108              24.00   -10400.00
04109              38.00   -10600.00
04110              44.00   -10600.00
04111              24.00   -10800.00
04112              32.00   -10800.00
04113              40.00   -10800.00
04114              28.00   -11000.00
04115              24.00   -11000.00
04116              32.00   -11000.00
04117              32.00   -11200.00
04118              44.00   -11200.00
04119              44.00   -11200.00
04120              22.00   -11400.00
04121              28.00   -11400.00
04122              38.00   -11200.00
04123              32.00   -11400.00
04124              36.00   -11400.00
04125              40.00   -11600.00
04126              32.00   -11600.00
04127              28.00   -11600.00
04128              32.00   -11600.00
04129              30.00   -11600.00
04130              36.00   -11600.00
04131              44.00   -11600.00
04132              38.00   -11800.00
04133              28.00   -11600.00
04134              30.00   -11600.00
04135              28.00   -11600.00
04136              32.00   -11600.00
04137              38.00   -11800.00
04138              34.00   -11600.00
04139              32.00   -11600.00
04140              32.00   -11600.00
04141              28.00   -11800.00
04142              28.00   -11600.00
04143              36.00   -11600.00
04144              32.00   -11600.00
04145              34.00   -11600.00
04146              32.00   -11600.00
04147              28.00   -11600.00
04148              24.00   -11600.00
04149              30.00   -11600.00
04150              30.00   -11400.00
04151              36.00   -11200.00
04152              32.00   -11400.00
04153              30.00   -11400.00
04154              24.00   -11200.00
04155              28.00   -11200.00
04156              28.00   -11200.00
04157              30.00   -10800.00
04158              32.00   -11000.00
04159              28.00   -10800.00
04160              24.00   -10800.00
04161              24.00   -10800.00
04162              24.00   -10600.00
04163              28.00   -10600.00
04164              30.00   -10400.00
04165              28.00   -10400.00
04166              28.00   -10400.00
04167              24.00   -10400.00
04168              22.00   -10200.00
04169              28.00   -10000.00
04170              24.00    -9800.00
04171              28.00   -10000.00
04172              28.00    -9800.00
04173              24.00    -9600.00
04174              20.00    -9600.00
04175              20.00    -9400.00
04176              22.00    -9200.00
04177              24.00    -9200.00
04178              24.00    -9000.00
04179              22.00    -9000.00
04180              20.00    -8800.00
04181              18.00    -8800.00
04182              20.00    -8400.00
04183              20.00    -8600.00
04184              24.00    -8200.00
04185              22.00    -8200.00
04186              20.00    -8000.00
04187              16.00    -8000.00
04188              14.00    -7800.00
04189              14.00    -7600.00
04190              16.00    -7600.00
04191              20.00    -7200.00
04192              16.00    -7200.00
04193              14.00    -7200.00
04194              12.00    -6800.00
04195              12.00    -6600.00
04196              12.00    -6600.00
04197              14.00    -6400.00
04198              14.00    -6200.00
04199              12.00    -6000.00
04200               8.00    -5800.00
04201               6.00    -5800.00
04202               6.00    -5400.00
04203               6.00    -5200.00
04204               8.00    -5200.00
04205               8.00    -5000.00
04206               6.00    -4800.00
04207               6.00    -4800.00
04208               4.00    -4400.00
04209               4.00    -4400.00
04210               6.00    -4200.00
04211               6.00    -4000.00
04212               4.00    -3600.00
04213               4.00    -3600.00
04214               0.00    -3400.00
04215              -2.00    -3200.00
04216              -2.00    -3200.00
04217               2.00    -3000.00
04218               2.00    -2800.00
04219               2.00    -2600.00
04220              -2.00    -2400.00
04221              -4.00    -2200.00
04222              -8.00    -2000.00
04223              -4.00    -1800.00
04224               0.00    -1600.00
04225              -4.00    -1400.00
04226              -4.00    -1200.00
04227              -6.00    -1000.00
04228              -8.00     -800.00
04229              -6.00     -600.00
04230              -4.00     -400.00
04231              -4.00     -200.00
04232              -4.00     -200.00
04233              -4.00        0.00
04234               2.00      400.00
04235              22.00      400.00
04236               4.00     1000.00
04237             -20.00      800.00
04238             -10.00     1000.00
04239               6.00     1200.00
04240              14.00     1200.00
04241             142.00     1600.00
04242             252.00     2000.00
04243            -154.00     2000.00
04244            -248.00     2200.00
04245            -240.00     2400.00
04246             102.00     2400.00
04247             252.00     3000.00
04248             252.00     2800.00
04249            -248.00     3000.00
04250            -170.00     3200.00
04251             252.00     3200.00
04252            -248.00     4000.00
04253            -248.00     3600.00
04254             252.00     3800.00
04255            -112.00     4600.00
04256            -154.00     4000.00
04257             182.00     4600.00
04258            -248.00     5200.00
04259             100.00     4400.00
04260             102.00     5200.00
04261            -202.00     5600.00
04262              98.00     4800.00
04263             -84.00     6000.00
04264             -64.00     6200.00
04265             130.00     5400.00
04266             -66.00     6400.00
04267             -72.00     6200.00
04268             -74.00     6000.00
04269              88.00     7000.00
04270              -4.00     6400.00
04271            -180.00     6800.00
04272             132.00     7200.00
04273             -66.00     7200.00
04274            -132.00     7400.00
04275             116.00     7400.00
04276             -96.00     8000.00
04277             -26.00     7600.00
04278              32.00     8000.00
04279            -100.00     8400.00
04280             -42.00     7800.00
04281              12.00     8600.00
04282               4.00     8400.00
04283             -88.00     8400.00
04284             -18.00     9200.00
04285              -6.00     8600.00
04286             -92.00     9000.00
04287              36.00     9000.00
04288             -36.00     9200.00
04289             -96.00     9400.00
04290              28.00     9400.00
04291             -36.00     9600.00
04292             -68.00     9600.00
04293             -18.00     9600.00
04294             -32.00    10000.00
04295             -36.00    10000.00
04296             -20.00    10200.00
04297             -36.00    10000.00
04298             -60.00    10200.00
04299              -8.00    10400.00
04300             -28.00    10400.00
04301             -68.00    10400.00
04302             -12.00    10400.00
04303             -28.00    10800.00
04304             -56.00    10800.00
04305             -16.00    10800.00
04306             -40.00    11000.00
04307             -64.00    10800.00
04308             -18.00    11000.00
04309             -20.00    11000.00
04310             -50.00    11000.00
04311             -36.00    11200.00
04312             -34.00    11200.00
04313             -50.00    11200.00
04314             -26.00    11200.00
04315             -28.00    11200.00
04316             -44.00    11200.00
04317             -32.00    11600.00
04318             -34.00    11600.00
04319             -46.00    11600.00
04320             -32.00    11600.00
04321             -34.00    11600.00
04322             -42.00    11600.00
04323             -26.00    11600.00
04324             -32.00    11600.00
04325             -50.00    11600.00
04326             -36.00    11600.00
04327             -32.00    11600.00
04328             -42.00    11600.00
04329             -28.00    11600.00
04330             -32.00    11600.00
04331             -44.00    11600.00
04332             -36.00    11600.00
04333             -34.00    11600.00
04334             -40.00    11400.00
04335             -36.00    11600.00
04336             -32.00    11400.00
04337             -38.00    11400.00
04338             -34.00    11400.00
04339             -36.00    11400.00
04340             -42.00    11400.00
04341             -32.00    11200.00
04342             -30.00    11200.00
04343             -36.00    11200.00
04344             -34.00    11200.00
04345             -34.00    11000.00
04346             -42.00    11000.00
04347             -34.00    11000.00
04348             -28.00    10800.00
04349             -36.00    10800.00
04350             -36.00    10600.00
04351             -32.00    10600.00
04352             -36.00    10400.00
04353             -34.00    10400.00
04354             -34.00    10400.00
04355             -32.00    10400.00
04356             -30.00    10400.00
04357             -32.00    10200.00
04358             -34.00    10200.00
04359             -34.00    10000.00
04360             -32.00    10000.00
04361             -28.00     9800.00
04362             -26.00     9800.00
04363             -26.00     9600.00
04364             -34.00     9600.00
04365             -32.00     9400.00
04366             -28.00     9200.00
04367             -32.00     9200.00
04368             -26.00     9000.00
04369             -24.00     9000.00
04370             -26.00     8800.00
04371             -26.00     8800.00
04372             -26.00     8600.00
04373             -26.00     8400.00
04374             -26.00     8400.00
04375             -20.00     8200.00
04376             -24.00     8000.00
04377             -24.00     8000.00
04378             -26.00     7800.00
04379             -26.00     7600.00
04380             -20.00     7600.00
04381             -20.00     7200.00
04382             -20.00     7200.00
04383             -18.00     7000.00
04384             -18.00     7000.00
04385             -26.00     6800.00
04386             -24.00     6600.00
04387             -18.00     6400.00
04388             -16.00     6200.00
04389             -20.00     6000.00
04390             -18.00     6000.00
04391             -18.00     6000.00
04392             -18.00     5600.00
04393             -18.00     5600.00
04394             -16.00     5200.00
04395             -10.00     5000.00
04396             -16.00     5000.00
04397             -16.00     4800.00
04398             -12.00     4600.00
04399             -14.00     4400.00
04400             -16.00     4200.00
04401             -12.00     4000.00
04402             -10.00     3800.00
04403             -10.00     3800.00
04404             -10.00     3600.00
04405             -12.00     3200.00
04406             -12.00     3200.00
04407             -10.00     3000.00
04408              -8.00     2800.00
04409              -8.00     2600.00
04410              -8.00     2400.00
04411             -10.00     2200.00
04412              -8.00     2000.00
04413              -8.00     2000.00
04414              -8.00     1600.00
04415              -4.00     1400.00
04416              -4.00     1400.00
04417              -4.00     1200.00
04418              -4.00     1000.00
04419              -4.00      800.00
04420              -2.00      600.00
04421              -4.00      200.00
04422               0.00        0.00
04423               4.00        0.00
04424               4.00     -200.00
04425               6.00     -400.00
04426              28.00     -600.00
04427              22.00     -800.00
04428              -4.00    -1000.00
04429              -6.00    -1200.00
04430              16.00    -1400.00
04431              24.00    -1400.00
04432              40.00    -1600.00
04433             196.00    -1600.00
04434             252.00    -2200.00
04435            -186.00    -2600.00
04436            -248.00    -2600.00
04437            -124.00    -2800.00
04438             100.00    -2600.00
04439             252.00    -2600.00
04440             252.00    -3600.00
04441            -248.00    -3200.00
04442            -248.00    -3000.00
04443             252.00    -4400.00
04444             120.00    -3600.00
04445            -248.00    -3600.00
04446             120.00    -4800.00
04447             136.00    -4000.00
04448              40.00    -4400.00
04449              36.00    -5200.00
04450            -154.00    -4600.00
04451              38.00    -5200.00
04452             128.00    -5600.00
04453              56.00    -5200.00
04454             -20.00    -5800.00
04455            -126.00    -5800.00
04456             112.00    -5800.00
04457             164.00    -6200.00
04458             -66.00    -6400.00
04459             -48.00    -6600.00
04460              32.00    -6600.00
04461              86.00    -7000.00
04462              64.00    -7000.00
04463             -48.00    -7000.00
04464             -12.00    -7400.00
04465              60.00    -7400.00
04466              70.00    -7600.00
04467              -6.00    -7800.00
04468              -4.00    -7800.00
04469              70.00    -8200.00
04470              26.00    -8200.00
04471              24.00    -8400.00
04472               6.00    -8400.00
04473               4.00    -8600.00
04474              86.00    -8800.00
04475              40.00    -8800.00
04476             -20.00    -9000.00
04477              22.00    -9000.00
04478              44.00    -9200.00
04479              38.00    -9600.00
04480              36.00    -9400.00
04481              22.00    -9600.00
04482              18.00    -9800.00
04483              46.00    -9600.00
04484              38.00   -10000.00
04485               2.00   -10000.00
04486              38.00   -10000.00
04487              48.00   -10000.00
04488              26.00   -10200.00
04489              30.00   -10400.00
04490              28.00   -10400.00
04491              26.00   -10600.00
04492              42.00   -10400.00
04493              36.00   -10600.00
04494              24.00   -10800.00
04495              38.00   -10800.00
04496              38.00   -10800.00
04497              22.00   -11200.00
04498              28.00   -11000.00
04499              32.00   -11000.00
04500              34.00   -11200.00
04501              46.00   -11200.00
04502              38.00   -11200.00
04503              22.00   -11400.00
04504              32.00   -11400.00
04505              38.00   -11400.00
04506              32.00   -11600.00
04507              38.00   -11400.00
04508              40.00   -11400.00
04509              30.00   -11600.00
04510              28.00   -11800.00
04511              34.00   -11600.00
04512              30.00   -11600.00
04513              38.00   -11600.00
04514              42.00   -11600.00
04515              36.00   -11800.00
04516              30.00   -11600.00
04517              30.00   -11600.00
04518              30.00   -11600.00
04519              36.00   -11600.00
04520              40.00   -11600.00
04521              36.00   -11600.00
04522              36.00   -11600.00
04523              32.00   -11600.00
04524              28.00   -11600.00
04525              32.00   -11600.00
04526              36.00   -11600.00
04527              36.00   -11600.00
04528              36.00   -11600.00
04529              32.00   -11600.00
04530              28.00   -11400.00
04531              28.00   -11400.00
04532              30.00   -11400.00
04533              28.00   -11400.00
04534              36.00   -11400.00
04535              36.00   -11200.00
04536              30.00   -11200.00
04537              28.00   -11200.00
04538              24.00   -11000.00
04539              28.00   -11200.00
04540              32.00   -11000.00
04541              32.00   -10800.00
04542              26.00   -10800.00
04543              22.00   -10800.00
04544              28.00   -10600.00
04545              26.00   -10600.00
04546              30.00   -10600.00
04547              32.00   -10600.00
04548              28.00   -10400.00
04549              22.00   -10000.00
04550              22.00   -10200.00
04551              22.00   -10000.00
04552              22.00   -10000.00
04553              24.00   -10000.00
04554              28.00    -9800.00
04555              26.00    -9600.00
04556              24.00    -9600.00
04557              20.00    -9400.00
04558              20.00    -9200.00
04559              22.00    -9200.00
04560              24.00    -9000.00
04561              24.00    -9000.00
04562              22.00    -9000.00
04563              20.00    -8800.00
04564              16.00    -8400.00
04565              20.00    -8400.00
04566              20.00    -8200.00
04567              22.00    -8200.00
04568              20.00    -8200.00
04569              16.00    -8000.00
04570              16.00    -8000.00
04571              14.00    -7600.00
04572              14.00    -7400.00
04573              20.00    -7200.00
04574              16.00    -7200.00
04575              16.00    -7200.00
04576              12.00    -6800.00
04577              12.00    -6800.00
04578              10.00    -6600.00
04579              12.00    -6400.00
04580              16.00    -6400.00
04581              14.00    -6000.00
04582              12.00    -6000.00
04583              10.00    -5800.00
04584               8.00    -5400.00
04585               8.00    -5400.00
04586               8.00    -5200.00
04587              10.00    -5200.00
04588               8.00    -5000.00
04589               6.00    -4800.00
04590               6.00    -4800.00
04591               4.00    -4400.00
04592               6.00    -4400.00
04593               6.00    -4200.00
04594               0.00    -4000.00
04595               2.00    -3600.00
04596               6.00    -3600.00
04597               0.00    -3400.00
04598               0.00    -3200.00
04599              -2.00    -3200.00
04600              -6.00    -2800.00
04601               2.00    -2600.00
04602               4.00    -2600.00
04603              -4.00    -2400.00
04604              -6.00    -2000.00
04605              -8.00    -1800.00
04606              -8.00    -1600.00
04607               2.00    -1600.00
04608               0.00    -1200.00
04609              -8.00    -1200.00
04610             -10.00    -1000.00
04611              -8.00     -800.00
04612             -10.00     -400.00
04613              -4.00     -400.00
04614              -2.00     -200.00
04615              -8.00     -200.00
04616              -6.00        0.00
04617               8.00      400.00
04618              20.00      400.00
04619              -6.00      600.00
04620             -20.00     1000.00
04621             -10.00     1000.00
04622               8.00     1200.00
04623              28.00     1400.00
04624             220.00     1800.00
04625             244.00     2000.00
04626            -248.00     2200.00
04627            -248.00     2400.00
04628            -130.00     2200.00
04629             212.00     2600.00
04630             252.00     3000.00
04631             -12.00     2800.00
04632            -248.00     3000.00
04633             252.00     3400.00
04634             252.00     3400.00
04635            -248.00     4000.00
04636            -116.00     3600.00
04637             252.00     4000.00
04638            -248.00     4800.00
04639              36.00     3800.00
04640              62.00     4800.00
04641            -248.00     5000.00
04642             214.00     4400.00
04643             -44.00     5400.00
04644            -126.00     5400.00
04645             102.00     4800.00
04646            -148.00     6400.00
04647              28.00     5600.00
04648              88.00     5600.00
04649             -92.00     6800.00
04650             -68.00     6000.00
04651             -50.00     6400.00
04652             120.00     7000.00
04653            -104.00     6400.00
04654            -100.00     7000.00
04655             150.00     7200.00
04656            -160.00     7400.00
04657             -34.00     7200.00
04658              86.00     7400.00
04659            -124.00     8000.00
04660              28.00     7600.00
04661             -10.00     8200.00
04662            -100.00     8000.00
04663             -20.00     7800.00
04664              20.00     8600.00
04665             -18.00     8400.00
04666             -90.00     8600.00
04667              14.00     8800.00
04668             -48.00     8800.00
04669             -66.00     9200.00
04670              52.00     9000.00
04671             -82.00     9200.00
04672             -56.00     9400.00
04673              32.00     9400.00
04674             -60.00     9600.00
04675             -50.00     9600.00
04676             -16.00    10000.00
04677             -34.00     9800.00
04678             -36.00    10000.00
04679             -20.00    10200.00
04680             -50.00    10000.00
04681             -50.00    10400.00
04682              -2.00    10400.00
04683             -50.00    10200.00
04684             -56.00    10400.00
04685              -4.00    10600.00
04686             -48.00    10800.00
04687             -44.00    10600.00
04688             -12.00    11000.00
04689             -52.00    11000.00
04690             -52.00    11000.00
04691             -10.00    11000.00
04692             -30.00    11200.00
04693             -52.00    11200.00
04694             -30.00    11200.00
04695             -38.00    11200.00
04696             -48.00    11200.00
04697             -24.00    11400.00
04698             -36.00    11400.00
04699             -42.00    11400.00
04700             -28.00    11400.00
04701             -40.00    11600.00
04702             -44.00    11400.00
04703             -28.00    11600.00
04704             -36.00    11600.00
04705             -40.00    11600.00
04706             -26.00    11600.00
04707             -42.00    11600.00
04708             -44.00    11600.00
04709             -32.00    11800.00
04710             -36.00    11600.00
04711             -42.00    11600.00
04712             -28.00    11600.00
04713             -36.00    11600.00
04714             -42.00    11600.00
04715             -34.00    11600.00
04716             -34.00    11600.00
04717             -40.00    11400.00
04718             -28.00    11600.00
04719             -34.00    11600.00
04720             -36.00    11400.00
04721             -34.00    11600.00
04722             -40.00    11400.00
04723             -40.00    11200.00
04724             -32.00    11200.00
04725             -32.00    11200.00
04726             -36.00    11200.00
04727             -32.00    11000.00
04728             -36.00    11000.00
04729             -40.00    11000.00
04730             -32.00    11000.00
04731             -30.00    11000.00
04732             -36.00    10800.00
04733             -34.00    10800.00
04734             -32.00    10600.00
04735             -36.00    10600.00
04736             -36.00    10400.00
04737             -30.00    10200.00
04738             -32.00    10400.00
04739             -28.00    10200.00
04740             -32.00    10200.00
04741             -36.00    10000.00
04742             -28.00    10000.00
04743             -32.00    10000.00
04744             -34.00     9800.00
04745             -20.00     9600.00
04746             -32.00     9600.00
04747             -36.00     9400.00
04748             -28.00     9400.00
04749             -28.00     9200.00
04750             -34.00     9200.00
04751             -26.00     8800.00
04752             -24.00     8800.00
04753             -34.00     8800.00
04754             -24.00     8600.00
04755             -24.00     8400.00
04756             -36.00     8400.00
04757             -22.00     8400.00
04758             -20.00     8000.00
04759             -26.00     8000.00
04760             -26.00     8000.00
04761             -24.00     7800.00
04762             -24.00     7600.00
04763             -26.00     7400.00
04764             -20.00     7400.00
04765             -20.00     7200.00
04766             -18.00     7000.00
04767             -20.00     7000.00
04768             -24.00     6600.00
04769             -22.00     6600.00
04770             -20.00     6400.00
04771             -20.00     6200.00
04772             -16.00     6000.00
04773             -16.00     6000.00
04774             -20.00     5600.00
04775             -20.00     5600.00
04776             -18.00     5400.00
04777             -16.00     5200.00
04778             -12.00     5200.00
04779             -16.00     5000.00
04780             -16.00     4800.00
04781             -12.00     4600.00
04782             -16.00     4400.00
04783             -10.00     4200.00
04784             -10.00     3800.00
04785             -12.00     3800.00
04786             -12.00     3600.00
04787             -12.00     3400.00
04788              -8.00     3200.00
04789             -10.00     3000.00
04790             -10.00     3000.00
04791              -8.00     2800.00
04792              -8.00     2400.00
04793              -8.00     2400.00
04794              -8.00     2200.00
04795              -8.00     2000.00
04796             -10.00     1800.00
04797              -8.00     1600.00
04798              -2.00     1400.00
04799              -2.00     1400.00
04800              -4.00     1000.00
04801              -4.00     1000.00
04802              -4.00      600.00
04803              -4.00      600.00
04804              -2.00      200.00
04805               0.00        0.00
04806               4.00     -200.00
04807               6.00     -200.00
04808              12.00     -400.00
04809              32.00     -600.00
04810              14.00    -1000.00
04811             -12.00    -1000.00
04812               0.00    -1200.00
04813              20.00    -1200.00
04814              22.00    -1400.00
04815              68.00    -1600.00
04816             252.00    -1800.00
04817             172.00    -2400.00
04818            -248.00    -2600.00
04819            -248.00    -2600.00
04820             -20.00    -2800.00
04821             132.00    -2600.00
04822             252.00    -2800.00
04823             196.00    -3800.00
04824            -248.00    -3000.00
04825              14.00    -3600.00
04826             252.00    -4400.00
04827            -208.00    -3400.00
04828            -248.00    -4200.00
04829             210.00    -4800.00
04830              68.00    -4000.00
04831              70.00    -4800.00
04832             -34.00    -5200.00
04833            -132.00    -4600.00
04834             100.00    -5400.00
04835             102.00    -5200.00
04836              44.00    -5200.00
04837             -64.00    -5800.00
04838             -84.00    -5800.00
04839             180.00    -5800.00
04840              94.00    -6000.00
04841             -90.00    -6400.00
04842             -18.00    -6400.00
04843              46.00    -6600.00
04844             100.00    -6800.00
04845              28.00    -6800.00
04846             -50.00    -7200.00
04847              14.00    -7400.00
04848              72.00    -7400.00
04849              54.00    -7600.00
04850             -20.00    -7800.00
04851              22.00    -7800.00
04852              68.00    -8200.00
04853              16.00    -8200.00
04854              28.00    -8200.00
04855              -6.00    -8400.00
04856              28.00    -8600.00
04857              90.00    -8800.00
04858              12.00    -8800.00
04859             -10.00    -9000.00
04860              30.00    -9200.00
04861              40.00    -9200.00
04862              40.00    -9600.00
04863              34.00    -9200.00
04864              16.00    -9600.00
04865              24.00    -9800.00
04866              52.00    -9800.00
04867              22.00   -10000.00
04868               8.00   -10000.00
04869              48.00   -10000.00
04870              44.00   -10000.00
04871              26.00   -10400.00
04872              30.00   -10400.00
04873              22.00   -10400.00
04874              30.00   -10600.00
04875              44.00   -10600.00
04876              30.00   -10800.00
04877              28.00   -10800.00
04878              42.00   -10800.00
04879              34.00   -10800.00
04880              22.00   -11000.00
04881              32.00   -11200.00
04882              32.00   -11200.00
04883              38.00   -11200.00
04884              48.00   -11200.00
04885              28.00   -11400.00
04886              22.00   -11400.00
04887              36.00   -11400.00
04888              38.00   -11400.00
04889              32.00   -11600.00
04890              38.00   -11400.00
04891              38.00   -11600.00
04892              28.00   -11600.00
04893              32.00   -11600.00
04894              32.00   -11600.00
04895              32.00   -11600.00
04896              40.00   -11600.00
04897              38.00   -11600.00
04898              32.00   -11600.00
04899              30.00   -11600.00
04900              30.00   -11600.00
04901              32.00   -11600.00
04902              38.00   -11600.00
04903              38.00   -11800.00
04904              36.00   -11600.00
04905              36.00   -11600.00
04906              32.00   -11600.00
04907              28.00   -11600.00
04908              32.00   -11600.00
04909              38.00   -11600.00
04910              36.00   -11600.00
04911              36.00   -11600.00
04912              30.00   -11400.00
04913              28.00   -11600.00
04914              28.00   -11400.00
04915              32.00   -11400.00
04916              34.00   -11400.00
04917              36.00   -11400.00
04918              32.00   -11200.00
04919              28.00   -11200.00
04920              24.00   -11400.00
04921              28.00   -11200.00
04922              30.00   -11000.00
04923              32.00   -11000.00
04924              30.00   -10800.00
04925              22.00   -10800.00
04926              24.00   -10800.00
04927              24.00   -10600.00
04928              26.00   -10600.00
04929              28.00   -10600.00
04930              30.00   -10400.00
04931              28.00   -10400.00
04932              24.00   -10400.00
04933              22.00   -10200.00
04934              20.00   -10000.00
04935              22.00   -10000.00
04936              28.00    -9800.00
04937              24.00    -9800.00
04938              24.00    -9800.00
04939              22.00    -9600.00
04940              18.00    -9400.00
04941              20.00    -9200.00
04942              22.00    -9200.00
04943              22.00    -9200.00
04944              22.00    -9000.00
04945              22.00    -8800.00
04946              16.00    -8800.00
04947              16.00    -8800.00
04948              18.00    -8400.00
04949              20.00    -8200.00
04950              20.00    -8200.00
04951              20.00    -8000.00
04952              14.00    -8000.00
04953              12.00    -7600.00
04954              16.00    -7600.00
04955              14.00    -7600.00
04956              16.00    -7200.00
04957              16.00    -7200.00
04958              12.00    -7200.00
04959              14.00    -6800.00
04960              10.00    -6800.00
04961              12.00    -6600.00
04962              12.00    -6400.00
04963              16.00    -6400.00
04964              12.00    -6000.00
04965              12.00    -5800.00
04966               8.00    -5800.00
04967               6.00    -5400.00
04968               8.00    -5200.00
04969               8.00    -5200.00
04970              10.00    -5000.00
04971               8.00    -5000.00
04972               4.00    -4800.00
04973               4.00    -4600.00
04974               4.00    -4400.00
04975               6.00    -4200.00
04976               6.00    -4000.00
04977               6.00    -4000.00
04978               4.00    -3600.00
04979               0.00    -3600.00
04980               0.00    -3400.00
04981               0.00    -3200.00
04982               2.00    -2800.00
04983               4.00    -2800.00
04984               0.00    -2600.00
04985              -2.00    -2600.00
04986              -6.00    -2400.00
04987              -4.00    -2000.00
04988              -4.00    -1800.00
04989              -4.00    -1600.00
04990              -2.00    -1600.00
04991              -4.00    -1200.00
04992              -8.00    -1000.00
04993              -8.00    -1000.00
04994              -8.00     -800.00
04995              -8.00     -400.00
04996              -4.00     -400.00
04997              -4.00     -200.00
04998              -4.00        0.00
04999              -8.00      200.00
05000              14.00      400.00
