Unit:(mV)
                     CH1         CH2
Frequency              ? 261.328 kHz
00001              -2.00    -4200.00
00002              -2.00    -4000.00
00003              -4.00    -3800.00
00004              -4.00    -3600.00
00005              -6.00    -3400.00
00006              -4.00    -3200.00
00007              -4.00    -3000.00
00008              -4.00    -2800.00
00009              -4.00    -2600.00
00010              -4.00    -2400.00
00011              -4.00    -2200.00
00012             -10.00    -2000.00
00013              -8.00    -1800.00
00014              -6.00    -1600.00
00015              -2.00    -1600.00
00016              -4.00    -1200.00
00017              -8.00    -1200.00
00018             -10.00     -800.00
00019             -10.00     -800.00
00020             -10.00     -600.00
00021              -4.00     -400.00
00022              -4.00     -200.00
00023              -6.00        0.00
00024              -4.00      400.00
00025              22.00      400.00
00026              18.00      600.00
00027             -20.00      800.00
00028             -26.00     1000.00
00029               0.00     1200.00
00030              16.00     1400.00
00031              54.00     1400.00
00032             252.00     1800.00
00033             192.00     2000.00
00034            -248.00     2400.00
00035            -248.00     2400.00
00036              12.00     2400.00
00037             252.00     2600.00
00038             252.00     3000.00
00039            -154.00     2800.00
00040            -248.00     3200.00
00041             252.00     3600.00
00042             252.00     3600.00
00043            -248.00     4000.00
00044            -248.00     3600.00
00045             252.00     4000.00
00046            -118.00     4800.00
00047             252.00     3800.00
00048             -72.00     5200.00
00049            -248.00     5200.00
00050             252.00     4400.00
00051             206.00     5600.00
00052            -166.00     5400.00
00053             -88.00     5200.00
00054             -84.00     6400.00
00055              76.00     5800.00
00056              98.00     6000.00
00057              16.00     6800.00
00058            -244.00     6000.00
00059            -112.00     6400.00
00060             252.00     7000.00
00061            -120.00     6800.00
00062            -200.00     7200.00
00063             150.00     7400.00
00064            -134.00     7600.00
00065              16.00     7200.00
00066              92.00     7800.00
00067            -146.00     8000.00
00068              -2.00     7600.00
00069              32.00     8600.00
00070             -58.00     8400.00
00071             -58.00     8200.00
00072              48.00     8800.00
00073             -12.00     8400.00
00074             -98.00     8800.00
00075              48.00     9200.00
00076             -64.00     9200.00
00077             -62.00     9200.00
00078              90.00     9200.00
00079             -80.00     9600.00
00080             -70.00     9200.00
00081              52.00    10000.00
00082             -36.00    10000.00
00083             -62.00     9600.00
00084               4.00    10200.00
00085             -18.00    10000.00
00086             -42.00    10200.00
00087               8.00    10400.00
00088             -40.00    10400.00
00089             -58.00    10800.00
00090              24.00    10600.00
00091             -28.00    10800.00
00092             -60.00    10600.00
00093               4.00    11000.00
00094             -26.00    11200.00
00095             -44.00    11000.00
00096               0.00    11200.00
00097             -36.00    11200.00
00098             -58.00    11200.00
00099              10.00    11400.00
00100              -8.00    11400.00
00101             -54.00    11400.00
00102             -20.00    11600.00
00103             -24.00    11600.00
00104             -40.00    11600.00
00105              -4.00    11600.00
00106             -20.00    11600.00
00107             -44.00    11600.00
00108             -12.00    11800.00
00109             -24.00    11800.00
00110             -42.00    11600.00
00111             -18.00    11800.00
00112             -20.00    11800.00
00113             -36.00    11800.00
00114             -16.00    11800.00
00115             -26.00    12000.00
00116             -44.00    11800.00
00117             -20.00    12000.00
00118             -18.00    12000.00
00119             -34.00    12000.00
00120             -22.00    11800.00
00121             -22.00    12000.00
00122             -36.00    11800.00
00123             -24.00    11800.00
00124             -20.00    11800.00
00125             -34.00    11800.00
00126             -24.00    11800.00
00127             -20.00    11800.00
00128             -28.00    11800.00
00129             -26.00    11600.00
00130             -26.00    11600.00
00131             -32.00    11400.00
00132             -18.00    11600.00
00133             -16.00    11600.00
00134             -32.00    11200.00
00135             -26.00    11600.00
00136             -22.00    11400.00
00137             -28.00    11200.00
00138             -20.00    11200.00
00139             -18.00    11200.00
00140             -28.00    11200.00
00141             -24.00    11000.00
00142             -20.00    11000.00
00143             -26.00    10800.00
00144             -24.00    10800.00
00145             -18.00    10800.00
00146             -22.00    10400.00
00147             -18.00    10400.00
00148             -20.00    10400.00
00149             -26.00    10200.00
00150             -24.00    10200.00
00151             -18.00    10000.00
00152             -20.00    10000.00
00153             -18.00    10000.00
00154             -18.00     9800.00
00155             -20.00     9600.00
00156             -20.00     9600.00
00157             -18.00     9400.00
00158             -20.00     9200.00
00159             -16.00     9200.00
00160             -16.00     9200.00
00161             -18.00     9000.00
00162             -20.00     8800.00
00163             -18.00     8800.00
00164             -16.00     8600.00
00165             -18.00     8400.00
00166             -10.00     8400.00
00167             -16.00     8200.00
00168             -20.00     8000.00
00169             -18.00     7800.00
00170             -18.00     7600.00
00171             -12.00     7600.00
00172             -14.00     7400.00
00173             -16.00     7200.00
00174             -12.00     7000.00
00175             -16.00     7000.00
00176             -18.00     6800.00
00177             -16.00     6800.00
00178             -10.00     6400.00
00179             -10.00     6400.00
00180             -12.00     6200.00
00181             -14.00     6000.00
00182             -16.00     5800.00
00183             -14.00     5600.00
00184              -8.00     5600.00
00185             -16.00     5200.00
00186              -8.00     5200.00
00187             -10.00     5200.00
00188             -14.00     4800.00
00189             -10.00     4600.00
00190             -10.00     4600.00
00191             -16.00     4200.00
00192              -2.00     4000.00
00193              -6.00     3800.00
00194             -14.00     3800.00
00195              -4.00     3600.00
00196              -8.00     3200.00
00197             -12.00     3200.00
00198              -4.00     2800.00
00199              -4.00     2800.00
00200              -8.00     2600.00
00201              -4.00     2200.00
00202              -6.00     2200.00
00203              -8.00     2000.00
00204              -4.00     1800.00
00205              -6.00     1600.00
00206              -4.00     1400.00
00207               0.00     1400.00
00208              -2.00     1000.00
00209              -2.00      800.00
00210               0.00      600.00
00211              -4.00      600.00
00212              -2.00      200.00
00213               4.00        0.00
00214               6.00     -200.00
00215               4.00     -400.00
00216              20.00     -600.00
00217              32.00     -800.00
00218               4.00     -800.00
00219             -18.00    -1000.00
00220               4.00    -1200.00
00221              28.00    -1400.00
00222              32.00    -1600.00
00223              98.00    -1600.00
00224             252.00    -1800.00
00225             100.00    -2600.00
00226            -248.00    -2600.00
00227            -248.00    -2800.00
00228             140.00    -3000.00
00229             248.00    -2600.00
00230             252.00    -3000.00
00231              96.00    -3800.00
00232            -248.00    -3200.00
00233              26.00    -3600.00
00234             252.00    -4400.00
00235            -136.00    -3400.00
00236            -248.00    -4200.00
00237              36.00    -4800.00
00238             130.00    -4000.00
00239             252.00    -5200.00
00240             -66.00    -5200.00
00241            -248.00    -4800.00
00242             100.00    -5600.00
00243             252.00    -5600.00
00244              38.00    -5400.00
00245            -206.00    -6000.00
00246            -106.00    -6000.00
00247             192.00    -6200.00
00248             156.00    -6400.00
00249             -40.00    -6600.00
00250            -180.00    -6800.00
00251             -26.00    -6800.00
00252             252.00    -7200.00
00253              46.00    -7000.00
00254            -170.00    -7400.00
00255             -26.00    -7600.00
00256              94.00    -7600.00
00257              94.00    -8000.00
00258             -12.00    -8000.00
00259             -58.00    -8000.00
00260              14.00    -8400.00
00261              76.00    -8400.00
00262              40.00    -8600.00
00263             -60.00    -8800.00
00264               2.00    -8800.00
00265              86.00    -9000.00
00266              22.00    -9200.00
00267             -12.00    -9400.00
00268             -18.00    -9200.00
00269              22.00    -9600.00
00270              74.00    -9600.00
00271              24.00    -9600.00
00272             -28.00    -9800.00
00273               8.00   -10000.00
00274              54.00   -10000.00
00275              20.00   -10000.00
00276               0.00   -10200.00
00277              22.00   -10400.00
00278              24.00   -10400.00
00279              30.00   -10600.00
00280              24.00   -10400.00
00281              -4.00   -10600.00
00282              14.00   -10800.00
00283              38.00   -10800.00
00284              22.00   -10800.00
00285              14.00   -11200.00
00286              24.00   -11000.00
00287              16.00   -11200.00
00288              20.00   -11400.00
00289              22.00   -11400.00
00290              14.00   -11400.00
00291              24.00   -11400.00
00292              38.00   -11600.00
00293              14.00   -11400.00
00294               6.00   -11600.00
00295              22.00   -11600.00
00296              22.00   -11600.00
00297              24.00   -11600.00
00298              28.00   -11600.00
00299              14.00   -11800.00
00300              14.00   -11800.00
00301              20.00   -11800.00
00302              14.00   -12000.00
00303              20.00   -11800.00
00304              28.00   -12000.00
00305              20.00   -11800.00
00306              16.00   -12000.00
00307              16.00   -12200.00
00308              14.00   -11800.00
00309              16.00   -12000.00
00310              24.00   -11800.00
00311              22.00   -12000.00
00312              14.00   -12000.00
00313              16.00   -11800.00
00314              14.00   -12000.00
00315              12.00   -12000.00
00316              20.00   -11800.00
00317              20.00   -11800.00
00318              20.00   -11800.00
00319              18.00   -11600.00
00320              14.00   -11800.00
00321              12.00   -12000.00
00322              14.00   -11600.00
00323              20.00   -11600.00
00324              16.00   -11600.00
00325              20.00   -11600.00
00326              16.00   -11400.00
00327              12.00   -11600.00
00328              12.00   -11400.00
00329              14.00   -11400.00
00330              20.00   -11200.00
00331              22.00   -11200.00
00332              14.00   -11000.00
00333              12.00   -10800.00
00334              12.00   -11200.00
00335              12.00   -10800.00
00336              14.00   -10800.00
00337              14.00   -10800.00
00338              20.00   -10600.00
00339              14.00   -10600.00
00340              12.00   -10400.00
00341              10.00   -10400.00
00342               8.00   -10200.00
00343              14.00   -10000.00
00344              16.00   -10000.00
00345              16.00    -9800.00
00346               8.00    -9800.00
00347               8.00    -9800.00
00348               6.00    -9600.00
00349              12.00    -9600.00
00350              12.00    -9400.00
00351              12.00    -9200.00
00352              12.00    -9000.00
00353               6.00    -9000.00
00354               4.00    -8800.00
00355               6.00    -8800.00
00356               8.00    -8600.00
00357              12.00    -8400.00
00358              12.00    -8200.00
00359               6.00    -8200.00
00360               4.00    -8200.00
00361               4.00    -8000.00
00362               6.00    -7800.00
00363               6.00    -7600.00
00364               8.00    -7400.00
00365               6.00    -7400.00
00366               6.00    -7200.00
00367               0.00    -6800.00
00368              -4.00    -6800.00
00369               4.00    -6600.00
00370               4.00    -6600.00
00371               0.00    -6400.00
00372               6.00    -6000.00
00373              -2.00    -6000.00
00374              -2.00    -6000.00
00375              -2.00    -5800.00
00376               0.00    -5600.00
00377               4.00    -5200.00
00378               4.00    -5000.00
00379              -2.00    -5000.00
00380              -4.00    -4800.00
00381              -4.00    -4800.00
00382              -2.00    -4400.00
00383              -4.00    -4200.00
00384              -4.00    -4000.00
00385               2.00    -4000.00
00386              -8.00    -3600.00
00387              -6.00    -3600.00
00388              -2.00    -3400.00
00389             -10.00    -3200.00
00390              -4.00    -2800.00
00391              -2.00    -2800.00
00392              -4.00    -2600.00
00393              -6.00    -2400.00
00394              -6.00    -2400.00
00395             -10.00    -2000.00
00396             -12.00    -1800.00
00397              -2.00    -1600.00
00398              -2.00    -1400.00
00399             -10.00    -1200.00
00400              -8.00    -1200.00
00401             -10.00     -800.00
00402             -10.00     -600.00
00403             -10.00     -600.00
00404              -6.00     -200.00
00405              -2.00        0.00
00406              -4.00        0.00
00407              -4.00      400.00
00408              22.00      400.00
00409              12.00      600.00
00410             -26.00     1000.00
00411             -20.00     1200.00
00412               8.00     1200.00
00413              14.00     1200.00
00414             110.00     1600.00
00415             252.00     2000.00
00416             -30.00     2200.00
00417            -248.00     2400.00
00418            -248.00     2400.00
00419             144.00     2400.00
00420             252.00     2800.00
00421             252.00     3000.00
00422            -248.00     2800.00
00423            -248.00     3600.00
00424             252.00     3200.00
00425             252.00     3800.00
00426            -248.00     4000.00
00427              40.00     3600.00
00428             134.00     4800.00
00429             -26.00     4400.00
00430             252.00     4000.00
00431            -248.00     5400.00
00432            -248.00     4800.00
00433             252.00     4600.00
00434               4.00     6000.00
00435            -144.00     5200.00
00436             -88.00     5400.00
00437             -44.00     6600.00
00438             112.00     5600.00
00439              74.00     6200.00
00440             -50.00     7000.00
00441            -248.00     6000.00
00442             100.00     7000.00
00443             252.00     7000.00
00444            -248.00     7000.00
00445             -26.00     7400.00
00446              84.00     7400.00
00447            -160.00     7600.00
00448             118.00     7400.00
00449             -16.00     8000.00
00450            -128.00     8000.00
00451              44.00     7800.00
00452              -2.00     8600.00
00453             -72.00     8000.00
00454             -28.00     8600.00
00455              60.00     8800.00
00456             -72.00     8600.00
00457             -50.00     9000.00
00458              46.00     9000.00
00459            -108.00     9200.00
00460              14.00     9200.00
00461              52.00     9400.00
00462            -120.00     9400.00
00463             -10.00     9600.00
00464              36.00    10000.00
00465             -66.00     9800.00
00466             -40.00     9800.00
00467               8.00    10400.00
00468             -36.00    10000.00
00469             -28.00    10400.00
00470               8.00    10400.00
00471             -60.00    10400.00
00472             -32.00    10600.00
00473              28.00    10800.00
00474             -60.00    10800.00
00475             -40.00    10800.00
00476               8.00    11000.00
00477             -42.00    11000.00
00478             -26.00    11200.00
00479              -2.00    11200.00
00480             -56.00    11000.00
00481             -34.00    11200.00
00482              22.00    11400.00
00483             -32.00    11200.00
00484             -48.00    11400.00
00485             -10.00    11600.00
00486             -34.00    11600.00
00487             -28.00    11600.00
00488              -4.00    11800.00
00489             -38.00    11800.00
00490             -32.00    11600.00
00491             -10.00    11800.00
00492             -34.00    11800.00
00493             -34.00    11800.00
00494             -10.00    11800.00
00495             -30.00    12000.00
00496             -28.00    11800.00
00497             -10.00    12000.00
00498             -34.00    11800.00
00499             -40.00    11800.00
00500             -12.00    11800.00
00501             -26.00    12000.00
00502             -32.00    11800.00
00503             -12.00    12000.00
00504             -28.00    11800.00
00505             -36.00    11800.00
00506             -20.00    11800.00
00507             -24.00    12000.00
00508             -32.00    11600.00
00509             -16.00    11800.00
00510             -24.00    11600.00
00511             -28.00    11800.00
00512             -20.00    11600.00
00513             -28.00    11800.00
00514             -30.00    11600.00
00515             -18.00    11600.00
00516             -24.00    11600.00
00517             -28.00    11400.00
00518             -20.00    11400.00
00519             -24.00    11200.00
00520             -28.00    11200.00
00521             -20.00    11200.00
00522             -24.00    11200.00
00523             -32.00    11000.00
00524             -20.00    11000.00
00525             -20.00    11000.00
00526             -26.00    10600.00
00527             -20.00    10800.00
00528             -20.00    10600.00
00529             -26.00    10400.00
00530             -18.00    10400.00
00531             -20.00    10400.00
00532             -28.00    10400.00
00533             -24.00    10200.00
00534             -20.00    10200.00
00535             -18.00    10000.00
00536             -18.00    10000.00
00537             -20.00     9800.00
00538             -24.00     9600.00
00539             -20.00     9600.00
00540             -18.00     9400.00
00541             -20.00     9400.00
00542             -16.00     9200.00
00543             -16.00     9200.00
00544             -20.00     8800.00
00545             -18.00     8800.00
00546             -18.00     8600.00
00547             -18.00     8400.00
00548             -16.00     8400.00
00549             -12.00     8400.00
00550             -18.00     8000.00
00551             -16.00     8000.00
00552             -18.00     7800.00
00553             -18.00     7600.00
00554             -12.00     7600.00
00555             -16.00     7400.00
00556             -16.00     7400.00
00557             -10.00     7000.00
00558             -16.00     7000.00
00559             -18.00     6800.00
00560             -16.00     6800.00
00561             -10.00     6400.00
00562             -12.00     6200.00
00563             -10.00     6200.00
00564             -16.00     6000.00
00565             -12.00     5800.00
00566             -12.00     5600.00
00567             -10.00     5400.00
00568             -10.00     5200.00
00569             -10.00     5200.00
00570             -10.00     4800.00
00571             -10.00     4800.00
00572             -10.00     4600.00
00573             -12.00     4200.00
00574             -12.00     4000.00
00575              -4.00     3800.00
00576              -4.00     3800.00
00577              -8.00     3600.00
00578             -10.00     3600.00
00579              -8.00     3200.00
00580             -10.00     3000.00
00581              -4.00     3000.00
00582              -4.00     2800.00
00583              -4.00     2400.00
00584              -8.00     2400.00
00585              -8.00     2200.00
00586              -6.00     2000.00
00587              -6.00     1600.00
00588              -2.00     1400.00
00589              -2.00     1400.00
00590              -2.00     1200.00
00591              -4.00     1200.00
00592              -4.00      800.00
00593              -2.00      600.00
00594              -4.00      400.00
00595              -2.00        0.00
00596               4.00        0.00
00597               4.00     -200.00
00598               6.00     -400.00
00599              30.00     -600.00
00600              28.00     -600.00
00601             -10.00     -800.00
00602             -16.00    -1200.00
00603              16.00    -1200.00
00604              30.00    -1400.00
00605              38.00    -1600.00
00606             172.00    -1800.00
00607             252.00    -2200.00
00608            -122.00    -2600.00
00609            -248.00    -2800.00
00610            -224.00    -2800.00
00611             228.00    -2800.00
00612             252.00    -2600.00
00613             252.00    -3200.00
00614            -248.00    -3800.00
00615            -248.00    -3000.00
00616             252.00    -4200.00
00617             252.00    -4200.00
00618            -248.00    -3600.00
00619            -248.00    -4800.00
00620             100.00    -4400.00
00621             182.00    -4200.00
00622             252.00    -5400.00
00623            -248.00    -5000.00
00624            -248.00    -5000.00
00625             244.00    -5800.00
00626             240.00    -5200.00
00627             -64.00    -5600.00
00628            -224.00    -6000.00
00629               6.00    -6000.00
00630             224.00    -6400.00
00631              92.00    -6600.00
00632            -100.00    -6800.00
00633            -172.00    -6600.00
00634             100.00    -7000.00
00635             246.00    -7400.00
00636             -76.00    -7200.00
00637            -138.00    -7600.00
00638              30.00    -7400.00
00639             108.00    -7600.00
00640              68.00    -8000.00
00641             -44.00    -8000.00
00642             -36.00    -8200.00
00643              40.00    -8400.00
00644              80.00    -8400.00
00645               4.00    -8600.00
00646             -58.00    -8800.00
00647              46.00    -9000.00
00648              70.00    -9000.00
00649               4.00    -9200.00
00650             -16.00    -9200.00
00651             -12.00    -9200.00
00652              44.00    -9600.00
00653              68.00    -9600.00
00654               0.00    -9800.00
00655             -26.00   -10000.00
00656              36.00   -10000.00
00657              46.00   -10200.00
00658               6.00   -10400.00
00659              10.00   -10200.00
00660              24.00   -10400.00
00661              24.00   -10600.00
00662              34.00   -10600.00
00663              12.00   -10800.00
00664              -4.00   -10800.00
00665              28.00   -10800.00
00666              38.00   -10800.00
00667              12.00   -11200.00
00668              20.00   -11200.00
00669              22.00   -11200.00
00670              14.00   -11200.00
00671              24.00   -11200.00
00672              20.00   -11400.00
00673              12.00   -11400.00
00674              32.00   -11600.00
00675              32.00   -11600.00
00676               6.00   -11600.00
00677               8.00   -11600.00
00678              24.00   -11600.00
00679              22.00   -11600.00
00680              28.00   -11600.00
00681              24.00   -11800.00
00682              12.00   -11800.00
00683              20.00   -11800.00
00684              20.00   -12000.00
00685              14.00   -12000.00
00686              24.00   -11800.00
00687              30.00   -12000.00
00688              16.00   -12000.00
00689              20.00   -12000.00
00690              16.00   -11800.00
00691              12.00   -11800.00
00692              22.00   -12000.00
00693              28.00   -11800.00
00694              20.00   -12000.00
00695              14.00   -12000.00
00696              16.00   -11800.00
00697              12.00   -12000.00
00698              16.00   -11800.00
00699              22.00   -11800.00
00700              20.00   -11800.00
00701              20.00   -11800.00
00702              20.00   -11800.00
00703              12.00   -11800.00
00704              12.00   -11800.00
00705              16.00   -11600.00
00706              18.00   -11600.00
00707              18.00   -11600.00
00708              20.00   -11600.00
00709              12.00   -11600.00
00710               8.00   -11600.00
00711              14.00   -11400.00
00712              16.00   -11400.00
00713              20.00   -11200.00
00714              20.00   -11200.00
00715              10.00   -11200.00
00716               8.00   -11200.00
00717              14.00   -10800.00
00718              12.00   -10800.00
00719              14.00   -10800.00
00720              16.00   -10600.00
00721              14.00   -10600.00
00722              12.00   -10600.00
00723              10.00   -10400.00
00724               6.00   -10400.00
00725              12.00   -10400.00
00726              14.00   -10400.00
00727              14.00   -10000.00
00728              12.00    -9800.00
00729               8.00    -9800.00
00730               8.00    -9800.00
00731               8.00    -9600.00
00732              12.00    -9400.00
00733              12.00    -9400.00
00734              14.00    -9200.00
00735              12.00    -9000.00
00736               6.00    -9000.00
00737               4.00    -8800.00
00738               8.00    -8800.00
00739               8.00    -8600.00
00740              12.00    -8400.00
00741              10.00    -8400.00
00742               6.00    -8200.00
00743               4.00    -8000.00
00744               4.00    -8000.00
00745               6.00    -7600.00
00746              12.00    -7600.00
00747               8.00    -7400.00
00748               4.00    -7400.00
00749               6.00    -7200.00
00750               4.00    -7000.00
00751               4.00    -6800.00
00752               4.00    -6800.00
00753               4.00    -6400.00
00754               6.00    -6400.00
00755               4.00    -6000.00
00756               2.00    -6000.00
00757              -4.00    -5800.00
00758              -2.00    -5600.00
00759               4.00    -5400.00
00760               4.00    -5200.00
00761               0.00    -5000.00
00762              -4.00    -4800.00
00763              -4.00    -4800.00
00764              -4.00    -4600.00
00765              -2.00    -4200.00
00766              -2.00    -4200.00
00767               0.00    -4000.00
00768              -2.00    -3800.00
00769              -4.00    -3600.00
00770              -8.00    -3400.00
00771              -8.00    -3400.00
00772              -6.00    -3200.00
00773              -2.00    -2800.00
00774              -4.00    -2800.00
00775              -4.00    -2600.00
00776              -8.00    -2400.00
00777             -10.00    -2200.00
00778              -8.00    -2000.00
00779             -10.00    -1800.00
00780              -8.00    -1600.00
00781              -2.00    -1200.00
00782              -4.00    -1200.00
00783             -10.00     -800.00
00784             -16.00     -800.00
00785             -18.00     -800.00
00786              -8.00     -400.00
00787               0.00     -200.00
00788              -4.00        0.00
00789              -8.00        0.00
00790               6.00      200.00
00791              22.00      400.00
00792              -2.00     1000.00
00793             -28.00     1000.00
00794             -12.00     1200.00
00795              12.00     1200.00
00796              28.00     1400.00
00797             212.00     1800.00
00798             252.00     2200.00
00799            -248.00     2400.00
00800            -248.00     2400.00
00801            -148.00     2400.00
00802             252.00     2600.00
00803             252.00     3000.00
00804             252.00     3000.00
00805            -248.00     3000.00
00806            -248.00     3600.00
00807             252.00     3400.00
00808             -68.00     4000.00
00809            -248.00     3800.00
00810             252.00     4000.00
00811             -48.00     4800.00
00812             184.00     4000.00
00813             204.00     4600.00
00814            -248.00     5600.00
00815              58.00     4600.00
00816             252.00     5400.00
00817            -132.00     5800.00
00818            -104.00     5000.00
00819             -92.00     6000.00
00820              20.00     6400.00
00821             112.00     5600.00
00822              52.00     6800.00
00823            -152.00     6400.00
00824            -244.00     6200.00
00825             252.00     7000.00
00826              86.00     7000.00
00827            -248.00     7200.00
00828             110.00     7400.00
00829             -42.00     7600.00
00830             -84.00     7400.00
00831             136.00     7600.00
00832            -108.00     8400.00
00833             -62.00     7600.00
00834              52.00     8400.00
00835             -36.00     8600.00
00836             -76.00     8000.00
00837              16.00     8800.00
00838              30.00     8600.00
00839            -106.00     8800.00
00840              16.00     9200.00
00841              -4.00     9200.00
00842            -108.00     9200.00
00843              72.00     9400.00
00844             -20.00     9600.00
00845            -112.00     9600.00
00846              36.00     9600.00
00847              -2.00    10000.00
00848             -74.00     9800.00
00849             -16.00    10000.00
00850               0.00    10200.00
00851             -44.00    10000.00
00852              -4.00    10400.00
00853             -12.00    10400.00
00854             -74.00    10400.00
00855               6.00    10600.00
00856               4.00    10800.00
00857             -68.00    10800.00
00858             -12.00    10600.00
00859              -8.00    11000.00
00860             -50.00    11000.00
00861              -6.00    11000.00
00862             -20.00    11200.00
00863             -66.00    11200.00
00864              -8.00    11200.00
00865              12.00    11400.00
00866             -50.00    11400.00
00867             -32.00    11600.00
00868             -12.00    11600.00
00869             -42.00    11600.00
00870             -18.00    11600.00
00871             -10.00    11800.00
00872             -42.00    11600.00
00873             -24.00    11800.00
00874             -12.00    11800.00
00875             -40.00    11800.00
00876             -26.00    11800.00
00877             -16.00    11800.00
00878             -36.00    11800.00
00879             -18.00    11800.00
00880             -12.00    12000.00
00881             -44.00    12000.00
00882             -32.00    11800.00
00883             -10.00    12000.00
00884             -28.00    11800.00
00885             -24.00    11800.00
00886             -18.00    11800.00
00887             -36.00    12000.00
00888             -26.00    11800.00
00889             -18.00    12000.00
00890             -30.00    11800.00
00891             -28.00    11800.00
00892             -20.00    11800.00
00893             -26.00    11800.00
00894             -26.00    11600.00
00895             -24.00    11800.00
00896             -34.00    11600.00
00897             -26.00    11600.00
00898             -16.00    11400.00
00899             -26.00    11600.00
00900             -28.00    11400.00
00901             -24.00    11400.00
00902             -28.00    11400.00
00903             -24.00    11200.00
00904             -12.00    11200.00
00905             -28.00    11200.00
00906             -26.00    11000.00
00907             -20.00    11000.00
00908             -28.00    10800.00
00909             -26.00    10800.00
00910             -20.00    10600.00
00911             -20.00    10600.00
00912             -20.00    10400.00
00913             -22.00    10400.00
00914             -26.00    10400.00
00915             -26.00    10200.00
00916             -20.00    10200.00
00917             -20.00    10000.00
00918             -20.00    10000.00
00919             -16.00    10000.00
00920             -24.00     9800.00
00921             -24.00     9600.00
00922             -24.00     9400.00
00923             -20.00     9400.00
00924             -20.00     9200.00
00925             -12.00     9200.00
00926             -20.00     9000.00
00927             -20.00     9200.00
00928             -20.00     8600.00
00929             -18.00     8600.00
00930             -14.00     8400.00
00931             -12.00     8400.00
00932             -16.00     8200.00
00933             -20.00     8000.00
00934             -18.00     8000.00
00935             -20.00     7800.00
00936             -12.00     7600.00
00937             -10.00     7600.00
00938             -16.00     7400.00
00939             -12.00     7200.00
00940             -10.00     7200.00
00941             -18.00     6800.00
00942             -18.00     6800.00
00943             -12.00     6400.00
00944             -14.00     6400.00
00945             -12.00     6200.00
00946              -8.00     6000.00
00947             -12.00     6000.00
00948             -18.00     5800.00
00949             -12.00     5600.00
00950             -10.00     5400.00
00951              -8.00     5200.00
00952              -8.00     5200.00
00953             -16.00     4800.00
00954             -14.00     4600.00
00955             -12.00     4600.00
00956             -10.00     4200.00
00957              -6.00     4000.00
00958              -6.00     3800.00
00959              -8.00     3800.00
00960             -10.00     3600.00
00961              -8.00     3200.00
00962              -8.00     3200.00
00963              -8.00     3000.00
00964              -4.00     2800.00
00965              -4.00     2600.00
00966             -10.00     2400.00
00967              -8.00     2200.00
00968              -4.00     2000.00
00969              -4.00     1800.00
00970              -6.00     1600.00
00971              -8.00     1400.00
00972              -4.00     1200.00
00973               0.00     1200.00
00974              -2.00     1000.00
00975              -4.00      800.00
00976              -4.00      600.00
00977              -4.00      400.00
00978               0.00        0.00
00979               6.00        0.00
00980               8.00     -400.00
00981              10.00     -400.00
00982              28.00     -800.00
00983              12.00     -800.00
00984             -16.00    -1000.00
00985              -4.00    -1200.00
00986              24.00    -1200.00
00987              28.00    -1600.00
00988              56.00    -1600.00
00989             252.00    -1800.00
00990             240.00    -2400.00
00991            -248.00    -2800.00
00992            -248.00    -2600.00
00993             -10.00    -2800.00
00994             248.00    -2800.00
00995             252.00    -2600.00
00996             252.00    -3600.00
00997            -248.00    -3400.00
00998            -248.00    -3200.00
00999             252.00    -4400.00
01000             252.00    -3800.00
01001            -248.00    -4000.00
01002             -74.00    -4800.00
01003             112.00    -4200.00
01004             252.00    -4800.00
01005             118.00    -5400.00
01006            -248.00    -4800.00
01007             -66.00    -5400.00
01008             252.00    -5600.00
01009             136.00    -5400.00
01010            -150.00    -6000.00
01011            -186.00    -6000.00
01012             124.00    -6000.00
01013             206.00    -6400.00
01014              22.00    -6600.00
01015            -148.00    -6800.00
01016             -98.00    -6600.00
01017             198.00    -7200.00
01018             148.00    -7200.00
01019            -146.00    -7200.00
01020             -74.00    -7800.00
01021              32.00    -7400.00
01022              98.00    -7600.00
01023              88.00    -8000.00
01024             -36.00    -8000.00
01025             -28.00    -8200.00
01026              18.00    -8600.00
01027              84.00    -8600.00
01028             -28.00    -8800.00
01029             -52.00    -8800.00
01030              56.00    -9000.00
01031              78.00    -9000.00
01032              22.00    -9200.00
01033             -40.00    -9400.00
01034             -20.00    -9600.00
01035              76.00    -9600.00
01036              80.00    -9600.00
01037             -36.00    -9800.00
01038             -32.00    -9800.00
01039              44.00   -10000.00
01040              46.00   -10000.00
01041               6.00   -10000.00
01042              12.00   -10400.00
01043              12.00   -10400.00
01044              20.00   -10800.00
01045              28.00   -10600.00
01046              14.00   -10600.00
01047              12.00   -10800.00
01048              24.00   -10800.00
01049              22.00   -10800.00
01050              20.00   -11200.00
01051              28.00   -11000.00
01052               6.00   -11200.00
01053               6.00   -11400.00
01054              32.00   -11200.00
01055              24.00   -11400.00
01056               6.00   -11400.00
01057              36.00   -11600.00
01058              26.00   -11600.00
01059              12.00   -11600.00
01060              20.00   -11600.00
01061               6.00   -11600.00
01062              24.00   -11600.00
01063              32.00   -11600.00
01064              22.00   -11600.00
01065              14.00   -11800.00
01066              12.00   -12000.00
01067              12.00   -11800.00
01068              22.00   -11800.00
01069              44.00   -11800.00
01070              26.00   -11800.00
01071               6.00   -12000.00
01072               6.00   -12000.00
01073              20.00   -12000.00
01074              22.00   -11800.00
01075              22.00   -11800.00
01076              20.00   -12000.00
01077              16.00   -11800.00
01078              24.00   -11800.00
01079              20.00   -12000.00
01080              12.00   -11800.00
01081              18.00   -11800.00
01082              22.00   -11800.00
01083              20.00   -11800.00
01084              22.00   -11600.00
01085              12.00   -11600.00
01086               8.00   -11800.00
01087              14.00   -11600.00
01088              20.00   -12000.00
01089              16.00   -11600.00
01090              16.00   -11600.00
01091              16.00   -11600.00
01092              16.00   -11600.00
01093              14.00   -11600.00
01094              12.00   -11400.00
01095              16.00   -11200.00
01096              20.00   -11200.00
01097              14.00   -11200.00
01098              12.00   -11200.00
01099              12.00   -11000.00
01100               8.00   -11000.00
01101              14.00   -10800.00
01102              18.00   -10800.00
01103              18.00   -10600.00
01104              12.00   -10600.00
01105               6.00   -10600.00
01106               6.00   -10400.00
01107              12.00   -10400.00
01108              12.00   -10200.00
01109              14.00   -10000.00
01110              12.00   -10000.00
01111              12.00    -9800.00
01112              10.00    -9600.00
01113               8.00    -9800.00
01114               6.00    -9600.00
01115               8.00    -9400.00
01116              12.00    -9200.00
01117              12.00    -9200.00
01118               6.00    -9000.00
01119               4.00    -9000.00
01120               4.00    -8800.00
01121               8.00    -8800.00
01122               8.00    -8400.00
01123              12.00    -8400.00
01124               8.00    -8200.00
01125               6.00    -8000.00
01126               4.00    -8000.00
01127               4.00    -7800.00
01128               6.00    -7600.00
01129               6.00    -7400.00
01130               6.00    -7400.00
01131               6.00    -7200.00
01132               4.00    -7000.00
01133               0.00    -6800.00
01134               4.00    -6600.00
01135               6.00    -6600.00
01136               6.00    -6400.00
01137               6.00    -6200.00
01138               0.00    -6000.00
01139              -2.00    -6000.00
01140               0.00    -5800.00
01141               0.00    -5400.00
01142               2.00    -5400.00
01143               4.00    -5200.00
01144               0.00    -5000.00
01145              -2.00    -4800.00
01146              -2.00    -4800.00
01147              -4.00    -4400.00
01148              -2.00    -4200.00
01149               2.00    -4000.00
01150               0.00    -4000.00
01151              -4.00    -3800.00
01152              -4.00    -3600.00
01153              -4.00    -3400.00
01154              -8.00    -3200.00
01155              -4.00    -3000.00
01156              -2.00    -2800.00
01157              -2.00    -2800.00
01158              -6.00    -2400.00
01159              -8.00    -2400.00
01160              -8.00    -2000.00
01161              -8.00    -2000.00
01162              -6.00    -1600.00
01163              -4.00    -1600.00
01164              -8.00    -1200.00
01165             -10.00    -1200.00
01166             -12.00    -1000.00
01167             -10.00     -800.00
01168             -10.00     -600.00
01169              -8.00     -200.00
01170              -4.00     -200.00
01171              -8.00        0.00
01172              -4.00        0.00
01173              18.00      600.00
01174              16.00      600.00
01175             -20.00     1000.00
01176             -28.00     1000.00
01177               4.00     1200.00
01178              16.00     1200.00
01179              60.00     1600.00
01180             252.00     2000.00
01181             166.00     2200.00
01182            -248.00     2400.00
01183            -248.00     2400.00
01184              34.00     2400.00
01185             252.00     2600.00
01186             252.00     3000.00
01187            -242.00     2800.00
01188            -248.00     3200.00
01189             252.00     3600.00
01190             252.00     3600.00
01191            -248.00     4200.00
01192            -248.00     3600.00
01193             252.00     4400.00
01194            -114.00     4800.00
01195             252.00     4000.00
01196            -120.00     5200.00
01197            -248.00     5200.00
01198             252.00     4600.00
01199             180.00     5800.00
01200            -164.00     5400.00
01201             -88.00     5200.00
01202             -80.00     6400.00
01203              86.00     5800.00
01204              92.00     5600.00
01205               8.00     7000.00
01206            -248.00     6200.00
01207             -84.00     6800.00
01208             252.00     7200.00
01209            -150.00     6800.00
01210            -174.00     7200.00
01211             148.00     7400.00
01212            -144.00     7600.00
01213              32.00     7400.00
01214              76.00     7800.00
01215            -146.00     8000.00
01216               4.00     7600.00
01217              28.00     8600.00
01218             -58.00     8400.00
01219             -60.00     8200.00
01220              52.00     9000.00
01221             -20.00     8400.00
01222             -98.00     8800.00
01223              52.00     9200.00
01224             -74.00     9000.00
01225             -48.00     9200.00
01226              88.00     9400.00
01227             -92.00     9600.00
01228             -68.00     9400.00
01229              50.00     9800.00
01230             -40.00    10000.00
01231             -62.00     9800.00
01232               2.00    10400.00
01233             -20.00    10000.00
01234             -44.00    10200.00
01235               8.00    10400.00
01236             -40.00    10400.00
01237             -60.00    10600.00
01238              26.00    10800.00
01239             -34.00    10800.00
01240             -64.00    10600.00
01241               8.00    10800.00
01242             -26.00    11000.00
01243             -40.00    11000.00
01244               4.00    11200.00
01245             -42.00    11200.00
01246             -58.00    11200.00
01247              10.00    11400.00
01248              -8.00    11400.00
01249             -56.00    11400.00
01250             -20.00    11600.00
01251             -26.00    11600.00
01252             -38.00    11600.00
01253              -4.00    11600.00
01254             -24.00    11600.00
01255             -44.00    11800.00
01256             -12.00    11800.00
01257             -24.00    11800.00
01258             -40.00    11600.00
01259             -18.00    11800.00
01260             -20.00    12000.00
01261             -34.00    11800.00
01262             -12.00    12000.00
01263             -26.00    12000.00
01264             -44.00    12000.00
01265             -18.00    11800.00
01266             -16.00    12000.00
01267             -34.00    11800.00
01268             -20.00    12000.00
01269             -20.00    12000.00
01270             -36.00    11800.00
01271             -20.00    11800.00
01272             -18.00    12000.00
01273             -34.00    11600.00
01274             -20.00    11800.00
01275             -18.00    11800.00
01276             -28.00    11600.00
01277             -26.00    11600.00
01278             -24.00    11800.00
01279             -32.00    11600.00
01280             -18.00    11600.00
01281             -16.00    11600.00
01282             -28.00    11400.00
01283             -28.00    11600.00
01284             -24.00    11400.00
01285             -28.00    11200.00
01286             -20.00    11200.00
01287             -18.00    11000.00
01288             -28.00    11000.00
01289             -26.00    11000.00
01290             -20.00    11000.00
01291             -26.00    10800.00
01292             -26.00    10800.00
01293             -20.00    10800.00
01294             -20.00    10400.00
01295             -20.00    10400.00
01296             -24.00    10400.00
01297             -28.00    10400.00
01298             -24.00    10200.00
01299             -18.00    10200.00
01300             -20.00    10000.00
01301             -18.00     9800.00
01302             -20.00     9800.00
01303             -26.00     9600.00
01304             -24.00     9400.00
01305             -20.00     9400.00
01306             -20.00     9200.00
01307             -18.00     9200.00
01308             -16.00     9000.00
01309             -20.00     9000.00
01310             -22.00     8800.00
01311             -18.00     8800.00
01312             -20.00     8400.00
01313             -18.00     8400.00
01314             -12.00     8200.00
01315             -18.00     8200.00
01316             -18.00     8000.00
01317             -18.00     7800.00
01318             -18.00     7800.00
01319             -12.00     7600.00
01320             -12.00     7600.00
01321             -16.00     7200.00
01322             -12.00     7200.00
01323             -12.00     7000.00
01324             -16.00     6800.00
01325             -18.00     6600.00
01326             -12.00     6400.00
01327             -10.00     6400.00
01328             -10.00     6200.00
01329             -12.00     6000.00
01330             -12.00     5800.00
01331             -10.00     5600.00
01332             -10.00     5600.00
01333             -10.00     5400.00
01334             -10.00     5200.00
01335             -10.00     5200.00
01336             -10.00     4800.00
01337             -10.00     4600.00
01338             -12.00     4400.00
01339             -10.00     4200.00
01340              -6.00     4000.00
01341              -4.00     3800.00
01342              -8.00     3600.00
01343             -10.00     3400.00
01344             -10.00     3200.00
01345              -8.00     3000.00
01346              -8.00     3000.00
01347              -8.00     2800.00
01348              -4.00     2400.00
01349              -8.00     2400.00
01350              -4.00     2200.00
01351              -4.00     2000.00
01352              -4.00     1600.00
01353              -4.00     1600.00
01354              -4.00     1400.00
01355              -4.00     1200.00
01356              -2.00     1000.00
01357              -2.00     1000.00
01358              -4.00      800.00
01359              -2.00      400.00
01360              -2.00      200.00
01361               0.00        0.00
01362               6.00     -200.00
01363               4.00     -400.00
01364              22.00     -400.00
01365              32.00     -600.00
01366              -2.00     -800.00
01367             -22.00    -1000.00
01368               6.00    -1200.00
01369              28.00    -1200.00
01370              28.00    -1600.00
01371             108.00    -1600.00
01372             252.00    -2000.00
01373              70.00    -2600.00
01374            -248.00    -2800.00
01375            -248.00    -2800.00
01376             152.00    -3000.00
01377             252.00    -2600.00
01378             252.00    -2800.00
01379              44.00    -3800.00
01380            -248.00    -3200.00
01381             100.00    -3600.00
01382             252.00    -4400.00
01383            -196.00    -3400.00
01384            -248.00    -4400.00
01385              48.00    -4800.00
01386             134.00    -4000.00
01387             252.00    -5200.00
01388             -96.00    -5000.00
01389            -248.00    -4800.00
01390             124.00    -5600.00
01391             252.00    -5400.00
01392              28.00    -5400.00
01393            -210.00    -6000.00
01394             -92.00    -6000.00
01395             198.00    -6400.00
01396             150.00    -6400.00
01397             -44.00    -6600.00
01398            -180.00    -6600.00
01399              -8.00    -6800.00
01400             252.00    -7200.00
01401              28.00    -7200.00
01402            -168.00    -7400.00
01403             -18.00    -7600.00
01404              96.00    -7400.00
01405              94.00    -8000.00
01406             -16.00    -8000.00
01407             -56.00    -8000.00
01408              20.00    -8400.00
01409              76.00    -8400.00
01410              38.00    -8800.00
01411             -58.00    -8800.00
01412              10.00    -8800.00
01413              80.00    -9000.00
01414              20.00    -9000.00
01415             -12.00    -9200.00
01416             -18.00    -9200.00
01417              24.00    -9400.00
01418              72.00    -9600.00
01419              22.00    -9800.00
01420             -28.00   -10000.00
01421              14.00   -10000.00
01422              54.00   -10000.00
01423              16.00   -10200.00
01424               0.00   -10200.00
01425              22.00   -10400.00
01426              20.00   -10400.00
01427              28.00   -10600.00
01428              20.00   -10600.00
01429              -4.00   -10800.00
01430              20.00   -10800.00
01431              38.00   -10800.00
01432              16.00   -10800.00
01433              12.00   -11200.00
01434              22.00   -11200.00
01435              14.00   -11200.00
01436              20.00   -11200.00
01437              22.00   -11400.00
01438               8.00   -11400.00
01439              24.00   -11400.00
01440              38.00   -11400.00
01441              12.00   -11600.00
01442               6.00   -11600.00
01443              20.00   -11600.00
01444              22.00   -11800.00
01445              24.00   -11600.00
01446              24.00   -11600.00
01447              14.00   -11800.00
01448              14.00   -11800.00
01449              20.00   -12000.00
01450              14.00   -11800.00
01451              20.00   -12000.00
01452              30.00   -11800.00
01453              22.00   -12000.00
01454              16.00   -12000.00
01455              14.00   -12200.00
01456              14.00   -11800.00
01457              16.00   -11800.00
01458              24.00   -12000.00
01459              22.00   -12000.00
01460              16.00   -11800.00
01461              20.00   -11800.00
01462              14.00   -11800.00
01463              14.00   -11800.00
01464              22.00   -12000.00
01465              20.00   -11800.00
01466              20.00   -11800.00
01467              22.00   -11600.00
01468              14.00   -11800.00
01469              14.00   -11600.00
01470              16.00   -11600.00
01471              20.00   -11600.00
01472              20.00   -11600.00
01473              22.00   -11600.00
01474              14.00   -11600.00
01475               8.00   -11400.00
01476              12.00   -11400.00
01477              14.00   -11400.00
01478              16.00   -11200.00
01479              20.00   -11200.00
01480              14.00   -11000.00
01481              10.00   -11200.00
01482              12.00   -11000.00
01483              12.00   -11000.00
01484              14.00   -10800.00
01485              16.00   -10600.00
01486              16.00   -10600.00
01487              12.00   -10600.00
01488               8.00   -10600.00
01489               6.00   -10400.00
01490              10.00   -10400.00
01491              12.00   -10000.00
01492              16.00   -10200.00
01493              12.00   -10000.00
01494               8.00   -10000.00
01495               6.00    -9800.00
01496               6.00    -9600.00
01497               8.00    -9400.00
01498              12.00    -9600.00
01499              12.00    -9200.00
01500               8.00    -9200.00
01501               6.00    -9000.00
01502               4.00    -9000.00
01503               6.00    -8800.00
01504               8.00    -8600.00
01505              10.00    -8600.00
01506               8.00    -8200.00
01507               8.00    -8200.00
01508               4.00    -8200.00
01509               2.00    -8000.00
01510               6.00    -7800.00
01511               6.00    -7600.00
01512               6.00    -7600.00
01513               6.00    -7200.00
01514               4.00    -7200.00
01515               4.00    -7200.00
01516               2.00    -6800.00
01517               4.00    -6800.00
01518               6.00    -6600.00
01519               6.00    -6400.00
01520               4.00    -6400.00
01521               0.00    -5800.00
01522              -2.00    -5800.00
01523               0.00    -5400.00
01524               4.00    -5400.00
01525               4.00    -5200.00
01526               4.00    -5200.00
01527               0.00    -5000.00
01528              -2.00    -4800.00
01529              -4.00    -4800.00
01530              -2.00    -4400.00
01531               0.00    -4200.00
01532               2.00    -4000.00
01533               0.00    -3800.00
01534              -4.00    -3800.00
01535              -4.00    -3600.00
01536              -6.00    -3400.00
01537              -4.00    -3200.00
01538              -4.00    -3000.00
01539              -2.00    -2800.00
01540              -2.00    -2600.00
01541              -6.00    -2400.00
01542             -10.00    -2200.00
01543             -10.00    -2000.00
01544              -8.00    -1800.00
01545              -4.00    -1600.00
01546              -8.00    -1400.00
01547              -8.00    -1200.00
01548             -10.00    -1000.00
01549             -10.00    -1000.00
01550             -12.00     -800.00
01551              -8.00     -400.00
01552              -8.00     -200.00
01553              -4.00        0.00
01554              -4.00        0.00
01555               0.00      400.00
01556              24.00      400.00
01557               2.00      600.00
01558             -28.00      800.00
01559             -20.00     1000.00
01560              12.00     1400.00
01561              20.00     1400.00
01562             124.00     1600.00
01563             252.00     2000.00
01564             -76.00     2200.00
01565            -248.00     2200.00
01566            -248.00     2400.00
01567             158.00     2400.00
01568             252.00     2800.00
01569             252.00     2800.00
01570            -248.00     2800.00
01571            -248.00     3400.00
01572             252.00     3200.00
01573             252.00     3800.00
01574            -248.00     4000.00
01575              84.00     3600.00
01576             108.00     4800.00
01577               0.00     4400.00
01578             252.00     4400.00
01579            -248.00     5600.00
01580            -228.00     4800.00
01581             252.00     4800.00
01582             -18.00     6000.00
01583            -138.00     5200.00
01584             -90.00     5600.00
01585             -36.00     6800.00
01586             116.00     5600.00
01587              70.00     6400.00
01588             -64.00     6800.00
01589            -248.00     6200.00
01590             128.00     7000.00
01591             252.00     7000.00
01592            -248.00     7000.00
01593              -2.00     7400.00
01594              70.00     7400.00
01595            -152.00     7600.00
01596             124.00     7200.00
01597             -28.00     8200.00
01598            -116.00     7800.00
01599              46.00     7800.00
01600              -6.00     8800.00
01601             -74.00     8000.00
01602             -20.00     8600.00
01603              60.00     8800.00
01604             -80.00     8600.00
01605             -40.00     9000.00
01606              40.00     9200.00
01607            -114.00     9200.00
01608              24.00     9200.00
01609              40.00     9400.00
01610            -124.00     9600.00
01611              -4.00     9400.00
01612              30.00    10000.00
01613             -68.00     9800.00
01614             -36.00    10000.00
01615               6.00    10200.00
01616             -40.00    10200.00
01617             -26.00    10200.00
01618               4.00    10400.00
01619             -68.00    10400.00
01620             -26.00    10400.00
01621              22.00    10800.00
01622             -60.00    10800.00
01623             -36.00    10800.00
01624               8.00    11000.00
01625             -48.00    11000.00
01626             -24.00    11000.00
01627              -4.00    11200.00
01628             -60.00    11200.00
01629             -32.00    11200.00
01630              20.00    11600.00
01631             -36.00    11200.00
01632             -48.00    11600.00
01633             -12.00    11600.00
01634             -36.00    11600.00
01635             -28.00    11600.00
01636              -2.00    11600.00
01637             -38.00    11600.00
01638             -36.00    11800.00
01639             -10.00    11600.00
01640             -34.00    11800.00
01641             -36.00    11600.00
01642             -12.00    11800.00
01643             -32.00    11800.00
01644             -26.00    11800.00
01645             -12.00    12000.00
01646             -36.00    11800.00
01647             -40.00    11800.00
01648             -10.00    12000.00
01649             -24.00    11800.00
01650             -28.00    11800.00
01651             -18.00    11800.00
01652             -28.00    11800.00
01653             -32.00    12000.00
01654             -16.00    12000.00
01655             -24.00    11800.00
01656             -32.00    11800.00
01657             -16.00    11800.00
01658             -22.00    11600.00
01659             -28.00    11800.00
01660             -20.00    11600.00
01661             -30.00    11600.00
01662             -28.00    11600.00
01663             -12.00    11600.00
01664             -20.00    11400.00
01665             -28.00    11400.00
01666             -22.00    11400.00
01667             -26.00    11200.00
01668             -20.00    11200.00
01669             -18.00    11000.00
01670             -26.00    11000.00
01671             -26.00    11000.00
01672             -18.00    11000.00
01673             -20.00    10800.00
01674             -28.00    10800.00
01675             -28.00    10800.00
01676             -24.00    10600.00
01677             -14.00    10400.00
01678             -16.00    10400.00
01679             -26.00    10200.00
01680             -32.00    10200.00
01681             -26.00    10200.00
01682             -16.00    10000.00
01683             -16.00    10000.00
01684             -20.00    10000.00
01685             -26.00     9600.00
01686             -26.00     9600.00
01687             -20.00     9600.00
01688             -18.00     9400.00
01689             -20.00     9200.00
01690             -20.00     9200.00
01691             -20.00     9200.00
01692             -20.00     9000.00
01693             -20.00     8800.00
01694             -18.00     8600.00
01695             -20.00     8600.00
01696             -16.00     8400.00
01697             -16.00     8200.00
01698             -18.00     8000.00
01699             -18.00     8000.00
01700             -20.00     7800.00
01701             -18.00     7600.00
01702             -12.00     7600.00
01703             -16.00     7400.00
01704             -14.00     7200.00
01705             -10.00     7200.00
01706             -18.00     7000.00
01707             -18.00     6800.00
01708             -18.00     6400.00
01709             -10.00     6400.00
01710              -8.00     6200.00
01711             -10.00     6200.00
01712             -10.00     6000.00
01713             -16.00     5600.00
01714             -10.00     5400.00
01715             -10.00     5400.00
01716             -10.00     5400.00
01717             -10.00     5200.00
01718             -12.00     5000.00
01719             -10.00     4800.00
01720             -12.00     4600.00
01721             -10.00     4400.00
01722              -8.00     4200.00
01723              -4.00     4000.00
01724              -6.00     3800.00
01725              -4.00     3600.00
01726             -10.00     3600.00
01727              -8.00     3200.00
01728              -4.00     3000.00
01729              -6.00     3000.00
01730              -4.00     2800.00
01731              -4.00     2400.00
01732              -4.00     2400.00
01733              -4.00     2000.00
01734              -6.00     1800.00
01735              -4.00     1800.00
01736              -4.00     1600.00
01737              -2.00     1200.00
01738              -4.00     1200.00
01739              -4.00     1000.00
01740              -4.00      800.00
01741              -4.00      600.00
01742              -2.00      400.00
01743               0.00      400.00
01744               4.00        0.00
01745               0.00     -400.00
01746               6.00     -400.00
01747              28.00     -800.00
01748              20.00     -800.00
01749             -12.00    -1000.00
01750             -16.00    -1200.00
01751              14.00    -1200.00
01752              28.00    -1200.00
01753              38.00    -1600.00
01754             180.00    -1800.00
01755             252.00    -2400.00
01756            -156.00    -2800.00
01757            -248.00    -2600.00
01758            -196.00    -2800.00
01759             230.00    -3000.00
01760             252.00    -2600.00
01761             252.00    -3400.00
01762            -248.00    -3600.00
01763            -248.00    -2800.00
01764             252.00    -4200.00
01765             252.00    -4000.00
01766            -248.00    -3600.00
01767            -232.00    -4800.00
01768             102.00    -4400.00
01769             188.00    -4200.00
01770             244.00    -5200.00
01771            -248.00    -4800.00
01772            -234.00    -5200.00
01773             252.00    -5800.00
01774             224.00    -5200.00
01775             -76.00    -5800.00
01776            -224.00    -6000.00
01777              24.00    -6000.00
01778             228.00    -6400.00
01779              82.00    -6600.00
01780            -108.00    -6800.00
01781            -164.00    -6600.00
01782             120.00    -7000.00
01783             236.00    -7200.00
01784             -90.00    -7200.00
01785            -132.00    -7400.00
01786              38.00    -7400.00
01787             108.00    -7600.00
01788              60.00    -8200.00
01789             -44.00    -8000.00
01790             -34.00    -8200.00
01791              44.00    -8400.00
01792              78.00    -8400.00
01793              -2.00    -8800.00
01794             -56.00    -8800.00
01795              52.00    -8800.00
01796              70.00    -9000.00
01797               0.00    -9200.00
01798             -16.00    -9400.00
01799             -10.00    -9400.00
01800              48.00    -9600.00
01801              68.00    -9600.00
01802              -2.00    -9800.00
01803             -26.00   -10000.00
01804              32.00   -10000.00
01805              46.00   -10000.00
01806               2.00   -10200.00
01807               6.00   -10400.00
01808              22.00   -10400.00
01809              24.00   -10400.00
01810              30.00   -10600.00
01811              12.00   -10800.00
01812              -4.00   -10800.00
01813              30.00   -10800.00
01814              32.00   -10800.00
01815              10.00   -11200.00
01816              20.00   -11000.00
01817              22.00   -11200.00
01818              12.00   -11200.00
01819              22.00   -11400.00
01820              20.00   -11400.00
01821              12.00   -11400.00
01822              30.00   -11600.00
01823              28.00   -11600.00
01824               4.00   -11600.00
01825               8.00   -11600.00
01826              22.00   -11800.00
01827              20.00   -11600.00
01828              28.00   -11800.00
01829              24.00   -11800.00
01830              12.00   -11800.00
01831              16.00   -12000.00
01832              20.00   -11800.00
01833              14.00   -11800.00
01834              24.00   -11800.00
01835              28.00   -12000.00
01836              20.00   -12000.00
01837              16.00   -11800.00
01838              14.00   -12000.00
01839              12.00   -12000.00
01840              22.00   -11800.00
01841              28.00   -12000.00
01842              22.00   -12000.00
01843              16.00   -11800.00
01844              20.00   -12000.00
01845              12.00   -11800.00
01846              20.00   -12000.00
01847              24.00   -11800.00
01848              22.00   -11600.00
01849              20.00   -12000.00
01850              20.00   -11600.00
01851              14.00   -11800.00
01852              14.00   -11800.00
01853              20.00   -11600.00
01854              20.00   -11600.00
01855              20.00   -11600.00
01856              20.00   -11600.00
01857              14.00   -11600.00
01858              12.00   -11400.00
01859              12.00   -11400.00
01860              16.00   -11400.00
01861              22.00   -11200.00
01862              22.00   -11200.00
01863              12.00   -11000.00
01864              12.00   -11200.00
01865              14.00   -11000.00
01866              12.00   -10800.00
01867              14.00   -10800.00
01868              18.00   -10800.00
01869              14.00   -10600.00
01870              12.00   -10600.00
01871               8.00   -10400.00
01872               8.00   -10400.00
01873              10.00   -10200.00
01874              14.00   -10200.00
01875              14.00   -10000.00
01876              12.00    -9800.00
01877               6.00    -9800.00
01878               6.00    -9600.00
01879               6.00    -9600.00
01880              12.00    -9400.00
01881              12.00    -9200.00
01882              12.00    -9200.00
01883               8.00    -9000.00
01884               6.00    -9000.00
01885               4.00    -8800.00
01886               6.00    -8800.00
01887               8.00    -8600.00
01888              10.00    -8400.00
01889               8.00    -8400.00
01890               6.00    -8400.00
01891               4.00    -8000.00
01892               4.00    -7800.00
01893               6.00    -7600.00
01894               8.00    -7400.00
01895               8.00    -7400.00
01896               6.00    -7200.00
01897               4.00    -7200.00
01898               2.00    -7000.00
01899               2.00    -6800.00
01900               4.00    -6800.00
01901               4.00    -6600.00
01902               4.00    -6400.00
01903               0.00    -6200.00
01904               0.00    -6000.00
01905              -2.00    -5600.00
01906              -2.00    -5400.00
01907               0.00    -5400.00
01908               4.00    -5200.00
01909               4.00    -5200.00
01910              -2.00    -5000.00
01911              -2.00    -4800.00
01912              -4.00    -4600.00
01913              -2.00    -4400.00
01914               0.00    -4200.00
01915               0.00    -4000.00
01916              -2.00    -4000.00
01917              -6.00    -3600.00
01918              -4.00    -3400.00
01919              -4.00    -3200.00
01920              -4.00    -3200.00
01921              -2.00    -2800.00
01922              -2.00    -2600.00
01923              -4.00    -2400.00
01924              -8.00    -2400.00
01925             -10.00    -2000.00
01926              -6.00    -1800.00
01927              -6.00    -1800.00
01928              -4.00    -1400.00
01929              -4.00    -1400.00
01930              -8.00    -1000.00
01931             -10.00    -1000.00
01932             -10.00     -800.00
01933             -12.00     -600.00
01934              -8.00     -400.00
01935              -4.00     -200.00
01936              -6.00        0.00
01937             -10.00        0.00
01938              12.00      400.00
01939              22.00      600.00
01940             -12.00      800.00
01941             -28.00     1000.00
01942              -6.00     1000.00
01943              14.00     1400.00
01944              28.00     1400.00
01945             222.00     1800.00
01946             252.00     2000.00
01947            -248.00     2200.00
01948            -248.00     2400.00
01949            -122.00     2400.00
01950             252.00     2400.00
01951             252.00     3000.00
01952             252.00     2800.00
01953            -248.00     3000.00
01954            -150.00     3600.00
01955             252.00     3400.00
01956            -190.00     4000.00
01957            -248.00     3800.00
01958             252.00     3800.00
01959             -68.00     4800.00
01960             212.00     4000.00
01961             160.00     4800.00
01962            -248.00     5400.00
01963             102.00     4600.00
01964             252.00     5400.00
01965            -144.00     5800.00
01966            -100.00     5000.00
01967             -92.00     6200.00
01968              28.00     6200.00
01969             112.00     5400.00
01970              44.00     7000.00
01971            -168.00     6400.00
01972            -228.00     6200.00
01973             252.00     7200.00
01974              52.00     6800.00
01975            -248.00     7000.00
01976             126.00     7400.00
01977             -58.00     7600.00
01978             -68.00     7200.00
01979             134.00     7600.00
01980            -116.00     8400.00
01981             -52.00     7800.00
01982              48.00     8400.00
01983             -40.00     8600.00
01984             -68.00     8000.00
01985              20.00     8800.00
01986              28.00     8600.00
01987            -104.00     8800.00
01988              22.00     9200.00
01989             -12.00     9200.00
01990            -100.00     9200.00
01991              80.00     9200.00
01992             -32.00     9600.00
01993            -106.00     9600.00
01994              42.00     9600.00
01995              -8.00    10000.00
01996             -72.00     9600.00
01997             -12.00    10000.00
01998              -6.00    10200.00
01999             -48.00    10200.00
02000              -2.00    10400.00
02001             -18.00    10400.00
02002             -74.00    10400.00
02003               8.00    10600.00
02004              -2.00    10800.00
02005             -74.00    10800.00
02006              -4.00    10800.00
02007              -8.00    11000.00
02008             -52.00    11000.00
02009              -6.00    11000.00
02010             -20.00    11400.00
02011             -66.00    11200.00
02012              -4.00    11200.00
02013               8.00    11400.00
02014             -52.00    11400.00
02015             -32.00    11600.00
02016             -16.00    11600.00
02017             -42.00    11600.00
02018             -12.00    11600.00
02019             -10.00    11600.00
02020             -46.00    11600.00
02021             -24.00    11800.00
02022             -16.00    11800.00
02023             -40.00    11800.00
02024             -26.00    11800.00
02025             -12.00    12000.00
02026             -36.00    11800.00
02027             -18.00    11800.00
02028             -12.00    12000.00
02029             -48.00    12000.00
02030             -26.00    12000.00
02031              -8.00    12000.00
02032             -36.00    11800.00
02033             -20.00    11800.00
02034             -20.00    12000.00
02035             -36.00    11800.00
02036             -24.00    12000.00
02037             -18.00    11800.00
02038             -28.00    11800.00
02039             -26.00    11800.00
02040             -16.00    12000.00
02041             -26.00    11600.00
02042             -26.00    11600.00
02043             -24.00    11800.00
02044             -32.00    11600.00
02045             -20.00    11600.00
02046             -12.00    11600.00
02047             -26.00    11600.00
02048             -26.00    11600.00
02049             -20.00    11400.00
02050             -28.00    11200.00
02051             -24.00    11200.00
02052             -18.00    11200.00
02053             -24.00    11000.00
02054             -24.00    11000.00
02055             -18.00    11000.00
02056             -26.00    10800.00
02057             -24.00    10800.00
02058             -18.00    10800.00
02059             -20.00    10400.00
02060             -20.00    10400.00
02061             -18.00    10400.00
02062             -26.00    10400.00
02063             -24.00    10200.00
02064             -18.00    10200.00
02065             -22.00    10200.00
02066             -20.00    10000.00
02067             -18.00     9800.00
02068             -24.00     9800.00
02069             -24.00     9600.00
02070             -20.00     9600.00
02071             -20.00     9400.00
02072             -20.00     9200.00
02073             -16.00     9200.00
02074             -18.00     8800.00
02075             -20.00     8800.00
02076             -20.00     8600.00
02077             -18.00     8600.00
02078             -18.00     8400.00
02079             -16.00     8200.00
02080             -18.00     8000.00
02081             -18.00     8000.00
02082             -20.00     7800.00
02083             -16.00     7800.00
02084             -16.00     7600.00
02085             -16.00     7400.00
02086             -18.00     7400.00
02087             -14.00     7200.00
02088             -12.00     7000.00
02089             -20.00     6800.00
02090             -20.00     6800.00
02091             -14.00     6400.00
02092             -10.00     6400.00
02093             -10.00     6200.00
02094             -10.00     6000.00
02095             -12.00     6000.00
02096             -12.00     5600.00
02097             -10.00     5400.00
02098             -12.00     5400.00
02099             -10.00     5200.00
02100             -10.00     5000.00
02101             -10.00     4800.00
02102             -12.00     4800.00
02103             -10.00     4400.00
02104             -10.00     4200.00
02105             -10.00     4200.00
02106              -4.00     3800.00
02107              -6.00     3800.00
02108              -8.00     3600.00
02109             -10.00     3400.00
02110              -8.00     3200.00
02111              -4.00     3000.00
02112              -2.00     2800.00
02113              -4.00     2800.00
02114              -8.00     2400.00
02115              -4.00     2400.00
02116              -6.00     2000.00
02117              -4.00     1800.00
02118              -4.00     1600.00
02119              -2.00     1400.00
02120              -2.00     1400.00
02121              -2.00     1200.00
02122              -4.00      800.00
02123              -2.00      600.00
02124              -2.00      600.00
02125               0.00      400.00
02126               4.00        0.00
02127               2.00     -200.00
02128               4.00     -200.00
02129              14.00     -400.00
02130              32.00     -600.00
02131               8.00     -800.00
02132             -20.00    -1000.00
02133              -4.00    -1200.00
02134              22.00    -1200.00
02135              28.00    -1600.00
02136              64.00    -1600.00
02137             252.00    -1800.00
02138             218.00    -2600.00
02139            -248.00    -2600.00
02140            -248.00    -2800.00
02141              20.00    -2800.00
02142             248.00    -2800.00
02143             252.00    -2800.00
02144             252.00    -3600.00
02145            -248.00    -3400.00
02146            -248.00    -3200.00
02147             252.00    -4600.00
02148             204.00    -3600.00
02149            -248.00    -4000.00
02150             -52.00    -5000.00
02151             112.00    -4200.00
02152             252.00    -4800.00
02153              86.00    -5200.00
02154            -248.00    -4800.00
02155             -38.00    -5600.00
02156             252.00    -5400.00
02157             118.00    -5200.00
02158            -162.00    -5800.00
02159            -172.00    -6000.00
02160             134.00    -6000.00
02161             200.00    -6400.00
02162              12.00    -6600.00
02163            -164.00    -6800.00
02164            -100.00    -6800.00
02165             222.00    -7200.00
02166             140.00    -7200.00
02167            -156.00    -7400.00
02168             -74.00    -7600.00
02169              76.00    -7400.00
02170             110.00    -7800.00
02171              24.00    -8000.00
02172             -66.00    -7800.00
02173             -10.00    -8400.00
02174              70.00    -8400.00
02175              64.00    -8600.00
02176             -40.00    -8800.00
02177             -22.00    -8800.00
02178              72.00    -9000.00
02179              46.00    -9000.00
02180              -4.00    -9200.00
02181             -24.00    -9200.00
02182               8.00    -9400.00
02183              70.00    -9600.00
02184              46.00    -9600.00
02185             -20.00    -9800.00
02186              -4.00   -10000.00
02187              48.00   -10000.00
02188              32.00   -10200.00
02189               2.00   -10200.00
02190              16.00   -10400.00
02191              22.00   -10400.00
02192              28.00   -10400.00
02193              30.00   -10600.00
02194               4.00   -10600.00
02195               8.00   -10800.00
02196              36.00   -10800.00
02197              28.00   -10800.00
02198              12.00   -11000.00
02199              20.00   -11200.00
02200              20.00   -11200.00
02201              16.00   -11400.00
02202              22.00   -11200.00
02203              14.00   -11400.00
02204              16.00   -11400.00
02205              38.00   -11400.00
02206              22.00   -11600.00
02207               4.00   -11600.00
02208              14.00   -11600.00
02209              22.00   -11600.00
02210              22.00   -11800.00
02211              28.00   -11800.00
02212              20.00   -11800.00
02213              12.00   -11800.00
02214              16.00   -11800.00
02215              16.00   -11800.00
02216              20.00   -12000.00
02217              28.00   -11800.00
02218              24.00   -12000.00
02219              16.00   -12000.00
02220              14.00   -12000.00
02221              14.00   -11800.00
02222              16.00   -12000.00
02223              24.00   -12200.00
02224              22.00   -11800.00
02225              20.00   -11800.00
02226              20.00   -12000.00
02227              16.00   -11800.00
02228              14.00   -12000.00
02229              20.00   -11800.00
02230              22.00   -11800.00
02231              22.00   -11800.00
02232              20.00   -11800.00
02233              16.00   -11800.00
02234              12.00   -11600.00
02235              14.00   -11600.00
02236              22.00   -11600.00
02237              20.00   -11600.00
02238              20.00   -11600.00
02239              18.00   -11600.00
02240              14.00   -11400.00
02241              12.00   -11400.00
02242              14.00   -11400.00
02243              20.00   -11200.00
02244              20.00   -11200.00
02245              18.00   -11200.00
02246              14.00   -11000.00
02247              12.00   -11000.00
02248              14.00   -10800.00
02249              16.00   -10800.00
02250              16.00   -10800.00
02251              16.00   -10600.00
02252              16.00   -10600.00
02253              12.00   -10400.00
02254               6.00   -10400.00
02255              12.00   -10400.00
02256              14.00   -10200.00
02257              12.00   -10200.00
02258              14.00   -10000.00
02259              10.00    -9800.00
02260               8.00    -9800.00
02261               6.00    -9600.00
02262               6.00    -9600.00
02263              12.00    -9400.00
02264              12.00    -9200.00
02265              12.00    -9200.00
02266               6.00    -9200.00
02267               6.00    -9000.00
02268               4.00    -8800.00
02269               6.00    -8800.00
02270               8.00    -8400.00
02271               8.00    -8200.00
02272               6.00    -8200.00
02273               4.00    -8200.00
02274               4.00    -8000.00
02275               4.00    -7800.00
02276               6.00    -7600.00
02277               6.00    -7600.00
02278               6.00    -7400.00
02279               4.00    -7400.00
02280               0.00    -7200.00
02281              -2.00    -7000.00
02282               2.00    -6800.00
02283               4.00    -6600.00
02284               4.00    -6600.00
02285               4.00    -6400.00
02286               4.00    -6000.00
02287              -2.00    -5800.00
02288              -2.00    -5600.00
02289               0.00    -5400.00
02290               0.00    -5400.00
02291               6.00    -5200.00
02292              -2.00    -5000.00
02293              -4.00    -4800.00
02294              -2.00    -4600.00
02295              -8.00    -4400.00
02296               0.00    -4400.00
02297               4.00    -4000.00
02298              -4.00    -4000.00
02299              -4.00    -3600.00
02300              -2.00    -3600.00
02301              -6.00    -3400.00
02302              -4.00    -3200.00
02303               4.00    -2800.00
02304              -8.00    -2800.00
02305              -4.00    -2600.00
02306               0.00    -2400.00
02307             -10.00    -2200.00
02308             -10.00    -2000.00
02309              -4.00    -1800.00
02310              -4.00    -1800.00
02311              -6.00    -1600.00
02312              -8.00    -1200.00
02313              -4.00    -1000.00
02314              -8.00    -1000.00
02315             -12.00     -800.00
02316             -16.00     -400.00
02317              -8.00     -400.00
02318               0.00     -200.00
02319              -2.00        0.00
02320              -4.00      400.00
02321              20.00      400.00
02322               8.00      600.00
02323             -20.00     1000.00
02324             -20.00     1200.00
02325               6.00     1200.00
02326              12.00     1400.00
02327              58.00     1600.00
02328             252.00     2000.00
02329             140.00     2200.00
02330            -248.00     2400.00
02331            -248.00     2400.00
02332              48.00     2400.00
02333             252.00     2600.00
02334             252.00     3200.00
02335            -248.00     3000.00
02336            -248.00     3400.00
02337             252.00     3400.00
02338             252.00     3600.00
02339            -248.00     4000.00
02340            -228.00     3600.00
02341             244.00     4200.00
02342            -112.00     4600.00
02343             252.00     4000.00
02344            -172.00     5200.00
02345            -248.00     5200.00
02346             252.00     4600.00
02347             144.00     5800.00
02348            -168.00     5400.00
02349             -82.00     5200.00
02350             -82.00     6400.00
02351              92.00     6000.00
02352              92.00     6000.00
02353               0.00     7000.00
02354            -248.00     6000.00
02355             -56.00     6600.00
02356             252.00     7000.00
02357            -176.00     6800.00
02358            -148.00     7400.00
02359             140.00     7400.00
02360            -152.00     7600.00
02361              52.00     7400.00
02362              62.00     8000.00
02363            -146.00     8000.00
02364              16.00     7600.00
02365              20.00     8600.00
02366             -64.00     8200.00
02367             -48.00     8200.00
02368              58.00     8800.00
02369             -30.00     8600.00
02370             -88.00     9000.00
02371              54.00     9200.00
02372             -78.00     9200.00
02373             -38.00     9200.00
02374              80.00     9400.00
02375             -98.00     9800.00
02376             -52.00     9400.00
02377              52.00    10000.00
02378             -44.00    10000.00
02379             -56.00     9800.00
02380               4.00    10400.00
02381             -26.00    10200.00
02382             -36.00    10200.00
02383              14.00    10400.00
02384             -44.00    10400.00
02385             -50.00    10600.00
02386              28.00    10600.00
02387             -40.00    10800.00
02388             -56.00    10600.00
02389              12.00    11000.00
02390             -30.00    11000.00
02391             -38.00    11000.00
02392               4.00    11200.00
02393             -48.00    11200.00
02394             -50.00    11200.00
02395              14.00    11400.00
02396             -16.00    11200.00
02397             -58.00    11400.00
02398             -16.00    11600.00
02399             -26.00    11600.00
02400             -36.00    11600.00
02401              -4.00    11600.00
02402             -26.00    11800.00
02403             -44.00    11800.00
02404             -10.00    11800.00
02405             -24.00    11800.00
02406             -40.00    11600.00
02407             -16.00    11800.00
02408             -24.00    11800.00
02409             -32.00    11800.00
02410             -12.00    11800.00
02411             -28.00    12000.00
02412             -44.00    11800.00
02413             -18.00    11800.00
02414             -18.00    11800.00
02415             -32.00    11800.00
02416             -18.00    11800.00
02417             -24.00    12000.00
02418             -34.00    11800.00
02419             -20.00    11800.00
02420             -20.00    11800.00
02421             -34.00    11800.00
02422             -20.00    11600.00
02423             -20.00    11800.00
02424             -28.00    11600.00
02425             -24.00    11600.00
02426             -26.00    11600.00
02427             -32.00    11600.00
02428             -16.00    11600.00
02429             -16.00    11600.00
02430             -28.00    11600.00
02431             -26.00    11400.00
02432             -24.00    11400.00
02433             -28.00    11200.00
02434             -16.00    11200.00
02435             -18.00    11200.00
02436             -28.00    11000.00
02437             -20.00    11000.00
02438             -20.00    11000.00
02439             -26.00    10800.00
02440             -24.00    10800.00
02441             -18.00    10600.00
02442             -20.00    10600.00
02443             -18.00    10400.00
02444             -24.00    10400.00
02445             -26.00    10200.00
02446             -20.00    10200.00
02447             -18.00    10200.00
02448             -18.00    10000.00
02449             -18.00    10000.00
02450             -18.00     9800.00
02451             -20.00     9600.00
02452             -20.00     9600.00
02453             -18.00     9400.00
02454             -22.00     9400.00
02455             -18.00     9400.00
02456             -16.00     9200.00
02457             -20.00     8800.00
02458             -18.00     8800.00
02459             -20.00     8600.00
02460             -20.00     8600.00
02461             -16.00     8400.00
02462             -12.00     8400.00
02463             -16.00     8200.00
02464             -18.00     8000.00
02465             -20.00     7800.00
02466             -18.00     7800.00
02467             -16.00     7600.00
02468             -12.00     7400.00
02469             -18.00     7200.00
02470             -10.00     7000.00
02471             -16.00     7000.00
02472             -18.00     6800.00
02473             -18.00     6800.00
02474             -10.00     6400.00
02475             -12.00     6400.00
02476             -10.00     6000.00
02477             -16.00     6000.00
02478             -12.00     5800.00
02479             -14.00     5600.00
02480             -10.00     5400.00
02481             -10.00     5400.00
02482             -10.00     5000.00
02483             -12.00     4800.00
02484             -10.00     4800.00
02485             -10.00     4600.00
02486             -12.00     4400.00
02487             -10.00     4200.00
02488              -8.00     4000.00
02489              -4.00     3800.00
02490              -8.00     3600.00
02491             -10.00     3600.00
02492              -8.00     3200.00
02493             -10.00     3000.00
02494              -4.00     3000.00
02495              -2.00     2800.00
02496              -4.00     2600.00
02497              -4.00     2400.00
02498              -4.00     2200.00
02499              -8.00     2000.00
02500              -4.00     1800.00
02501              -4.00     1600.00
02502              -2.00     1400.00
02503               0.00     1200.00
02504              -4.00     1000.00
02505              -2.00      800.00
02506              -2.00      600.00
02507               0.00      600.00
02508               0.00      400.00
02509               4.00        0.00
02510               6.00     -200.00
02511               6.00     -200.00
02512              22.00     -600.00
02513              32.00     -800.00
02514              -2.00     -800.00
02515             -20.00    -1000.00
02516               8.00    -1200.00
02517              28.00    -1400.00
02518              32.00    -1600.00
02519             116.00    -1600.00
02520             252.00    -2200.00
02521              38.00    -2600.00
02522            -248.00    -2600.00
02523            -248.00    -2800.00
02524             168.00    -3000.00
02525             252.00    -2600.00
02526             252.00    -2800.00
02527             -16.00    -3600.00
02528            -248.00    -3200.00
02529             180.00    -3600.00
02530             252.00    -4400.00
02531            -248.00    -3400.00
02532            -248.00    -4400.00
02533              60.00    -4800.00
02534             140.00    -4200.00
02535             252.00    -5200.00
02536            -124.00    -5200.00
02537            -248.00    -4800.00
02538             148.00    -5800.00
02539             252.00    -5400.00
02540              12.00    -5600.00
02541            -218.00    -6000.00
02542             -76.00    -5800.00
02543             208.00    -6200.00
02544             142.00    -6400.00
02545             -56.00    -6800.00
02546            -188.00    -6600.00
02547              12.00    -6600.00
02548             252.00    -7200.00
02549               8.00    -7200.00
02550            -162.00    -7400.00
02551              -4.00    -7600.00
02552             100.00    -7400.00
02553              90.00    -8000.00
02554             -20.00    -8000.00
02555             -52.00    -8000.00
02556              22.00    -8400.00
02557              80.00    -8200.00
02558              36.00    -8600.00
02559             -60.00    -8600.00
02560              14.00    -8800.00
02561              86.00    -9000.00
02562              22.00    -9200.00
02563              -8.00    -9200.00
02564             -18.00    -9200.00
02565              22.00    -9400.00
02566              72.00    -9600.00
02567              26.00    -9600.00
02568             -24.00   -10000.00
02569              16.00   -10000.00
02570              48.00   -10000.00
02571               8.00   -10000.00
02572               6.00   -10400.00
02573              30.00   -10400.00
02574              22.00   -10400.00
02575              28.00   -10600.00
02576              22.00   -10600.00
02577              -4.00   -10800.00
02578              24.00   -10800.00
02579              44.00   -10800.00
02580              18.00   -10800.00
02581              14.00   -11200.00
02582              24.00   -11000.00
02583              16.00   -11200.00
02584              22.00   -11200.00
02585              24.00   -11400.00
02586              10.00   -11400.00
02587              28.00   -11400.00
02588              36.00   -11600.00
02589               8.00   -11600.00
02590               6.00   -11600.00
02591              22.00   -11600.00
02592              22.00   -11600.00
02593              22.00   -11600.00
02594              28.00   -11600.00
02595              12.00   -12000.00
02596              12.00   -11800.00
02597              22.00   -12000.00
02598              12.00   -11800.00
02599              22.00   -12000.00
02600              28.00   -12000.00
02601              20.00   -11800.00
02602              14.00   -12000.00
02603              16.00   -12000.00
02604              12.00   -12000.00
02605              18.00   -12000.00
02606              28.00   -12000.00
02607              18.00   -11800.00
02608              16.00   -12000.00
02609              20.00   -11800.00
02610              14.00   -12000.00
02611              12.00   -12000.00
02612              22.00   -11800.00
02613              22.00   -11800.00
02614              18.00   -12000.00
02615              22.00   -11800.00
02616              12.00   -11800.00
02617              10.00   -11600.00
02618              16.00   -11600.00
02619              20.00   -11600.00
02620              20.00   -11600.00
02621              20.00   -11600.00
02622              14.00   -11400.00
02623               8.00   -11400.00
02624              14.00   -11400.00
02625              16.00   -11200.00
02626              20.00   -11400.00
02627              22.00   -11200.00
02628              16.00   -11200.00
02629              14.00   -11000.00
02630              12.00   -11000.00
02631              12.00   -10800.00
02632               8.00   -10800.00
02633              12.00   -10600.00
02634              16.00   -10600.00
02635              20.00   -10600.00
02636              22.00   -10400.00
02637              16.00   -10400.00
02638               8.00   -10400.00
02639               8.00   -10200.00
02640               6.00   -10200.00
02641              12.00   -10000.00
02642              20.00    -9800.00
02643              14.00    -9800.00
02644               8.00    -9800.00
02645               6.00    -9400.00
02646               8.00    -9200.00
02647              14.00    -9200.00
02648              18.00    -9200.00
02649              12.00    -9200.00
02650               0.00    -9000.00
02651              -2.00    -8800.00
02652               8.00    -8600.00
02653              14.00    -8600.00
02654              12.00    -8200.00
02655               4.00    -8200.00
02656               0.00    -8200.00
02657               4.00    -8000.00
02658               8.00    -7800.00
02659               6.00    -7600.00
02660               4.00    -7400.00
02661               6.00    -7400.00
02662               4.00    -7200.00
02663               0.00    -7000.00
02664               0.00    -6800.00
02665               0.00    -6600.00
02666               4.00    -6400.00
02667               6.00    -6400.00
02668               0.00    -6400.00
02669               0.00    -5800.00
02670              -2.00    -6000.00
02671              -4.00    -5800.00
02672               0.00    -5400.00
02673               0.00    -5400.00
02674               0.00    -5200.00
02675              -2.00    -5000.00
02676              -4.00    -4800.00
02677              -4.00    -4600.00
02678              -2.00    -4400.00
02679               0.00    -4200.00
02680               2.00    -4200.00
02681              -2.00    -3800.00
02682              -4.00    -3600.00
02683              -6.00    -3600.00
02684              -8.00    -3400.00
02685              -4.00    -3200.00
02686              -4.00    -3000.00
02687              -4.00    -2800.00
02688              -4.00    -2600.00
02689              -4.00    -2400.00
02690              -8.00    -2200.00
02691              -8.00    -2000.00
02692              -8.00    -1800.00
02693              -4.00    -1600.00
02694              -4.00    -1400.00
02695              -4.00    -1200.00
02696             -10.00    -1200.00
02697             -10.00     -800.00
02698             -10.00     -600.00
02699              -8.00     -400.00
02700              -4.00     -400.00
02701              -4.00        0.00
02702              -4.00        0.00
02703               6.00      400.00
02704              24.00      600.00
02705               2.00      800.00
02706             -28.00     1000.00
02707             -18.00     1000.00
02708              10.00     1400.00
02709              22.00     1400.00
02710             140.00     1600.00
02711             252.00     2200.00
02712            -114.00     2200.00
02713            -248.00     2400.00
02714            -248.00     2400.00
02715             176.00     2400.00
02716             252.00     2800.00
02717             252.00     3000.00
02718            -248.00     3000.00
02719            -248.00     3400.00
02720             252.00     3200.00
02721             252.00     4000.00
02722            -248.00     4000.00
02723             124.00     3600.00
02724              76.00     4600.00
02725              32.00     4200.00
02726             252.00     4400.00
02727            -248.00     5400.00
02728            -176.00     4800.00
02729             252.00     4800.00
02730             -48.00     6000.00
02731            -130.00     5000.00
02732             -88.00     5800.00
02733             -30.00     6400.00
02734             116.00     5400.00
02735              68.00     6400.00
02736             -82.00     6800.00
02737            -248.00     6200.00
02738             160.00     7000.00
02739             232.00     7000.00
02740            -248.00     7000.00
02741              24.00     7200.00
02742              52.00     7600.00
02743            -148.00     7600.00
02744             132.00     7400.00
02745             -44.00     8200.00
02746            -110.00     7800.00
02747              48.00     8000.00
02748             -12.00     8800.00
02749             -74.00     8000.00
02750             -10.00     8600.00
02751              60.00     8800.00
02752             -88.00     8600.00
02753             -32.00     9200.00
02754              36.00     9200.00
02755            -110.00     9200.00
02756              38.00     9200.00
02757              32.00     9600.00
02758            -124.00     9400.00
02759               8.00     9400.00
02760              30.00    10000.00
02761             -68.00     9800.00
02762             -28.00    10000.00
02763               6.00    10400.00
02764             -42.00    10000.00
02765             -20.00    10400.00
02766               4.00    10400.00
02767             -68.00    10400.00
02768             -18.00    10400.00
02769              22.00    10800.00
02770             -64.00    10800.00
02771             -28.00    10800.00
02772               8.00    11000.00
02773             -44.00    11000.00
02774             -20.00    11200.00
02775              -6.00    11200.00
02776             -62.00    11200.00
02777             -28.00    11200.00
02778              22.00    11600.00
02779             -36.00    11400.00
02780             -44.00    11600.00
02781             -16.00    11600.00
02782             -36.00    11600.00
02783             -26.00    11600.00
02784              -2.00    11600.00
02785             -40.00    11600.00
02786             -36.00    11600.00
02787             -10.00    11800.00
02788             -36.00    11800.00
02789             -34.00    11800.00
02790             -12.00    12000.00
02791             -34.00    11800.00
02792             -26.00    11800.00
02793             -14.00    11800.00
02794             -40.00    11800.00
02795             -36.00    11800.00
02796             -12.00    11800.00
02797             -26.00    11800.00
02798             -32.00    11800.00
02799             -18.00    11800.00
02800             -28.00    11800.00
02801             -32.00    11800.00
02802             -18.00    11800.00
02803             -28.00    11800.00
02804             -32.00    11800.00
02805             -20.00    11800.00
02806             -24.00    11600.00
02807             -28.00    11800.00
02808             -26.00    11600.00
02809             -32.00    11600.00
02810             -20.00    11600.00
02811             -10.00    11600.00
02812             -24.00    11600.00
02813             -34.00    11600.00
02814             -26.00    11200.00
02815             -26.00    11200.00
02816             -26.00    11200.00
02817             -14.00    11200.00
02818             -24.00    11000.00
02819             -30.00    11000.00
02820             -20.00    11000.00
02821             -20.00    11000.00
02822             -26.00    10800.00
02823             -24.00    10800.00
02824             -20.00    10600.00
02825             -20.00    10400.00
02826             -18.00    10400.00
02827             -24.00    10400.00
02828             -26.00    10200.00
02829             -20.00    10400.00
02830             -20.00    10000.00
02831             -18.00    10000.00
02832             -16.00    10000.00
02833             -20.00     9800.00
02834             -26.00     9600.00
02835             -20.00     9600.00
02836             -26.00     9400.00
02837             -12.00     9400.00
02838             -10.00     9200.00
02839             -10.00     9200.00
02840             -24.00     9000.00
02841             -28.00     8800.00
02842             -18.00     8800.00
02843             -12.00     8600.00
02844             -12.00     8400.00
02845             -20.00     8200.00
02846             -24.00     8000.00
02847             -16.00     8000.00
02848             -16.00     7800.00
02849             -16.00     7600.00
02850             -16.00     7600.00
02851             -18.00     7400.00
02852             -16.00     7200.00
02853             -10.00     7000.00
02854             -12.00     6800.00
02855             -20.00     6800.00
02856             -20.00     6600.00
02857             -12.00     6400.00
02858             -10.00     6200.00
02859              -8.00     6200.00
02860             -16.00     6000.00
02861             -18.00     5600.00
02862             -12.00     5600.00
02863             -10.00     5400.00
02864             -10.00     5200.00
02865             -12.00     5200.00
02866             -14.00     4800.00
02867             -10.00     4800.00
02868             -10.00     4600.00
02869             -12.00     4400.00
02870             -10.00     4200.00
02871              -8.00     3800.00
02872              -8.00     3800.00
02873              -8.00     3600.00
02874             -10.00     3600.00
02875             -10.00     3200.00
02876              -8.00     3000.00
02877              -4.00     2800.00
02878              -4.00     2800.00
02879              -4.00     2400.00
02880              -4.00     2400.00
02881              -4.00     2200.00
02882              -4.00     2000.00
02883              -8.00     1800.00
02884              -2.00     1600.00
02885               2.00     1400.00
02886              -4.00     1200.00
02887              -2.00      800.00
02888              -2.00      800.00
02889              -4.00      600.00
02890              -2.00      400.00
02891               4.00      200.00
02892               6.00     -200.00
02893               4.00     -200.00
02894               8.00     -400.00
02895              32.00     -400.00
02896              22.00     -800.00
02897             -12.00     -800.00
02898             -10.00    -1200.00
02899              14.00    -1200.00
02900              30.00    -1400.00
02901              44.00    -1600.00
02902             196.00    -1600.00
02903             252.00    -2400.00
02904            -192.00    -2800.00
02905            -248.00    -2800.00
02906            -160.00    -3000.00
02907             240.00    -2800.00
02908             252.00    -2800.00
02909             252.00    -3400.00
02910            -248.00    -3600.00
02911            -248.00    -3200.00
02912             252.00    -4200.00
02913             252.00    -4000.00
02914            -248.00    -3600.00
02915            -202.00    -5000.00
02916             104.00    -4400.00
02917             204.00    -4400.00
02918             224.00    -5600.00
02919            -248.00    -4800.00
02920            -208.00    -5200.00
02921             252.00    -5800.00
02922             212.00    -5200.00
02923             -92.00    -5800.00
02924            -220.00    -6000.00
02925              44.00    -6000.00
02926             222.00    -6400.00
02927              70.00    -6600.00
02928            -118.00    -6600.00
02929            -162.00    -6600.00
02930             138.00    -7200.00
02931             228.00    -7400.00
02932            -106.00    -7200.00
02933            -122.00    -7600.00
02934              44.00    -7400.00
02935             108.00    -7600.00
02936              56.00    -8200.00
02937             -56.00    -8000.00
02938             -28.00    -8200.00
02939              48.00    -8400.00
02940              78.00    -8400.00
02941             -10.00    -8600.00
02942             -50.00    -8800.00
02943              56.00    -9000.00
02944              64.00    -9000.00
02945              -2.00    -9200.00
02946             -16.00    -9400.00
02947             -10.00    -9200.00
02948              54.00    -9600.00
02949              64.00    -9600.00
02950              -8.00    -9800.00
02951             -20.00    -9800.00
02952              38.00   -10000.00
02953              44.00   -10000.00
02954               0.00   -10000.00
02955               8.00   -10200.00
02956              24.00   -10400.00
02957              24.00   -10400.00
02958              32.00   -10600.00
02959               8.00   -10600.00
02960              -2.00   -10800.00
02961              32.00   -11000.00
02962              32.00   -10800.00
02963              12.00   -11000.00
02964              20.00   -11000.00
02965              20.00   -11200.00
02966              14.00   -11200.00
02967              24.00   -11200.00
02968              16.00   -11400.00
02969              14.00   -11400.00
02970              36.00   -11400.00
02971              28.00   -11400.00
02972               4.00   -11600.00
02973              12.00   -11600.00
02974              22.00   -11600.00
02975              22.00   -11600.00
02976              28.00   -11800.00
02977              22.00   -11600.00
02978              12.00   -11800.00
02979              18.00   -11800.00
02980              18.00   -11800.00
02981              12.00   -12000.00
02982              24.00   -12000.00
02983              26.00   -11800.00
02984              18.00   -11800.00
02985              18.00   -12000.00
02986              12.00   -12000.00
02987              12.00   -12000.00
02988              22.00   -11800.00
02989              24.00   -12000.00
02990              16.00   -11800.00
02991              20.00   -12000.00
02992              16.00   -12000.00
02993              12.00   -12000.00
02994              14.00   -11800.00
02995              20.00   -11800.00
02996              22.00   -11800.00
02997              16.00   -11800.00
02998              16.00   -12000.00
02999              14.00   -11600.00
03000               6.00   -11800.00
03001              20.00   -11600.00
03002              20.00   -11600.00
03003              16.00   -11600.00
03004              20.00   -11400.00
03005              12.00   -11600.00
03006              12.00   -11400.00
03007              12.00   -11400.00
03008              16.00   -11200.00
03009              20.00   -11400.00
03010              18.00   -11200.00
03011              12.00   -11200.00
03012              10.00   -11000.00
03013              12.00   -11000.00
03014              14.00   -10800.00
03015              12.00   -10600.00
03016              20.00   -10600.00
03017              16.00   -10600.00
03018              12.00   -10600.00
03019              12.00   -10400.00
03020               8.00   -10400.00
03021              12.00   -10400.00
03022              16.00   -10000.00
03023              14.00   -10000.00
03024              12.00    -9800.00
03025               8.00    -9800.00
03026               6.00    -9600.00
03027               8.00    -9600.00
03028              12.00    -9400.00
03029              12.00    -9400.00
03030              12.00    -9200.00
03031              10.00    -9000.00
03032               6.00    -9000.00
03033               4.00    -8800.00
03034               6.00    -8800.00
03035               8.00    -8400.00
03036              10.00    -8400.00
03037               8.00    -8200.00
03038               6.00    -8200.00
03039               2.00    -8000.00
03040               4.00    -8000.00
03041               6.00    -7600.00
03042               8.00    -7400.00
03043               6.00    -7600.00
03044               4.00    -7200.00
03045               0.00    -7200.00
03046               0.00    -7000.00
03047               0.00    -6800.00
03048               4.00    -6600.00
03049               4.00    -6400.00
03050               4.00    -6400.00
03051               2.00    -6000.00
03052               0.00    -6000.00
03053               0.00    -5800.00
03054              -2.00    -5400.00
03055               0.00    -5400.00
03056               0.00    -5200.00
03057               0.00    -5000.00
03058               0.00    -5000.00
03059              -4.00    -4800.00
03060              -8.00    -4800.00
03061              -4.00    -4400.00
03062               0.00    -4200.00
03063               0.00    -4000.00
03064              -4.00    -3800.00
03065              -4.00    -3600.00
03066              -8.00    -3400.00
03067              -6.00    -3200.00
03068              -2.00    -3000.00
03069              -4.00    -2800.00
03070              -4.00    -2800.00
03071              -4.00    -2400.00
03072              -6.00    -2400.00
03073              -8.00    -2000.00
03074             -10.00    -1800.00
03075             -10.00    -1800.00
03076              -8.00    -1600.00
03077              -2.00    -1200.00
03078              -8.00    -1200.00
03079             -10.00    -1000.00
03080             -10.00     -800.00
03081             -10.00     -600.00
03082              -4.00     -400.00
03083              -2.00     -200.00
03084              -8.00        0.00
03085              -8.00        0.00
03086              14.00      400.00
03087              22.00      600.00
03088             -10.00      800.00
03089             -28.00      800.00
03090              -6.00     1000.00
03091              18.00     1400.00
03092              36.00     1400.00
03093             242.00     1800.00
03094             252.00     2000.00
03095            -248.00     2400.00
03096            -248.00     2400.00
03097             -92.00     2400.00
03098             252.00     2400.00
03099             252.00     3000.00
03100             200.00     2800.00
03101            -248.00     3200.00
03102             -20.00     3600.00
03103             252.00     3600.00
03104            -248.00     4400.00
03105            -248.00     3800.00
03106             252.00     4000.00
03107             -86.00     4600.00
03108             248.00     4000.00
03109             114.00     4800.00
03110            -248.00     5400.00
03111             150.00     4400.00
03112             252.00     5400.00
03113            -154.00     5800.00
03114             -96.00     4800.00
03115             -92.00     6200.00
03116              36.00     6000.00
03117             108.00     5600.00
03118              38.00     6800.00
03119            -186.00     6200.00
03120            -208.00     6400.00
03121             252.00     7000.00
03122              12.00     6800.00
03123            -248.00     7000.00
03124             136.00     7200.00
03125             -82.00     7600.00
03126             -46.00     7400.00
03127             128.00     7600.00
03128            -132.00     8400.00
03129             -42.00     7600.00
03130              46.00     8400.00
03131             -42.00     8400.00
03132             -66.00     8000.00
03133              24.00     8800.00
03134              18.00     8400.00
03135            -104.00     8800.00
03136              30.00     9200.00
03137             -28.00     9200.00
03138             -96.00     9200.00
03139              86.00     9200.00
03140             -42.00     9600.00
03141            -100.00     9400.00
03142              40.00     9600.00
03143             -14.00    10000.00
03144             -66.00     9600.00
03145             -10.00    10200.00
03146              -8.00    10200.00
03147             -46.00    10000.00
03148              -2.00    10400.00
03149             -18.00    10400.00
03150             -72.00    10400.00
03151              12.00    10600.00
03152              -8.00    10800.00
03153             -70.00    10800.00
03154               0.00    10800.00
03155             -10.00    11000.00
03156             -52.00    11000.00
03157              -2.00    11200.00
03158             -28.00    11200.00
03159             -60.00    11000.00
03160               0.00    11200.00
03161               2.00    11600.00
03162             -50.00    11200.00
03163             -28.00    11600.00
03164             -20.00    11600.00
03165             -36.00    11600.00
03166             -10.00    11600.00
03167             -16.00    11800.00
03168             -42.00    11800.00
03169             -26.00    11800.00
03170             -18.00    11800.00
03171             -36.00    11800.00
03172             -26.00    11800.00
03173             -22.00    11800.00
03174             -32.00    11800.00
03175             -18.00    11800.00
03176             -24.00    11800.00
03177             -42.00    11800.00
03178             -26.00    11800.00
03179             -12.00    11800.00
03180             -30.00    11800.00
03181             -26.00    12000.00
03182             -20.00    11800.00
03183             -36.00    11800.00
03184             -28.00    11800.00
03185             -18.00    12000.00
03186             -28.00    11800.00
03187             -28.00    11800.00
03188             -20.00    11800.00
03189             -28.00    11800.00
03190             -26.00    11600.00
03191             -26.00    11800.00
03192             -30.00    11600.00
03193             -24.00    11600.00
03194             -16.00    11600.00
03195             -26.00    11400.00
03196             -32.00    11600.00
03197             -24.00    11200.00
03198             -26.00    11200.00
03199             -26.00    11200.00
03200             -16.00    11200.00
03201             -24.00    11000.00
03202             -26.00    11000.00
03203             -20.00    11000.00
03204             -26.00    10800.00
03205             -28.00    10800.00
03206             -20.00    10600.00
03207             -20.00    10600.00
03208             -20.00    10400.00
03209             -20.00    10400.00
03210             -20.00    10400.00
03211             -26.00    10200.00
03212             -20.00    10200.00
03213             -18.00    10000.00
03214             -20.00    10000.00
03215             -18.00    10000.00
03216             -20.00     9800.00
03217             -20.00     9600.00
03218             -20.00     9400.00
03219             -18.00     9400.00
03220             -18.00     9200.00
03221             -16.00     9200.00
03222             -16.00     9000.00
03223             -20.00     8800.00
03224             -20.00     8800.00
03225             -18.00     8600.00
03226             -16.00     8400.00
03227             -16.00     8400.00
03228             -14.00     8000.00
03229             -20.00     8000.00
03230             -20.00     7800.00
03231             -18.00     7800.00
03232             -12.00     7600.00
03233             -12.00     7400.00
03234             -16.00     7400.00
03235             -12.00     7200.00
03236             -12.00     7000.00
03237             -16.00     6800.00
03238             -18.00     6600.00
03239             -16.00     6400.00
03240             -10.00     6400.00
03241             -12.00     6200.00
03242             -12.00     6000.00
03243             -12.00     6000.00
03244             -12.00     5600.00
03245             -12.00     5400.00
03246             -14.00     5200.00
03247              -8.00     5200.00
03248             -10.00     5000.00
03249             -10.00     4800.00
03250             -10.00     4800.00
03251             -16.00     4600.00
03252             -12.00     4200.00
03253              -4.00     4200.00
03254              -4.00     3800.00
03255             -10.00     3800.00
03256              -8.00     3600.00
03257             -12.00     3400.00
03258              -8.00     3200.00
03259              -4.00     3000.00
03260              -4.00     2800.00
03261             -10.00     2800.00
03262              -4.00     2400.00
03263              -4.00     2200.00
03264              -8.00     2000.00
03265              -8.00     1800.00
03266              -6.00     1600.00
03267              -4.00     1400.00
03268               4.00     1200.00
03269              -2.00     1000.00
03270              -8.00     1000.00
03271              -4.00      800.00
03272              -2.00      600.00
03273               0.00      200.00
03274               2.00        0.00
03275               4.00        0.00
03276               0.00     -400.00
03277              16.00     -400.00
03278              36.00     -600.00
03279               8.00     -800.00
03280             -20.00    -1000.00
03281              -2.00    -1200.00
03282              24.00    -1200.00
03283              28.00    -1600.00
03284              70.00    -1600.00
03285             252.00    -1800.00
03286             198.00    -2600.00
03287            -248.00    -2600.00
03288            -248.00    -2800.00
03289              48.00    -3000.00
03290             248.00    -2800.00
03291             252.00    -2800.00
03292             252.00    -3600.00
03293            -248.00    -3400.00
03294            -248.00    -3200.00
03295             252.00    -4400.00
03296             120.00    -3600.00
03297            -248.00    -4000.00
03298             -28.00    -5000.00
03299             118.00    -4000.00
03300             252.00    -4800.00
03301              54.00    -5200.00
03302            -248.00    -4800.00
03303              -4.00    -5600.00
03304             252.00    -5400.00
03305             102.00    -5400.00
03306            -176.00    -6000.00
03307            -164.00    -6000.00
03308             152.00    -6000.00
03309             188.00    -6400.00
03310               0.00    -6600.00
03311            -170.00    -6600.00
03312             -84.00    -6800.00
03313             236.00    -7200.00
03314             118.00    -7200.00
03315            -166.00    -7400.00
03316             -64.00    -7600.00
03317              82.00    -7400.00
03318             104.00    -8000.00
03319              12.00    -8200.00
03320             -60.00    -8000.00
03321              -4.00    -8400.00
03322              68.00    -8400.00
03323              60.00    -8600.00
03324             -46.00    -8800.00
03325             -18.00    -8800.00
03326              80.00    -9200.00
03327              36.00    -9000.00
03328             -10.00    -9400.00
03329             -18.00    -9200.00
03330              10.00    -9400.00
03331              70.00    -9600.00
03332              44.00    -9600.00
03333             -26.00    -9800.00
03334              -2.00   -10000.00
03335              48.00   -10000.00
03336              28.00   -10000.00
03337              -2.00   -10200.00
03338              16.00   -10200.00
03339              22.00   -10400.00
03340              28.00   -10600.00
03341              26.00   -10600.00
03342              -4.00   -10600.00
03343              12.00   -10800.00
03344              38.00   -10800.00
03345              22.00   -10800.00
03346              14.00   -11200.00
03347              22.00   -11200.00
03348              16.00   -11200.00
03349              20.00   -11400.00
03350              24.00   -11400.00
03351              12.00   -11400.00
03352              20.00   -11400.00
03353              38.00   -11600.00
03354              20.00   -11600.00
03355               6.00   -11600.00
03356              16.00   -11600.00
03357              20.00   -11600.00
03358              26.00   -11600.00
03359              30.00   -11600.00
03360              14.00   -12000.00
03361              12.00   -11800.00
03362              22.00   -11800.00
03363              14.00   -11800.00
03364              16.00   -12000.00
03365              28.00   -11800.00
03366              24.00   -11800.00
03367              16.00   -12000.00
03368              16.00   -12000.00
03369              12.00   -11800.00
03370              16.00   -12000.00
03371              26.00   -11800.00
03372              22.00   -11800.00
03373              16.00   -12000.00
03374              18.00   -12000.00
03375              14.00   -11800.00
03376              12.00   -12000.00
03377              20.00   -11800.00
03378              20.00   -12000.00
03379              20.00   -11800.00
03380              20.00   -11800.00
03381              14.00   -11800.00
03382              12.00   -11800.00
03383              14.00   -11600.00
03384              16.00   -11600.00
03385              18.00   -11600.00
03386              20.00   -11400.00
03387              16.00   -11600.00
03388              12.00   -11600.00
03389               8.00   -11600.00
03390              12.00   -11400.00
03391              16.00   -11400.00
03392              22.00   -11400.00
03393              16.00   -11200.00
03394              10.00   -11200.00
03395              12.00   -11000.00
03396              12.00   -10800.00
03397              14.00   -10800.00
03398              16.00   -10800.00
03399              16.00   -10600.00
03400              14.00   -10600.00
03401              12.00   -10600.00
03402               8.00   -10400.00
03403              12.00   -10400.00
03404              12.00   -10400.00
03405              14.00   -10000.00
03406              12.00   -10000.00
03407              12.00   -10000.00
03408               6.00    -9800.00
03409               8.00    -9600.00
03410               8.00    -9600.00
03411              12.00    -9200.00
03412              12.00    -9200.00
03413              14.00    -9200.00
03414               8.00    -9000.00
03415               4.00    -9000.00
03416               6.00    -8800.00
03417               8.00    -8800.00
03418              10.00    -8400.00
03419              12.00    -8400.00
03420               8.00    -8200.00
03421               4.00    -8000.00
03422               4.00    -8000.00
03423               4.00    -7800.00
03424               6.00    -7600.00
03425               8.00    -7600.00
03426               6.00    -7400.00
03427               6.00    -7200.00
03428               4.00    -7000.00
03429               0.00    -6800.00
03430               4.00    -6800.00
03431               6.00    -6600.00
03432               4.00    -6400.00
03433               4.00    -6400.00
03434               0.00    -6000.00
03435              -2.00    -5800.00
03436              -2.00    -5800.00
03437               0.00    -5400.00
03438               2.00    -5200.00
03439               2.00    -5200.00
03440               0.00    -5000.00
03441              -4.00    -4800.00
03442              -4.00    -4800.00
03443              -2.00    -4600.00
03444               0.00    -4200.00
03445              -2.00    -4000.00
03446              -2.00    -4000.00
03447              -2.00    -3800.00
03448              -8.00    -3400.00
03449              -4.00    -3400.00
03450              -4.00    -3200.00
03451              -8.00    -3000.00
03452              -8.00    -2800.00
03453              -2.00    -2600.00
03454              -2.00    -2400.00
03455              -6.00    -2400.00
03456             -10.00    -2000.00
03457             -16.00    -2000.00
03458              -8.00    -1600.00
03459               2.00    -1400.00
03460              -2.00    -1400.00
03461             -10.00    -1000.00
03462             -14.00     -800.00
03463             -16.00     -800.00
03464              -4.00     -400.00
03465              -2.00     -200.00
03466              -8.00     -200.00
03467             -10.00        0.00
03468              -2.00      400.00
03469              22.00      400.00
03470              14.00      600.00
03471             -20.00      800.00
03472             -28.00     1000.00
03473               4.00     1200.00
03474              22.00     1200.00
03475              76.00     1600.00
03476             252.00     2000.00
03477             100.00     2200.00
03478            -248.00     2400.00
03479            -248.00     2400.00
03480              76.00     2400.00
03481             252.00     2600.00
03482             252.00     3200.00
03483            -248.00     3000.00
03484            -248.00     3200.00
03485             252.00     3600.00
03486             252.00     3600.00
03487            -248.00     4000.00
03488            -160.00     3600.00
03489             230.00     4400.00
03490             -98.00     4600.00
03491             252.00     4000.00
03492            -228.00     5400.00
03493            -248.00     5000.00
03494             252.00     4600.00
03495             114.00     6000.00
03496            -164.00     5400.00
03497             -84.00     5200.00
03498             -72.00     6400.00
03499             100.00     5800.00
03500              86.00     6000.00
03501             -10.00     6800.00
03502            -248.00     6200.00
03503             -22.00     6800.00
03504             252.00     7200.00
03505            -210.00     6800.00
03506            -124.00     7200.00
03507             132.00     7200.00
03508            -156.00     7600.00
03509              70.00     7400.00
03510              46.00     8000.00
03511            -146.00     8000.00
03512              22.00     7800.00
03513              18.00     8600.00
03514             -66.00     8200.00
03515             -48.00     8400.00
03516              56.00     8800.00
03517             -44.00     8400.00
03518             -82.00     8800.00
03519              60.00     9000.00
03520             -90.00     9200.00
03521             -28.00     9200.00
03522              78.00     9400.00
03523            -106.00     9400.00
03524             -44.00     9400.00
03525              48.00    10000.00
03526             -52.00     9800.00
03527             -56.00     9600.00
03528               6.00    10200.00
03529             -28.00    10000.00
03530             -36.00    10200.00
03531              12.00    10400.00
03532             -50.00    10200.00
03533             -52.00    10400.00
03534              30.00    10600.00
03535             -44.00    10800.00
03536             -54.00    10600.00
03537              12.00    11000.00
03538             -32.00    11000.00
03539             -36.00    11000.00
03540               2.00    11200.00
03541             -48.00    11200.00
03542             -48.00    11200.00
03543              20.00    11200.00
03544             -20.00    11600.00
03545             -54.00    11400.00
03546             -16.00    11600.00
03547             -28.00    11600.00
03548             -34.00    11600.00
03549              -2.00    11600.00
03550             -28.00    11600.00
03551             -42.00    11600.00
03552             -10.00    11800.00
03553             -24.00    11800.00
03554             -40.00    11800.00
03555             -14.00    11800.00
03556             -24.00    11800.00
03557             -32.00    11800.00
03558             -10.00    11800.00
03559             -28.00    11800.00
03560             -44.00    11800.00
03561             -12.00    11800.00
03562             -20.00    12000.00
03563             -34.00    11800.00
03564             -18.00    11800.00
03565             -26.00    11800.00
03566             -36.00    11800.00
03567             -22.00    11800.00
03568             -24.00    11800.00
03569             -34.00    11800.00
03570             -20.00    11800.00
03571             -20.00    11800.00
03572             -34.00    11600.00
03573             -24.00    11800.00
03574             -26.00    11600.00
03575             -28.00    11600.00
03576             -16.00    11600.00
03577             -20.00    11600.00
03578             -34.00    11400.00
03579             -26.00    11400.00
03580             -18.00    11200.00
03581             -28.00    11200.00
03582             -20.00    11200.00
03583             -20.00    11000.00
03584             -28.00    11000.00
03585             -20.00    11000.00
03586             -20.00    10800.00
03587             -28.00    10800.00
03588             -26.00    10800.00
03589             -16.00    10600.00
03590             -20.00    10600.00
03591             -22.00    10400.00
03592             -24.00    10400.00
03593             -28.00    10400.00
03594             -24.00    10200.00
03595             -16.00    10000.00
03596             -24.00    10000.00
03597             -20.00    10000.00
03598             -18.00     9800.00
03599             -24.00     9600.00
03600             -20.00     9600.00
03601             -16.00     9400.00
03602             -20.00     9400.00
03603             -18.00     9200.00
03604             -10.00     9200.00
03605             -18.00     9000.00
03606             -22.00     8800.00
03607             -18.00     8600.00
03608             -20.00     8600.00
03609             -18.00     8400.00
03610             -10.00     8400.00
03611             -18.00     8000.00
03612             -18.00     8200.00
03613             -16.00     8000.00
03614             -18.00     7800.00
03615             -12.00     7600.00
03616             -12.00     7200.00
03617             -12.00     7400.00
03618             -10.00     7200.00
03619             -16.00     7000.00
03620             -18.00     6800.00
03621             -18.00     6400.00
03622             -10.00     6400.00
03623             -10.00     6400.00
03624             -12.00     6000.00
03625             -12.00     6000.00
03626             -10.00     6000.00
03627             -12.00     5600.00
03628              -8.00     5600.00
03629             -10.00     5200.00
03630             -10.00     5200.00
03631             -10.00     4800.00
03632             -10.00     4800.00
03633             -16.00     4600.00
03634             -10.00     4600.00
03635             -10.00     4200.00
03636              -4.00     4000.00
03637              -8.00     3600.00
03638             -10.00     3600.00
03639             -10.00     3400.00
03640              -8.00     3200.00
03641              -8.00     3200.00
03642              -8.00     2800.00
03643              -4.00     2800.00
03644              -4.00     2400.00
03645              -8.00     2400.00
03646              -8.00     2000.00
03647              -8.00     2000.00
03648              -4.00     1600.00
03649              -4.00     1600.00
03650              -2.00     1400.00
03651              -4.00     1200.00
03652              -4.00     1000.00
03653              -4.00      800.00
03654              -4.00      600.00
03655              -4.00      400.00
03656               0.00      200.00
03657               4.00        0.00
03658               4.00     -400.00
03659               6.00     -400.00
03660              22.00     -600.00
03661              28.00     -800.00
03662              -4.00    -1000.00
03663             -20.00    -1200.00
03664               8.00    -1200.00
03665              28.00    -1200.00
03666              28.00    -1600.00
03667             126.00    -1800.00
03668             252.00    -2000.00
03669               4.00    -2600.00
03670            -248.00    -2600.00
03671            -248.00    -2800.00
03672             188.00    -2800.00
03673             252.00    -2600.00
03674             252.00    -3000.00
03675             -84.00    -3800.00
03676            -248.00    -3200.00
03677             252.00    -4000.00
03678             252.00    -4400.00
03679            -248.00    -3400.00
03680            -248.00    -4600.00
03681              72.00    -4800.00
03682             148.00    -4000.00
03683             252.00    -5200.00
03684            -162.00    -5000.00
03685            -248.00    -5000.00
03686             176.00    -5600.00
03687             252.00    -5400.00
03688              -8.00    -5600.00
03689            -222.00    -6000.00
03690             -58.00    -6000.00
03691             214.00    -6400.00
03692             128.00    -6400.00
03693             -66.00    -6600.00
03694            -184.00    -6800.00
03695              32.00    -6800.00
03696             252.00    -7200.00
03697             -14.00    -7000.00
03698            -162.00    -7600.00
03699               2.00    -7600.00
03700             100.00    -7400.00
03701              84.00    -8200.00
03702             -28.00    -8000.00
03703             -52.00    -8000.00
03704              24.00    -8400.00
03705              78.00    -8400.00
03706              24.00    -8800.00
03707             -60.00    -8800.00
03708              28.00    -9000.00
03709              78.00    -9000.00
03710              12.00    -9200.00
03711             -12.00    -9400.00
03712             -18.00    -9200.00
03713              30.00    -9600.00
03714              72.00    -9600.00
03715              14.00    -9600.00
03716             -32.00   -10000.00
03717              20.00   -10000.00
03718              50.00   -10000.00
03719              12.00   -10200.00
03720               2.00   -10400.00
03721              24.00   -10200.00
03722              22.00   -10400.00
03723              30.00   -10600.00
03724              16.00   -10600.00
03725              -4.00   -10800.00
03726              24.00   -10800.00
03727              38.00   -11000.00
03728              12.00   -10800.00
03729              14.00   -11000.00
03730              24.00   -11200.00
03731              14.00   -11200.00
03732              22.00   -11200.00
03733              22.00   -11400.00
03734               8.00   -11400.00
03735              30.00   -11400.00
03736              38.00   -11400.00
03737              10.00   -11400.00
03738               6.00   -11600.00
03739              22.00   -11600.00
03740              24.00   -11600.00
03741              24.00   -11600.00
03742              24.00   -11800.00
03743              12.00   -11800.00
03744              16.00   -12000.00
03745              20.00   -12000.00
03746              16.00   -11800.00
03747              22.00   -11800.00
03748              28.00   -11800.00
03749              22.00   -12000.00
03750              16.00   -11800.00
03751              20.00   -12000.00
03752              14.00   -12000.00
03753              20.00   -12000.00
03754              24.00   -12000.00
03755              20.00   -11800.00
03756              16.00   -11800.00
03757              20.00   -12000.00
03758              16.00   -11800.00
03759              14.00   -12000.00
03760              20.00   -11800.00
03761              20.00   -11800.00
03762              20.00   -12000.00
03763              20.00   -11600.00
03764              14.00   -12000.00
03765              12.00   -11600.00
03766              14.00   -11800.00
03767              18.00   -11600.00
03768              20.00   -11600.00
03769              22.00   -11600.00
03770              14.00   -11600.00
03771               6.00   -11400.00
03772              12.00   -11600.00
03773              18.00   -11200.00
03774              20.00   -11200.00
03775              16.00   -11200.00
03776              14.00   -11200.00
03777              12.00   -11200.00
03778              14.00   -11000.00
03779              14.00   -10800.00
03780              12.00   -10800.00
03781              14.00   -10800.00
03782              16.00   -10600.00
03783              14.00   -10600.00
03784               6.00   -10600.00
03785               6.00   -10400.00
03786               6.00   -10400.00
03787              12.00   -10400.00
03788              18.00   -10000.00
03789              12.00   -10000.00
03790               6.00    -9800.00
03791               8.00    -9800.00
03792              12.00    -9600.00
03793              12.00    -9400.00
03794              12.00    -9600.00
03795               8.00    -9200.00
03796              12.00    -9200.00
03797               8.00    -9000.00
03798               6.00    -9000.00
03799               6.00    -8600.00
03800               6.00    -8800.00
03801              14.00    -8200.00
03802              12.00    -8200.00
03803               6.00    -8200.00
03804               6.00    -8000.00
03805               2.00    -7800.00
03806               6.00    -7800.00
03807               8.00    -7600.00
03808               8.00    -7400.00
03809               6.00    -7200.00
03810               4.00    -7200.00
03811               0.00    -7000.00
03812              -4.00    -6800.00
03813               4.00    -6800.00
03814               6.00    -6400.00
03815              10.00    -6400.00
03816               8.00    -6200.00
03817               6.00    -6000.00
03818               0.00    -5800.00
03819              -2.00    -5600.00
03820              -2.00    -5400.00
03821               0.00    -5200.00
03822              -4.00    -5000.00
03823              -6.00    -5000.00
03824              -4.00    -4800.00
03825              -4.00    -4400.00
03826               4.00    -4400.00
03827               6.00    -4200.00
03828               4.00    -4200.00
03829               0.00    -3800.00
03830              -4.00    -3800.00
03831             -14.00    -3600.00
03832             -16.00    -3400.00
03833             -10.00    -3200.00
03834              -4.00    -3000.00
03835               0.00    -2800.00
03836               4.00    -2600.00
03837              -2.00    -2400.00
03838             -10.00    -2000.00
03839             -12.00    -2000.00
03840             -12.00    -1800.00
03841             -10.00    -1600.00
03842              -4.00    -1200.00
03843              -4.00    -1200.00
03844              -4.00    -1000.00
03845              -4.00     -800.00
03846             -10.00     -800.00
03847             -12.00     -400.00
03848             -10.00     -200.00
03849             -12.00        0.00
03850             -10.00        0.00
03851               8.00      400.00
03852              28.00      600.00
03853               4.00      800.00
03854             -28.00     1000.00
03855             -20.00     1000.00
03856               6.00     1200.00
03857              16.00     1400.00
03858             150.00     1600.00
03859             252.00     2000.00
03860            -154.00     2000.00
03861            -248.00     2400.00
03862            -248.00     2400.00
03863             192.00     2400.00
03864             252.00     2800.00
03865             252.00     3000.00
03866            -248.00     3000.00
03867            -248.00     3600.00
03868             252.00     3200.00
03869             252.00     4000.00
03870            -248.00     4000.00
03871             166.00     3600.00
03872              44.00     4600.00
03873              68.00     4400.00
03874             252.00     4400.00
03875            -248.00     5600.00
03876            -120.00     4600.00
03877             252.00     4800.00
03878             -68.00     6000.00
03879            -124.00     5200.00
03880             -90.00     5600.00
03881             -18.00     6400.00
03882             120.00     5400.00
03883              64.00     6400.00
03884             -96.00     6800.00
03885            -248.00     6200.00
03886             196.00     7000.00
03887             204.00     7000.00
03888            -248.00     7000.00
03889              50.00     7400.00
03890              30.00     7600.00
03891            -136.00     7600.00
03892             140.00     7400.00
03893             -64.00     8200.00
03894            -100.00     7800.00
03895              50.00     8000.00
03896             -20.00     8600.00
03897             -74.00     7800.00
03898              -8.00     8600.00
03899              52.00     8800.00
03900             -92.00     8400.00
03901             -18.00     9000.00
03902              28.00     8800.00
03903            -116.00     9200.00
03904              44.00     9200.00
03905              22.00     9600.00
03906            -122.00     9600.00
03907              20.00     9400.00
03908              20.00    10000.00
03909             -74.00     9600.00
03910             -32.00    10000.00
03911               2.00    10200.00
03912             -42.00    10000.00
03913             -18.00    10200.00
03914               0.00    10400.00
03915             -68.00    10400.00
03916             -14.00    10400.00
03917              20.00    10800.00
03918             -68.00    10800.00
03919             -28.00    10800.00
03920               4.00    11000.00
03921             -44.00    11000.00
03922             -16.00    11000.00
03923              -6.00    11200.00
03924             -60.00    11200.00
03925             -24.00    11200.00
03926              16.00    11200.00
03927             -42.00    11400.00
03928             -44.00    11400.00
03929             -12.00    11600.00
03930             -40.00    11600.00
03931             -22.00    11600.00
03932              -2.00    11600.00
03933             -40.00    11600.00
03934             -28.00    11600.00
03935             -10.00    11800.00
03936             -38.00    11800.00
03937             -32.00    11600.00
03938             -10.00    11800.00
03939             -30.00    11800.00
03940             -24.00    11800.00
03941             -12.00    11800.00
03942             -40.00    12000.00
03943             -34.00    11800.00
03944             -10.00    12000.00
03945             -26.00    11800.00
03946             -26.00    11800.00
03947             -16.00    12000.00
03948             -30.00    12000.00
03949             -32.00    11800.00
03950             -12.00    11800.00
03951             -26.00    11800.00
03952             -32.00    11600.00
03953             -16.00    11800.00
03954             -24.00    11600.00
03955             -28.00    11600.00
03956             -24.00    11800.00
03957             -32.00    11600.00
03958             -26.00    11400.00
03959             -16.00    11600.00
03960             -24.00    11600.00
03961             -28.00    11400.00
03962             -24.00    11400.00
03963             -26.00    11400.00
03964             -26.00    11200.00
03965             -20.00    11000.00
03966             -20.00    11000.00
03967             -26.00    11000.00
03968             -24.00    11000.00
03969             -20.00    11000.00
03970             -32.00    11000.00
03971             -20.00    10600.00
03972             -20.00    10600.00
03973             -24.00    10400.00
03974             -20.00    10400.00
03975             -24.00    10400.00
03976             -26.00    10200.00
03977             -20.00    10200.00
03978             -20.00    10000.00
03979             -20.00    10000.00
03980             -18.00     9800.00
03981             -24.00     9600.00
03982             -24.00     9600.00
03983             -18.00     9400.00
03984             -20.00     9400.00
03985             -20.00     9400.00
03986             -16.00     9200.00
03987             -18.00     9000.00
03988             -20.00     8800.00
03989             -20.00     8800.00
03990             -18.00     8600.00
03991             -18.00     8600.00
03992             -18.00     8400.00
03993             -12.00     8200.00
03994             -16.00     8000.00
03995             -16.00     8000.00
03996             -18.00     7800.00
03997             -16.00     7600.00
03998             -12.00     7600.00
03999             -16.00     7200.00
04000             -16.00     7000.00
04001             -10.00     7000.00
04002             -16.00     7000.00
04003             -18.00     6800.00
04004             -14.00     6600.00
04005             -10.00     6400.00
04006             -10.00     6200.00
04007             -10.00     6000.00
04008             -10.00     5800.00
04009             -12.00     5600.00
04010             -12.00     5600.00
04011              -8.00     5400.00
04012              -8.00     5200.00
04013              -8.00     5200.00
04014             -10.00     5000.00
04015             -10.00     4600.00
04016             -12.00     4600.00
04017             -10.00     4400.00
04018              -8.00     4200.00
04019              -4.00     4000.00
04020              -8.00     3600.00
04021              -8.00     3600.00
04022             -10.00     3200.00
04023              -8.00     3200.00
04024              -8.00     3000.00
04025              -6.00     2800.00
04026              -4.00     2600.00
04027              -6.00     2400.00
04028              -6.00     2200.00
04029              -8.00     2000.00
04030              -6.00     1800.00
04031              -4.00     1600.00
04032              -4.00     1400.00
04033              -4.00     1400.00
04034              -4.00     1200.00
04035              -4.00      800.00
04036              -4.00      600.00
04037              -4.00      400.00
04038              -2.00      400.00
04039               0.00        0.00
04040               4.00        0.00
04041               6.00     -200.00
04042               8.00     -600.00
04043              30.00     -600.00
04044              18.00     -800.00
04045             -16.00    -1000.00
04046             -12.00    -1200.00
04047              20.00    -1200.00
04048              28.00    -1400.00
04049              44.00    -1600.00
04050             208.00    -1600.00
04051             252.00    -2400.00
04052            -228.00    -2600.00
04053            -248.00    -2800.00
04054            -124.00    -2800.00
04055             240.00    -2800.00
04056             252.00    -2800.00
04057             252.00    -3400.00
04058            -248.00    -3600.00
04059            -248.00    -3200.00
04060             252.00    -4400.00
04061             252.00    -4000.00
04062            -248.00    -3600.00
04063            -170.00    -5000.00
04064             108.00    -4400.00
04065             218.00    -4400.00
04066             200.00    -5400.00
04067            -248.00    -4800.00
04068            -172.00    -5200.00
04069             252.00    -5600.00
04070             196.00    -5200.00
04071            -106.00    -5800.00
04072            -216.00    -6000.00
04073              64.00    -6000.00
04074             222.00    -6400.00
04075              60.00    -6400.00
04076            -128.00    -6800.00
04077            -148.00    -6600.00
04078             158.00    -7000.00
04079             214.00    -7200.00
04080            -120.00    -7200.00
04081            -112.00    -7600.00
04082              54.00    -7600.00
04083             110.00    -7600.00
04084              48.00    -8000.00
04085             -56.00    -8000.00
04086             -26.00    -8400.00
04087              52.00    -8400.00
04088              78.00    -8400.00
04089             -20.00    -8600.00
04090             -44.00    -8800.00
04091              64.00    -9000.00
04092              60.00    -9000.00
04093              -4.00    -9200.00
04094             -16.00    -9200.00
04095              -4.00    -9200.00
04096              56.00    -9600.00
04097              60.00    -9600.00
04098             -12.00    -9800.00
04099             -20.00    -9800.00
04100              44.00   -10000.00
04101              40.00   -10200.00
04102              -4.00   -10200.00
04103              14.00   -10400.00
04104              24.00   -10400.00
04105              22.00   -10600.00
04106              30.00   -10600.00
04107               4.00   -10800.00
04108               0.00   -10800.00
04109              36.00   -10800.00
04110              30.00   -10800.00
04111              12.00   -11200.00
04112              20.00   -11000.00
04113              20.00   -11200.00
04114              14.00   -11400.00
04115              24.00   -11400.00
04116              14.00   -11200.00
04117              12.00   -11400.00
04118              38.00   -11400.00
04119              28.00   -11600.00
04120               4.00   -11600.00
04121               8.00   -11600.00
04122              22.00   -11600.00
04123              24.00   -11600.00
04124              28.00   -11600.00
04125              22.00   -11800.00
04126              12.00   -11800.00
04127              20.00   -11800.00
04128              20.00   -12000.00
04129              14.00   -11800.00
04130              28.00   -12000.00
04131              24.00   -12000.00
04132              16.00   -11800.00
04133              16.00   -12000.00
04134              16.00   -12000.00
04135              16.00   -12000.00
04136              22.00   -11800.00
04137              28.00   -12000.00
04138              20.00   -11800.00
04139              22.00   -12000.00
04140              20.00   -11800.00
04141              12.00   -12000.00
04142              20.00   -11800.00
04143              22.00   -11800.00
04144              20.00   -11800.00
04145              20.00   -12000.00
04146              20.00   -11800.00
04147              14.00   -11800.00
04148              14.00   -11800.00
04149              20.00   -11600.00
04150              20.00   -11600.00
04151              20.00   -11600.00
04152              20.00   -11600.00
04153              16.00   -11400.00
04154               8.00   -11400.00
04155              14.00   -11400.00
04156              18.00   -11200.00
04157              16.00   -11200.00
04158              20.00   -11200.00
04159              14.00   -11200.00
04160               4.00   -11000.00
04161              14.00   -10800.00
04162              16.00   -10800.00
04163               8.00   -10800.00
04164              14.00   -10600.00
04165              16.00   -10600.00
04166              12.00   -10400.00
04167               8.00   -10400.00
04168               8.00   -10400.00
04169               8.00   -10400.00
04170              14.00   -10000.00
04171              16.00   -10000.00
04172              12.00    -9800.00
04173               6.00    -9800.00
04174               6.00    -9800.00
04175               6.00    -9600.00
04176              12.00    -9400.00
04177              14.00    -9400.00
04178               8.00    -9200.00
04179               8.00    -9200.00
04180               6.00    -9000.00
04181               6.00    -8800.00
04182               6.00    -8800.00
04183               8.00    -8600.00
04184               8.00    -8400.00
04185              10.00    -8200.00
04186               8.00    -8200.00
04187               6.00    -8000.00
04188              -2.00    -7800.00
04189               4.00    -7600.00
04190              12.00    -7600.00
04191               6.00    -7400.00
04192              10.00    -7200.00
04193               6.00    -7200.00
04194              -8.00    -7200.00
04195               2.00    -6600.00
04196               8.00    -6600.00
04197               6.00    -6600.00
04198               6.00    -6400.00
04199               4.00    -6000.00
04200              -8.00    -6000.00
04201              -2.00    -5800.00
04202               8.00    -5400.00
04203               4.00    -5400.00
04204               0.00    -5200.00
04205               2.00    -5200.00
04206               0.00    -4800.00
04207              -2.00    -4600.00
04208              -8.00    -4400.00
04209               0.00    -4400.00
04210               6.00    -4200.00
04211               0.00    -4000.00
04212              -8.00    -3800.00
04213              -4.00    -3600.00
04214              -4.00    -3600.00
04215              -8.00    -3400.00
04216               0.00    -3200.00
04217              -2.00    -2800.00
04218             -10.00    -2600.00
04219              -8.00    -2600.00
04220              -4.00    -2400.00
04221             -10.00    -2200.00
04222             -12.00    -2000.00
04223             -10.00    -1600.00
04224              -4.00    -1600.00
04225               0.00    -1400.00
04226              -8.00    -1200.00
04227             -18.00    -1000.00
04228             -12.00     -800.00
04229              -8.00     -600.00
04230              -4.00     -400.00
04231              -4.00     -200.00
04232              -8.00     -200.00
04233              -6.00      200.00
04234              12.00      400.00
04235              22.00      600.00
04236             -10.00      600.00
04237             -34.00     1000.00
04238              -8.00     1200.00
04239              14.00     1400.00
04240              36.00     1400.00
04241             252.00     1800.00
04242             252.00     2200.00
04243            -248.00     2200.00
04244            -248.00     2400.00
04245             -60.00     2400.00
04246             252.00     2600.00
04247             252.00     3000.00
04248             106.00     2800.00
04249            -248.00     3200.00
04250             116.00     3600.00
04251             252.00     3400.00
04252            -248.00     4000.00
04253            -248.00     3800.00
04254             252.00     4200.00
04255            -104.00     4800.00
04256             252.00     4000.00
04257              66.00     4800.00
04258            -248.00     5400.00
04259             196.00     4400.00
04260             252.00     5600.00
04261            -162.00     5600.00
04262             -92.00     4800.00
04263             -88.00     6400.00
04264              52.00     6000.00
04265             108.00     5600.00
04266              36.00     6800.00
04267            -202.00     6200.00
04268            -180.00     6400.00
04269             252.00     7200.00
04270             -26.00     6800.00
04271            -248.00     7000.00
04272             148.00     7400.00
04273             -96.00     7600.00
04274             -28.00     7400.00
04275             124.00     7800.00
04276            -132.00     8200.00
04277             -28.00     7600.00
04278              44.00     8400.00
04279             -48.00     8400.00
04280             -68.00     8000.00
04281              36.00     9000.00
04282              12.00     8400.00
04283            -106.00     8600.00
04284              38.00     9200.00
04285             -36.00     9000.00
04286             -84.00     9200.00
04287              88.00     9200.00
04288             -54.00     9600.00
04289             -92.00     9400.00
04290              52.00     9600.00
04291             -20.00    10000.00
04292             -68.00     9600.00
04293              -4.00    10200.00
04294             -10.00    10200.00
04295             -50.00    10000.00
04296               6.00    10400.00
04297             -28.00    10400.00
04298             -74.00    10400.00
04299              22.00    10600.00
04300             -12.00    10800.00
04301             -72.00    10800.00
04302               0.00    10800.00
04303             -16.00    11000.00
04304             -48.00    11000.00
04305              -2.00    11200.00
04306             -30.00    11200.00
04307             -64.00    11200.00
04308               4.00    11200.00
04309               4.00    11400.00
04310             -56.00    11400.00
04311             -28.00    11400.00
04312             -20.00    11600.00
04313             -42.00    11400.00
04314              -8.00    11600.00
04315             -16.00    11600.00
04316             -48.00    11600.00
04317             -18.00    11800.00
04318             -16.00    11800.00
04319             -40.00    11800.00
04320             -20.00    11800.00
04321             -16.00    11800.00
04322             -36.00    11800.00
04323             -16.00    11600.00
04324             -18.00    11800.00
04325             -44.00    11800.00
04326             -24.00    11800.00
04327             -12.00    12000.00
04328             -34.00    11800.00
04329             -20.00    11800.00
04330             -18.00    11800.00
04331             -36.00    11800.00
04332             -26.00    11800.00
04333             -20.00    12000.00
04334             -32.00    11600.00
04335             -22.00    11800.00
04336             -18.00    11800.00
04337             -26.00    11600.00
04338             -26.00    11600.00
04339             -26.00    11600.00
04340             -32.00    11600.00
04341             -18.00    11400.00
04342             -12.00    11600.00
04343             -32.00    11600.00
04344             -28.00    11200.00
04345             -22.00    11400.00
04346             -28.00    11200.00
04347             -18.00    11200.00
04348             -18.00    11000.00
04349             -34.00    11000.00
04350             -26.00    11000.00
04351             -18.00    10800.00
04352             -26.00    11000.00
04353             -26.00    10800.00
04354             -20.00    10600.00
04355             -26.00    10600.00
04356             -20.00    10400.00
04357             -18.00    10400.00
04358             -26.00    10200.00
04359             -26.00    10200.00
04360             -20.00    10200.00
04361             -20.00    10000.00
04362             -16.00     9800.00
04363             -18.00     9800.00
04364             -26.00     9600.00
04365             -26.00     9600.00
04366             -20.00     9400.00
04367             -20.00     9400.00
04368             -18.00     9200.00
04369             -12.00     9200.00
04370             -20.00     8800.00
04371             -24.00     8800.00
04372             -18.00     8800.00
04373             -18.00     8600.00
04374             -16.00     8400.00
04375             -16.00     8400.00
04376             -20.00     8200.00
04377             -18.00     8000.00
04378             -16.00     8000.00
04379             -16.00     7600.00
04380             -18.00     7600.00
04381             -12.00     7400.00
04382             -16.00     7200.00
04383             -12.00     7000.00
04384             -10.00     7200.00
04385             -18.00     6800.00
04386             -18.00     6800.00
04387             -14.00     6400.00
04388             -10.00     6400.00
04389             -10.00     6200.00
04390             -10.00     6000.00
04391             -12.00     5800.00
04392             -16.00     5600.00
04393              -8.00     5600.00
04394              -8.00     5400.00
04395             -12.00     5200.00
04396              -8.00     5200.00
04397             -10.00     4800.00
04398             -10.00     4600.00
04399             -10.00     4400.00
04400             -10.00     4200.00
04401              -8.00     4200.00
04402              -4.00     3800.00
04403              -8.00     3600.00
04404              -8.00     3600.00
04405              -8.00     3200.00
04406              -8.00     3200.00
04407              -8.00     3000.00
04408              -4.00     2800.00
04409              -4.00     2600.00
04410              -6.00     2400.00
04411              -4.00     2200.00
04412              -4.00     2000.00
04413              -4.00     1800.00
04414              -4.00     1600.00
04415              -2.00     1400.00
04416              -2.00     1200.00
04417              -6.00     1200.00
04418              -6.00      800.00
04419              -4.00      800.00
04420              -2.00      400.00
04421               0.00      400.00
04422               2.00        0.00
04423               4.00        0.00
04424               6.00     -400.00
04425              16.00     -400.00
04426              34.00     -800.00
04427               4.00     -800.00
04428             -20.00    -1000.00
04429              -2.00    -1200.00
04430              26.00    -1600.00
04431              28.00    -1600.00
04432              76.00    -1600.00
04433             252.00    -2000.00
04434             172.00    -2600.00
04435            -248.00    -2600.00
04436            -248.00    -2800.00
04437              72.00    -3000.00
04438             246.00    -2800.00
04439             252.00    -2800.00
04440             224.00    -3800.00
04441            -248.00    -3200.00
04442            -186.00    -3200.00
04443             252.00    -4400.00
04444              46.00    -3600.00
04445            -248.00    -4200.00
04446              -8.00    -5000.00
04447             118.00    -4000.00
04448             252.00    -5000.00
04449              22.00    -5200.00
04450            -248.00    -4600.00
04451              24.00    -5600.00
04452             252.00    -5600.00
04453              86.00    -5400.00
04454            -186.00    -5800.00
04455            -148.00    -6000.00
04456             164.00    -6200.00
04457             184.00    -6400.00
04458              -8.00    -6600.00
04459            -170.00    -6800.00
04460             -68.00    -6800.00
04461             246.00    -7200.00
04462             102.00    -7000.00
04463            -170.00    -7400.00
04464             -48.00    -7600.00
04465              88.00    -7400.00
04466             102.00    -7800.00
04467               6.00    -8000.00
04468             -60.00    -8000.00
04469               6.00    -8400.00
04470              70.00    -8200.00
04471              56.00    -8400.00
04472             -48.00    -8800.00
04473             -10.00    -8800.00
04474              84.00    -9000.00
04475              36.00    -9000.00
04476             -10.00    -9400.00
04477             -18.00    -9200.00
04478              12.00    -9400.00
04479              70.00    -9800.00
04480              38.00    -9600.00
04481             -28.00    -9800.00
04482               0.00   -10000.00
04483              54.00   -10000.00
04484              24.00   -10000.00
04485              -2.00   -10000.00
04486              22.00   -10400.00
04487              22.00   -10400.00
04488              28.00   -10600.00
04489              24.00   -10600.00
04490              -4.00   -10800.00
04491              12.00   -10800.00
04492              38.00   -10800.00
04493              22.00   -10800.00
04494              12.00   -11200.00
04495              24.00   -11200.00
04496              14.00   -11200.00
04497              16.00   -11200.00
04498              24.00   -11400.00
04499              12.00   -11400.00
04500              20.00   -11400.00
04501              38.00   -11400.00
04502              16.00   -11400.00
04503               4.00   -11600.00
04504              20.00   -11600.00
04505              22.00   -11600.00
04506              22.00   -11600.00
04507              30.00   -11600.00
04508              16.00   -11800.00
04509              14.00   -11800.00
04510              20.00   -11800.00
04511              14.00   -11800.00
04512              16.00   -12000.00
04513              28.00   -11800.00
04514              22.00   -12000.00
04515              16.00   -11800.00
04516              18.00   -11800.00
04517              14.00   -12000.00
04518              16.00   -12000.00
04519              26.00   -11800.00
04520              22.00   -12000.00
04521              20.00   -12000.00
04522              20.00   -11800.00
04523              14.00   -12000.00
04524              14.00   -12000.00
04525              20.00   -12000.00
04526              22.00   -11800.00
04527              20.00   -11800.00
04528              20.00   -11600.00
04529              14.00   -11800.00
04530              14.00   -11600.00
04531              20.00   -11600.00
04532              20.00   -11600.00
04533              18.00   -11600.00
04534              20.00   -11600.00
04535              16.00   -11400.00
04536              16.00   -11600.00
04537              14.00   -11400.00
04538              12.00   -11400.00
04539              14.00   -11400.00
04540              22.00   -11200.00
04541              20.00   -11200.00
04542              14.00   -11000.00
04543              12.00   -11000.00
04544               8.00   -10800.00
04545              12.00   -10800.00
04546              20.00   -10800.00
04547              20.00   -10800.00
04548              12.00   -10600.00
04549               8.00   -10600.00
04550               8.00   -10400.00
04551              10.00   -10400.00
04552              14.00   -10200.00
04553              14.00   -10000.00
04554              12.00   -10000.00
04555               8.00   -10000.00
04556               6.00    -9800.00
04557               6.00    -9600.00
04558              12.00    -9600.00
04559              12.00    -9400.00
04560              12.00    -9200.00
04561               8.00    -9200.00
04562               8.00    -9000.00
04563               6.00    -9000.00
04564               6.00    -8800.00
04565               8.00    -8800.00
04566               8.00    -8400.00
04567               8.00    -8400.00
04568               8.00    -8200.00
04569               4.00    -8200.00
04570               4.00    -8000.00
04571               4.00    -7800.00
04572               6.00    -7600.00
04573               8.00    -7600.00
04574               6.00    -7400.00
04575               4.00    -7200.00
04576               2.00    -7000.00
04577               0.00    -6800.00
04578               0.00    -6800.00
04579               6.00    -6600.00
04580               6.00    -6400.00
04581               4.00    -6200.00
04582               0.00    -6000.00
04583              -2.00    -5800.00
04584              -2.00    -5800.00
04585               0.00    -5400.00
04586               4.00    -5400.00
04587               4.00    -5000.00
04588               0.00    -5000.00
04589              -2.00    -4800.00
04590              -4.00    -4600.00
04591              -2.00    -4400.00
04592               0.00    -4200.00
04593               2.00    -4000.00
04594              -2.00    -4000.00
04595              -2.00    -3600.00
04596              -4.00    -3600.00
04597              -4.00    -3400.00
04598              -4.00    -3400.00
04599              -2.00    -2800.00
04600               0.00    -2800.00
04601              -4.00    -2600.00
04602              -4.00    -2400.00
04603              -8.00    -2400.00
04604              -8.00    -2000.00
04605              -4.00    -1800.00
04606              -4.00    -1600.00
04607              -4.00    -1400.00
04608              -8.00    -1200.00
04609              -8.00    -1200.00
04610             -12.00    -1000.00
04611             -10.00     -800.00
04612              -8.00     -600.00
04613              -8.00     -400.00
04614              -4.00     -200.00
04615              -4.00        0.00
04616              -2.00      200.00
04617              22.00      400.00
04618               8.00      600.00
04619             -24.00     1000.00
04620             -26.00     1000.00
04621               6.00     1200.00
04622              20.00     1200.00
04623              84.00     1600.00
04624             252.00     2000.00
04625              62.00     2200.00
04626            -248.00     2400.00
04627            -248.00     2200.00
04628              94.00     2200.00
04629             252.00     2800.00
04630             252.00     3000.00
04631            -248.00     2800.00
04632            -248.00     3400.00
04633             252.00     3400.00
04634             252.00     3600.00
04635            -248.00     4200.00
04636            -100.00     3600.00
04637             204.00     4400.00
04638             -80.00     4600.00
04639             252.00     4000.00
04640            -248.00     5200.00
04641            -248.00     4800.00
04642             252.00     4600.00
04643              84.00     6000.00
04644            -160.00     5200.00
04645             -84.00     5400.00
04646             -66.00     6800.00
04647             102.00     5600.00
04648              86.00     6200.00
04649             -20.00     7000.00
04650            -248.00     6000.00
04651              14.00     6800.00
04652             252.00     7200.00
04653            -232.00     6800.00
04654             -96.00     7400.00
04655             124.00     7400.00
04656            -160.00     7600.00
04657              86.00     7400.00
04658              32.00     8000.00
04659            -138.00     8000.00
04660              30.00     7800.00
04661              14.00     8800.00
04662             -66.00     8000.00
04663             -42.00     8400.00
04664              62.00     9000.00
04665             -50.00     8600.00
04666             -72.00     9000.00
04667              58.00     9200.00
04668             -96.00     9200.00
04669             -12.00     9200.00
04670              72.00     9400.00
04671            -112.00     9600.00
04672             -28.00     9200.00
04673              48.00    10000.00
04674             -56.00     9800.00
04675             -48.00     9800.00
04676               6.00    10200.00
04677             -28.00    10000.00
04678             -38.00    10200.00
04679               8.00    10400.00
04680             -56.00    10400.00
04681             -44.00    10400.00
04682              30.00    10600.00
04683             -50.00    10800.00
04684             -52.00    10800.00
04685              12.00    11000.00
04686             -36.00    11000.00
04687             -34.00    11000.00
04688              -2.00    11200.00
04689             -50.00    11200.00
04690             -42.00    11200.00
04691              20.00    11400.00
04692             -20.00    11400.00
04693             -56.00    11200.00
04694             -18.00    11600.00
04695             -30.00    11600.00
04696             -28.00    11600.00
04697               0.00    11600.00
04698             -36.00    11600.00
04699             -46.00    11600.00
04700             -12.00    11800.00
04701             -26.00    11800.00
04702             -36.00    11600.00
04703             -14.00    11800.00
04704             -28.00    11800.00
04705             -28.00    11800.00
04706              -8.00    11800.00
04707             -28.00    11800.00
04708             -44.00    11800.00
04709             -16.00    11800.00
04710             -20.00    11600.00
04711             -32.00    11800.00
04712             -16.00    11800.00
04713             -24.00    11800.00
04714             -36.00    11800.00
04715             -20.00    11800.00
04716             -26.00    11800.00
04717             -30.00    11600.00
04718             -16.00    11800.00
04719             -18.00    11800.00
04720             -32.00    11800.00
04721             -26.00    11800.00
04722             -28.00    11600.00
04723             -30.00    11600.00
04724             -12.00    11600.00
04725             -18.00    11600.00
04726             -32.00    11600.00
04727             -20.00    11400.00
04728             -24.00    11200.00
04729             -28.00    11200.00
04730             -18.00    11200.00
04731             -20.00    11200.00
04732             -26.00    11000.00
04733             -20.00    10800.00
04734             -18.00    11000.00
04735             -26.00    10800.00
04736             -24.00    10600.00
04737             -20.00    10600.00
04738             -20.00    10400.00
04739             -18.00    10400.00
04740             -24.00    10400.00
04741             -26.00    10400.00
04742             -24.00    10200.00
04743             -18.00    10000.00
04744             -20.00    10000.00
04745             -20.00     9800.00
04746             -20.00     9600.00
04747             -26.00     9800.00
04748             -20.00     9600.00
04749             -18.00     9400.00
04750             -24.00     9200.00
04751             -18.00     9000.00
04752             -16.00     9000.00
04753             -20.00     8800.00
04754             -20.00     8800.00
04755             -20.00     8600.00
04756             -20.00     8600.00
04757             -18.00     8400.00
04758             -12.00     8200.00
04759             -18.00     8000.00
04760             -18.00     8000.00
04761             -18.00     8000.00
04762             -18.00     7800.00
04763             -16.00     7600.00
04764             -16.00     7400.00
04765             -14.00     7200.00
04766             -10.00     7000.00
04767             -16.00     7000.00
04768             -18.00     6800.00
04769             -16.00     6600.00
04770             -12.00     6400.00
04771             -10.00     6200.00
04772             -10.00     6200.00
04773             -16.00     6000.00
04774             -14.00     5800.00
04775             -12.00     5600.00
04776             -10.00     5400.00
04777              -8.00     5400.00
04778              -8.00     5200.00
04779              -8.00     5000.00
04780             -10.00     4800.00
04781             -10.00     4600.00
04782              -8.00     4400.00
04783             -10.00     4200.00
04784              -4.00     4000.00
04785              -6.00     3800.00
04786              -8.00     3600.00
04787              -8.00     3600.00
04788              -6.00     3200.00
04789              -8.00     3200.00
04790              -4.00     3000.00
04791              -4.00     2600.00
04792              -4.00     2400.00
04793              -4.00     2200.00
04794              -4.00     2200.00
04795              -4.00     2000.00
04796              -4.00     1600.00
04797              -2.00     1400.00
04798               4.00     1400.00
04799               0.00     1200.00
04800              -4.00     1000.00
04801              -2.00      800.00
04802              -2.00      600.00
04803              -4.00      200.00
04804               4.00      200.00
04805               0.00        0.00
04806               4.00        0.00
04807               6.00     -400.00
04808              24.00     -600.00
04809              30.00     -800.00
04810              -6.00     -800.00
04811             -18.00    -1200.00
04812              14.00    -1200.00
04813              28.00    -1400.00
04814              32.00    -1400.00
04815             140.00    -1800.00
04816             252.00    -2200.00
04817             -32.00    -2600.00
04818            -248.00    -2600.00
04819            -248.00    -2800.00
04820             196.00    -2800.00
04821             252.00    -2600.00
04822             252.00    -3000.00
04823            -148.00    -3800.00
04824            -248.00    -3200.00
04825             252.00    -4000.00
04826             252.00    -4400.00
04827            -248.00    -3600.00
04828            -248.00    -4800.00
04829              84.00    -4800.00
04830             154.00    -4200.00
04831             252.00    -5400.00
04832            -188.00    -5000.00
04833            -248.00    -4800.00
04834             192.00    -5600.00
04835             252.00    -5400.00
04836             -24.00    -5600.00
04837            -224.00    -6000.00
04838             -40.00    -6000.00
04839             220.00    -6000.00
04840             120.00    -6400.00
04841             -74.00    -6600.00
04842            -180.00    -6600.00
04843              54.00    -7000.00
04844             252.00    -7200.00
04845             -34.00    -7200.00
04846            -156.00    -7600.00
04847              12.00    -7600.00
04848             106.00    -7600.00
04849              80.00    -8000.00
04850             -32.00    -8000.00
04851             -48.00    -8000.00
04852              32.00    -8400.00
04853              80.00    -8400.00
04854              20.00    -8600.00
04855             -58.00    -8800.00
04856              32.00    -9000.00
04857              76.00    -9000.00
04858              12.00    -9200.00
04859             -12.00    -9400.00
04860             -16.00    -9200.00
04861              38.00    -9600.00
04862              72.00    -9800.00
04863               8.00    -9600.00
04864             -28.00    -9800.00
04865              24.00   -10000.00
04866              52.00   -10000.00
04867              10.00   -10000.00
04868               6.00   -10400.00
04869              22.00   -10400.00
04870              22.00   -10400.00
04871              32.00   -10600.00
04872              14.00   -10600.00
04873              -4.00   -10600.00
04874              24.00   -10800.00
04875              38.00   -10800.00
04876              14.00   -10800.00
04877              16.00   -11200.00
04878              20.00   -11000.00
04879              12.00   -11400.00
04880              20.00   -11400.00
04881              20.00   -11400.00
04882               8.00   -11400.00
04883              28.00   -11400.00
04884              32.00   -11400.00
04885               8.00   -11400.00
04886               6.00   -11600.00
04887              22.00   -11600.00
04888              20.00   -11600.00
04889              24.00   -11800.00
04890              24.00   -12000.00
04891              12.00   -11800.00
04892              14.00   -11800.00
04893              20.00   -11800.00
04894              14.00   -11800.00
04895              22.00   -11800.00
04896              30.00   -11800.00
04897              20.00   -12000.00
04898              16.00   -12000.00
04899              16.00   -11800.00
04900              12.00   -11800.00
04901              16.00   -12000.00
04902              28.00   -12000.00
04903              20.00   -11800.00
04904              16.00   -12000.00
04905              20.00   -12000.00
04906              12.00   -11800.00
04907              14.00   -11800.00
04908              24.00   -11800.00
04909              22.00   -11800.00
04910              20.00   -11800.00
04911              22.00   -11800.00
04912              12.00   -11600.00
04913              12.00   -11800.00
04914              20.00   -11600.00
04915              20.00   -11600.00
04916              20.00   -11600.00
04917              22.00   -11400.00
04918              16.00   -11600.00
04919              12.00   -11400.00
04920              14.00   -11400.00
04921              14.00   -11400.00
04922              20.00   -11200.00
04923              22.00   -11200.00
04924              12.00   -11000.00
04925              12.00   -11200.00
04926              14.00   -11000.00
04927              12.00   -10800.00
04928              14.00   -10800.00
04929              16.00   -10800.00
04930              20.00   -10600.00
04931              14.00   -10400.00
04932               6.00   -10600.00
04933              14.00   -10400.00
04934              10.00   -10400.00
04935              12.00   -10400.00
04936              14.00   -10000.00
04937              12.00   -10000.00
04938               8.00    -9800.00
04939               8.00    -9800.00
04940               4.00    -9600.00
04941              12.00    -9400.00
04942              12.00    -9200.00
04943              12.00    -9400.00
04944              10.00    -9200.00
04945               6.00    -9000.00
04946               4.00    -9000.00
04947               4.00    -8800.00
04948               8.00    -8800.00
04949               8.00    -8400.00
04950              10.00    -8400.00
04951               6.00    -8200.00
04952               4.00    -8000.00
04953               2.00    -8000.00
04954               4.00    -7800.00
04955               8.00    -7600.00
04956               6.00    -7400.00
04957               6.00    -7400.00
04958               0.00    -7200.00
04959               0.00    -7200.00
04960               4.00    -6800.00
04961               4.00    -6600.00
04962               4.00    -6600.00
04963               6.00    -6400.00
04964               4.00    -6200.00
04965               0.00    -5800.00
04966               0.00    -5800.00
04967              -2.00    -5800.00
04968               0.00    -5400.00
04969               4.00    -5200.00
04970               4.00    -5000.00
04971              -2.00    -5000.00
04972              -2.00    -4800.00
04973              -2.00    -4600.00
04974              -2.00    -4400.00
04975               0.00    -4200.00
04976               0.00    -4000.00
04977              -2.00    -3800.00
04978              -4.00    -3600.00
04979              -4.00    -3600.00
04980              -4.00    -3200.00
04981              -4.00    -3000.00
04982              -2.00    -3000.00
04983              -2.00    -2800.00
04984              -4.00    -2600.00
04985              -4.00    -2400.00
04986             -10.00    -2200.00
04987              -8.00    -2000.00
04988              -4.00    -1800.00
04989              -6.00    -1600.00
04990              -4.00    -1400.00
04991              -8.00    -1000.00
04992              -8.00    -1000.00
04993             -12.00     -800.00
04994              -6.00     -600.00
04995              -6.00     -400.00
04996              -4.00     -200.00
04997              -4.00        0.00
04998              -8.00        0.00
04999               4.00      400.00
05000              26.00      600.00
