Unit:(mV)
                     CH1         CH2
Frequency              ? 256.785 kHz
00001              10.00    -3000.00
00002               8.00    -2800.00
00003               8.00    -2800.00
00004               6.00    -2400.00
00005               6.00    -2200.00
00006               6.00    -2200.00
00007               0.00    -2000.00
00008               6.00    -1600.00
00009               6.00    -1200.00
00010               6.00    -1000.00
00011               0.00    -1000.00
00012               0.00     -800.00
00013               0.00     -800.00
00014              -2.00     -400.00
00015              -2.00     -200.00
00016              -2.00        0.00
00017               2.00        0.00
00018               6.00      200.00
00019               6.00      600.00
00020              24.00      800.00
00021              22.00      800.00
00022              -4.00     1000.00
00023             -16.00     1200.00
00024               0.00     1400.00
00025              10.00     1600.00
00026              56.00     1800.00
00027             246.00     2000.00
00028             174.00     2400.00
00029            -254.00     2600.00
00030            -254.00     2600.00
00031             -90.00     2800.00
00032             110.00     3000.00
00033             246.00     3400.00
00034             102.00     3400.00
00035            -254.00     3400.00
00036             166.00     4000.00
00037             104.00     4000.00
00038            -186.00     4000.00
00039             142.00     4400.00
00040            -112.00     4400.00
00041              64.00     4800.00
00042              56.00     4800.00
00043            -214.00     5200.00
00044              10.00     5400.00
00045               8.00     5600.00
00046              46.00     5600.00
00047             -34.00     5600.00
00048             -48.00     6000.00
00049             -26.00     6000.00
00050             -58.00     6400.00
00051              72.00     6600.00
00052             -96.00     6400.00
00053             -30.00     7000.00
00054               6.00     7000.00
00055             -46.00     7200.00
00056               2.00     7400.00
00057             -72.00     7400.00
00058             -32.00     7800.00
00059              -8.00     7800.00
00060             -14.00     8000.00
00061             -66.00     8000.00
00062             -36.00     8400.00
00063             -26.00     8400.00
00064             -38.00     8600.00
00065             -32.00     8800.00
00066             -56.00     8800.00
00067             -48.00     9000.00
00068             -38.00     9200.00
00069             -24.00     9200.00
00070             -50.00     9400.00
00071             -42.00     9600.00
00072             -64.00     9800.00
00073             -54.00     9800.00
00074             -38.00    10000.00
00075             -50.00    10000.00
00076             -42.00    10000.00
00077             -62.00    10400.00
00078             -72.00    10400.00
00079             -70.00    10400.00
00080             -42.00    10600.00
00081             -48.00    10600.00
00082             -58.00    10800.00
00083             -72.00    10800.00
00084             -78.00    10800.00
00085             -72.00    11200.00
00086             -60.00    11200.00
00087             -66.00    11200.00
00088             -74.00    11200.00
00089             -80.00    11800.00
00090             -82.00    11600.00
00091             -70.00    11800.00
00092             -74.00    11800.00
00093             -86.00    11800.00
00094             -90.00    11800.00
00095             -94.00    11800.00
00096             -90.00    12000.00
00097             -86.00    12000.00
00098             -90.00    12000.00
00099            -100.00    12200.00
00100            -102.00    12200.00
00101            -104.00    12000.00
00102            -102.00    12000.00
00103            -102.00    12200.00
00104            -112.00    12200.00
00105            -114.00    12400.00
00106            -114.00    12200.00
00107            -118.00    12200.00
00108            -120.00    12200.00
00109            -120.00    12200.00
00110            -126.00    12200.00
00111            -132.00    12400.00
00112            -134.00    12400.00
00113            -136.00    12200.00
00114            -134.00    12400.00
00115            -138.00    12400.00
00116            -146.00    12400.00
00117            -150.00    12400.00
00118            -152.00    12200.00
00119            -154.00    12400.00
00120            -152.00    12200.00
00121            -152.00    12200.00
00122            -152.00    12200.00
00123            -152.00    12200.00
00124            -158.00    12000.00
00125            -160.00    12200.00
00126            -154.00    12000.00
00127            -146.00    12000.00
00128            -146.00    12000.00
00129            -144.00    12000.00
00130            -146.00    11800.00
00131            -144.00    11800.00
00132            -142.00    11800.00
00133            -134.00    11600.00
00134            -128.00    11800.00
00135            -122.00    11600.00
00136            -122.00    11400.00
00137            -120.00    11400.00
00138            -122.00    11400.00
00139            -118.00    11400.00
00140            -110.00    11200.00
00141            -100.00    11200.00
00142             -98.00    11000.00
00143             -98.00    10800.00
00144            -104.00    10800.00
00145            -102.00    10600.00
00146             -90.00    10600.00
00147             -82.00    10400.00
00148             -78.00    10400.00
00149             -80.00    10400.00
00150             -84.00    10200.00
00151             -84.00    10000.00
00152             -78.00     9800.00
00153             -68.00     9800.00
00154             -62.00     9800.00
00155             -58.00     9600.00
00156             -64.00     9600.00
00157             -68.00     9400.00
00158             -64.00     9200.00
00159             -58.00     9000.00
00160             -52.00     8800.00
00161             -48.00     8600.00
00162             -50.00     8600.00
00163             -50.00     8400.00
00164             -54.00     8400.00
00165             -48.00     8200.00
00166             -44.00     8000.00
00167             -42.00     8000.00
00168             -38.00     7600.00
00169             -40.00     7600.00
00170             -38.00     7400.00
00171             -40.00     7200.00
00172             -40.00     7000.00
00173             -40.00     6800.00
00174             -34.00     6800.00
00175             -32.00     6600.00
00176             -34.00     6400.00
00177             -34.00     6200.00
00178             -30.00     6000.00
00179             -32.00     5800.00
00180             -26.00     5600.00
00181             -26.00     5600.00
00182             -26.00     5600.00
00183             -24.00     5200.00
00184             -24.00     5000.00
00185             -32.00     4800.00
00186             -26.00     4400.00
00187             -18.00     4400.00
00188             -12.00     4200.00
00189             -16.00     4000.00
00190             -26.00     3800.00
00191             -24.00     3600.00
00192             -16.00     3400.00
00193             -18.00     3400.00
00194             -18.00     3200.00
00195             -14.00     2800.00
00196             -12.00     2600.00
00197             -14.00     2600.00
00198             -16.00     2400.00
00199             -18.00     2000.00
00200             -12.00     2000.00
00201              -8.00     1800.00
00202              -2.00     1600.00
00203              -6.00     1200.00
00204             -16.00     1200.00
00205             -22.00     1000.00
00206              -8.00      800.00
00207               2.00      800.00
00208               0.00      400.00
00209              -6.00        0.00
00210              -6.00        0.00
00211               8.00        0.00
00212              34.00     -400.00
00213              14.00     -600.00
00214             -16.00     -600.00
00215             -10.00     -800.00
00216               8.00    -1200.00
00217              14.00    -1000.00
00218              42.00    -1400.00
00219             182.00    -1600.00
00220             244.00    -2000.00
00221            -170.00    -2400.00
00222            -254.00    -2400.00
00223            -136.00    -2800.00
00224              96.00    -2800.00
00225             106.00    -2600.00
00226             246.00    -3000.00
00227             -80.00    -3400.00
00228            -250.00    -3200.00
00229             186.00    -4000.00
00230              24.00    -3600.00
00231               0.00    -3800.00
00232              14.00    -4400.00
00233             -10.00    -4000.00
00234             126.00    -4600.00
00235             -70.00    -4600.00
00236             -38.00    -5000.00
00237               2.00    -5200.00
00238              22.00    -5200.00
00239             128.00    -5600.00
00240             -42.00    -5400.00
00241             -16.00    -6200.00
00242              12.00    -6000.00
00243              32.00    -6000.00
00244              64.00    -6400.00
00245             -16.00    -6200.00
00246              26.00    -6800.00
00247              14.00    -6800.00
00248              46.00    -7000.00
00249               6.00    -7200.00
00250              -6.00    -7200.00
00251              58.00    -7600.00
00252              22.00    -7400.00
00253              42.00    -7800.00
00254              18.00    -8000.00
00255               6.00    -8000.00
00256              52.00    -8400.00
00257              38.00    -8400.00
00258              16.00    -8600.00
00259              32.00    -8600.00
00260              42.00    -8800.00
00261              38.00    -8800.00
00262              42.00    -9000.00
00263              38.00    -9400.00
00264              30.00    -9400.00
00265              50.00    -9600.00
00266              46.00    -9600.00
00267              38.00    -9800.00
00268              60.00    -9800.00
00269              40.00   -10000.00
00270              42.00   -10000.00
00271              54.00   -10200.00
00272              46.00   -10200.00
00273              64.00   -10200.00
00274              70.00   -10400.00
00275              52.00   -10400.00
00276              50.00   -10600.00
00277              58.00   -10800.00
00278              58.00   -10800.00
00279              72.00   -10800.00
00280              76.00   -11000.00
00281              64.00   -11000.00
00282              72.00   -11200.00
00283              72.00   -11200.00
00284              68.00   -11200.00
00285              80.00   -11200.00
00286              82.00   -11400.00
00287              82.00   -11600.00
00288              90.00   -11600.00
00289              84.00   -11600.00
00290              82.00   -11800.00
00291              94.00   -11600.00
00292              94.00   -11800.00
00293              98.00   -11800.00
00294             104.00   -11800.00
00295             102.00   -11800.00
00296             102.00   -11800.00
00297             104.00   -12000.00
00298             104.00   -11800.00
00299             112.00   -12000.00
00300             120.00   -11800.00
00301             118.00   -12000.00
00302             122.00   -12000.00
00303             120.00   -12000.00
00304             118.00   -12000.00
00305             130.00   -12000.00
00306             134.00   -12000.00
00307             136.00   -12000.00
00308             138.00   -12000.00
00309             138.00   -12000.00
00310             136.00   -12000.00
00311             138.00   -12000.00
00312             146.00   -12000.00
00313             150.00   -12000.00
00314             150.00   -11800.00
00315             150.00   -11800.00
00316             142.00   -11800.00
00317             142.00   -11800.00
00318             142.00   -11800.00
00319             144.00   -11800.00
00320             144.00   -11600.00
00321             138.00   -11600.00
00322             134.00   -11600.00
00323             128.00   -11400.00
00324             122.00   -11400.00
00325             124.00   -11400.00
00326             128.00   -11200.00
00327             120.00   -11200.00
00328             118.00   -11200.00
00329             110.00   -11200.00
00330             104.00   -11000.00
00331             102.00   -10800.00
00332             102.00   -10800.00
00333              98.00   -10800.00
00334             100.00   -10600.00
00335              92.00   -10400.00
00336              86.00   -10400.00
00337              80.00   -10200.00
00338              80.00   -10400.00
00339              78.00   -10000.00
00340              80.00   -10000.00
00341              78.00   -10000.00
00342              70.00    -9800.00
00343              64.00    -9600.00
00344              62.00    -9600.00
00345              62.00    -9400.00
00346              64.00    -9200.00
00347              62.00    -9200.00
00348              58.00    -8800.00
00349              54.00    -8800.00
00350              48.00    -8800.00
00351              48.00    -8600.00
00352              48.00    -8600.00
00353              48.00    -8400.00
00354              48.00    -8400.00
00355              44.00    -8000.00
00356              38.00    -8000.00
00357              38.00    -7400.00
00358              38.00    -7600.00
00359              38.00    -7400.00
00360              38.00    -7200.00
00361              36.00    -7200.00
00362              32.00    -7000.00
00363              30.00    -6800.00
00364              30.00    -6800.00
00365              26.00    -6600.00
00366              30.00    -6400.00
00367              30.00    -6000.00
00368              26.00    -6000.00
00369              22.00    -5600.00
00370              20.00    -5600.00
00371              18.00    -5600.00
00372              20.00    -5400.00
00373              22.00    -5200.00
00374              18.00    -5000.00
00375              18.00    -4800.00
00376              14.00    -4600.00
00377              14.00    -4400.00
00378              14.00    -4200.00
00379              16.00    -4000.00
00380              14.00    -3800.00
00381              14.00    -3600.00
00382               8.00    -3400.00
00383               8.00    -3400.00
00384               6.00    -3000.00
00385               6.00    -2800.00
00386               8.00    -2800.00
00387              10.00    -2400.00
00388               8.00    -2400.00
00389               6.00    -2200.00
00390               2.00    -2000.00
00391               0.00    -1800.00
00392               2.00    -1400.00
00393               4.00    -1400.00
00394               4.00    -1000.00
00395               2.00    -1000.00
00396               0.00     -800.00
00397              -2.00     -400.00
00398              -2.00     -400.00
00399              -4.00     -200.00
00400               6.00        0.00
00401               6.00      400.00
00402               0.00      400.00
00403              10.00      800.00
00404              32.00     1000.00
00405               6.00     1000.00
00406             -10.00     1200.00
00407             -10.00     1200.00
00408               8.00     1600.00
00409              24.00     1600.00
00410             150.00     2000.00
00411             246.00     2200.00
00412            -116.00     2400.00
00413            -254.00     2600.00
00414            -254.00     2800.00
00415               6.00     2800.00
00416             246.00     3200.00
00417             246.00     3400.00
00418            -254.00     3200.00
00419            -214.00     3600.00
00420             246.00     4000.00
00421            -178.00     4000.00
00422              30.00     4400.00
00423              36.00     4400.00
00424             -94.00     4600.00
00425             166.00     4600.00
00426            -150.00     5000.00
00427            -110.00     5400.00
00428              38.00     5400.00
00429              16.00     5600.00
00430              32.00     5600.00
00431             -76.00     5800.00
00432              -2.00     6000.00
00433             -74.00     6000.00
00434              30.00     6600.00
00435               0.00     6400.00
00436            -104.00     6600.00
00437              32.00     7000.00
00438             -46.00     7000.00
00439             -14.00     7200.00
00440             -42.00     7400.00
00441             -62.00     7600.00
00442             -10.00     7600.00
00443              -2.00     8000.00
00444             -34.00     8000.00
00445             -66.00     8200.00
00446             -24.00     8400.00
00447             -46.00     8400.00
00448             -24.00     8800.00
00449             -46.00     8800.00
00450             -48.00     8800.00
00451             -48.00     9000.00
00452             -26.00     9200.00
00453             -44.00     9200.00
00454             -48.00     9400.00
00455             -46.00     9600.00
00456             -70.00     9600.00
00457             -40.00    10000.00
00458             -54.00    10000.00
00459             -44.00    10200.00
00460             -50.00    10200.00
00461             -64.00    10400.00
00462             -70.00    10400.00
00463             -54.00    10600.00
00464             -46.00    10600.00
00465             -58.00    10600.00
00466             -62.00    10800.00
00467             -78.00    11000.00
00468             -74.00    11000.00
00469             -66.00    11200.00
00470             -66.00    11200.00
00471             -70.00    11200.00
00472             -70.00    11600.00
00473             -80.00    11600.00
00474             -80.00    11800.00
00475             -80.00    11800.00
00476             -90.00    11800.00
00477             -80.00    11800.00
00478             -80.00    12000.00
00479             -84.00    12000.00
00480             -90.00    12000.00
00481             -98.00    12200.00
00482            -102.00    12000.00
00483             -98.00    12200.00
00484             -94.00    12200.00
00485             -98.00    12200.00
00486            -104.00    12200.00
00487            -112.00    12400.00
00488            -118.00    12200.00
00489            -114.00    12200.00
00490            -116.00    12400.00
00491            -114.00    12400.00
00492            -114.00    12400.00
00493            -122.00    12400.00
00494            -134.00    12400.00
00495            -136.00    12400.00
00496            -134.00    12400.00
00497            -130.00    12200.00
00498            -134.00    12400.00
00499            -138.00    12400.00
00500            -146.00    12400.00
00501            -152.00    12200.00
00502            -154.00    12400.00
00503            -152.00    12200.00
00504            -150.00    12400.00
00505            -146.00    12200.00
00506            -152.00    12400.00
00507            -158.00    12200.00
00508            -160.00    12200.00
00509            -154.00    12000.00
00510            -146.00    12000.00
00511            -144.00    12200.00
00512            -144.00    12000.00
00513            -144.00    12000.00
00514            -146.00    11800.00
00515            -144.00    12000.00
00516            -136.00    11800.00
00517            -128.00    11800.00
00518            -122.00    11600.00
00519            -126.00    11600.00
00520            -126.00    11600.00
00521            -122.00    11200.00
00522            -118.00    11400.00
00523            -112.00    11200.00
00524            -104.00    11200.00
00525             -98.00    11000.00
00526            -100.00    10800.00
00527            -102.00    10800.00
00528             -98.00    10600.00
00529             -94.00    10600.00
00530             -88.00    10400.00
00531             -82.00    10400.00
00532             -80.00    10400.00
00533             -78.00    10000.00
00534             -78.00    10200.00
00535             -80.00    10000.00
00536             -74.00     9800.00
00537             -66.00     9800.00
00538             -62.00     9800.00
00539             -58.00     9400.00
00540             -62.00     9600.00
00541             -66.00     9200.00
00542             -62.00     9200.00
00543             -56.00     9000.00
00544             -50.00     8800.00
00545             -46.00     8600.00
00546             -48.00     8600.00
00547             -52.00     8400.00
00548             -50.00     8200.00
00549             -48.00     8000.00
00550             -42.00     8000.00
00551             -40.00     7800.00
00552             -38.00     7600.00
00553             -42.00     7600.00
00554             -40.00     7400.00
00555             -40.00     7200.00
00556             -36.00     7000.00
00557             -34.00     6800.00
00558             -32.00     6600.00
00559             -32.00     6400.00
00560             -34.00     6400.00
00561             -30.00     6200.00
00562             -30.00     6000.00
00563             -30.00     5800.00
00564             -26.00     5600.00
00565             -26.00     5400.00
00566             -26.00     5200.00
00567             -26.00     5400.00
00568             -24.00     5000.00
00569             -28.00     4800.00
00570             -24.00     4400.00
00571             -22.00     4400.00
00572             -16.00     4000.00
00573             -16.00     4000.00
00574             -24.00     3800.00
00575             -22.00     3600.00
00576             -24.00     3400.00
00577             -16.00     3200.00
00578             -10.00     3000.00
00579             -14.00     2800.00
00580             -22.00     2600.00
00581             -16.00     2400.00
00582             -10.00     2400.00
00583             -14.00     2000.00
00584             -16.00     1800.00
00585             -12.00     1800.00
00586              -6.00     1200.00
00587              -8.00     1200.00
00588             -14.00     1000.00
00589             -14.00      800.00
00590             -10.00      800.00
00591              -6.00      400.00
00592              -2.00      200.00
00593               0.00      200.00
00594               2.00        0.00
00595              18.00     -200.00
00596              24.00     -400.00
00597              -2.00     -600.00
00598             -16.00     -800.00
00599              -2.00     -800.00
00600              12.00    -1200.00
00601              22.00    -1400.00
00602              94.00    -1400.00
00603             246.00    -1600.00
00604              58.00    -2400.00
00605            -254.00    -2400.00
00606            -254.00    -2600.00
00607              34.00    -2600.00
00608              78.00    -2400.00
00609             246.00    -2800.00
00610             206.00    -3200.00
00611            -254.00    -3000.00
00612              10.00    -3600.00
00613             166.00    -3800.00
00614             -52.00    -3600.00
00615              48.00    -4200.00
00616             -42.00    -4000.00
00617              94.00    -4400.00
00618              44.00    -4800.00
00619             -98.00    -4800.00
00620              14.00    -5200.00
00621             -24.00    -4800.00
00622             114.00    -5400.00
00623              50.00    -5400.00
00624             -58.00    -5600.00
00625              18.00    -6200.00
00626               4.00    -5800.00
00627              72.00    -6400.00
00628              16.00    -6400.00
00629               0.00    -6400.00
00630              26.00    -6800.00
00631              24.00    -6800.00
00632              40.00    -7200.00
00633             -20.00    -7200.00
00634              42.00    -7400.00
00635              46.00    -7600.00
00636              24.00    -7800.00
00637              42.00    -8000.00
00638               2.00    -8000.00
00639              34.00    -8400.00
00640              50.00    -8400.00
00641              22.00    -8600.00
00642              22.00    -8600.00
00643              42.00    -8600.00
00644              40.00    -9000.00
00645              38.00    -9000.00
00646              42.00    -9200.00
00647              30.00    -9200.00
00648              40.00    -9400.00
00649              54.00    -9600.00
00650              34.00    -9600.00
00651              50.00    -9800.00
00652              54.00   -10000.00
00653              40.00   -10000.00
00654              52.00   -10000.00
00655              48.00   -10200.00
00656              54.00   -10400.00
00657              72.00   -10400.00
00658              62.00   -10600.00
00659              50.00   -10800.00
00660              56.00   -10800.00
00661              58.00   -10600.00
00662              64.00   -10800.00
00663              78.00   -11000.00
00664              72.00   -11000.00
00665              70.00   -11200.00
00666              74.00   -11200.00
00667              66.00   -11200.00
00668              72.00   -11200.00
00669              86.00   -11600.00
00670              82.00   -11600.00
00671              88.00   -11600.00
00672              86.00   -11600.00
00673              80.00   -11600.00
00674              90.00   -11600.00
00675              92.00   -11800.00
00676              96.00   -11600.00
00677             102.00   -11800.00
00678             104.00   -11800.00
00679             104.00   -12000.00
00680             104.00   -12000.00
00681             102.00   -11800.00
00682             104.00   -12000.00
00683             120.00   -12000.00
00684             122.00   -12000.00
00685             120.00   -12000.00
00686             124.00   -12000.00
00687             120.00   -12000.00
00688             120.00   -12000.00
00689             134.00   -11800.00
00690             140.00   -12000.00
00691             144.00   -12000.00
00692             142.00   -12000.00
00693             134.00   -12000.00
00694             134.00   -11800.00
00695             144.00   -12000.00
00696             152.00   -11800.00
00697             158.00   -12000.00
00698             152.00   -11800.00
00699             142.00   -12000.00
00700             136.00   -11800.00
00701             142.00   -11600.00
00702             150.00   -11800.00
00703             150.00   -11600.00
00704             144.00   -11600.00
00705             134.00   -11600.00
00706             128.00   -11600.00
00707             126.00   -11600.00
00708             126.00   -11200.00
00709             128.00   -11400.00
00710             122.00   -11200.00
00711             118.00   -11200.00
00712             112.00   -11200.00
00713             106.00   -11000.00
00714             104.00   -11000.00
00715             106.00   -10800.00
00716              98.00   -10800.00
00717              96.00   -10800.00
00718              94.00   -10600.00
00719              88.00   -10400.00
00720              86.00   -10400.00
00721              80.00   -10200.00
00722              78.00   -10200.00
00723              78.00   -10000.00
00724              78.00   -10000.00
00725              72.00    -9800.00
00726              72.00    -9600.00
00727              66.00    -9600.00
00728              62.00    -9600.00
00729              58.00    -9400.00
00730              60.00    -9200.00
00731              58.00    -9000.00
00732              56.00    -9200.00
00733              52.00    -8800.00
00734              46.00    -8800.00
00735              46.00    -8600.00
00736              50.00    -8400.00
00737              50.00    -8200.00
00738              46.00    -8200.00
00739              40.00    -8000.00
00740              38.00    -8000.00
00741              38.00    -7800.00
00742              38.00    -7400.00
00743              38.00    -7400.00
00744              34.00    -7200.00
00745              36.00    -7000.00
00746              34.00    -6800.00
00747              28.00    -6800.00
00748              24.00    -6800.00
00749              30.00    -6400.00
00750              32.00    -6200.00
00751              30.00    -6000.00
00752              24.00    -6000.00
00753              18.00    -5800.00
00754              16.00    -5600.00
00755              18.00    -5400.00
00756              22.00    -5200.00
00757              24.00    -5000.00
00758              24.00    -4800.00
00759              14.00    -4600.00
00760               8.00    -4600.00
00761               8.00    -4400.00
00762              16.00    -4000.00
00763              18.00    -3800.00
00764              18.00    -3600.00
00765              14.00    -3600.00
00766               6.00    -3400.00
00767               0.00    -3200.00
00768               4.00    -3000.00
00769              10.00    -2800.00
00770              10.00    -2400.00
00771              10.00    -2400.00
00772               2.00    -2200.00
00773               0.00    -2000.00
00774               0.00    -1800.00
00775               6.00    -1600.00
00776               6.00    -1400.00
00777               6.00    -1200.00
00778              -2.00    -1000.00
00779              -2.00     -800.00
00780               0.00     -600.00
00781              -2.00     -400.00
00782               0.00     -400.00
00783               0.00        0.00
00784               2.00        0.00
00785               2.00      400.00
00786               6.00      400.00
00787              24.00      600.00
00788              20.00      800.00
00789              -6.00     1000.00
00790             -16.00     1200.00
00791              -4.00     1400.00
00792              10.00     1600.00
00793              64.00     1800.00
00794             246.00     2200.00
00795             150.00     2400.00
00796            -254.00     2600.00
00797            -254.00     2600.00
00798             -78.00     2800.00
00799             122.00     2800.00
00800             246.00     3400.00
00801              48.00     3400.00
00802            -254.00     3400.00
00803             198.00     4000.00
00804              70.00     4000.00
00805            -174.00     4200.00
00806             138.00     4200.00
00807            -114.00     4400.00
00808              88.00     4400.00
00809              34.00     4800.00
00810            -210.00     5200.00
00811              16.00     5400.00
00812               6.00     5600.00
00813              54.00     5800.00
00814             -32.00     5600.00
00815             -42.00     6000.00
00816             -32.00     6000.00
00817             -50.00     6400.00
00818              70.00     6600.00
00819            -100.00     6600.00
00820             -22.00     6800.00
00821               0.00     6800.00
00822             -44.00     7200.00
00823              -2.00     7400.00
00824             -70.00     7600.00
00825             -26.00     7800.00
00826              -4.00     7600.00
00827             -12.00     8200.00
00828             -66.00     8000.00
00829             -40.00     8400.00
00830             -32.00     8400.00
00831             -38.00     8400.00
00832             -30.00     8800.00
00833             -54.00     8800.00
00834             -44.00     9000.00
00835             -38.00     9200.00
00836             -30.00     9400.00
00837             -54.00     9600.00
00838             -38.00     9600.00
00839             -64.00     9800.00
00840             -50.00     9800.00
00841             -42.00    10000.00
00842             -50.00    10000.00
00843             -40.00    10200.00
00844             -62.00    10400.00
00845             -72.00    10400.00
00846             -64.00    10400.00
00847             -44.00    10600.00
00848             -50.00    10800.00
00849             -56.00    10800.00
00850             -74.00    11000.00
00851             -82.00    11200.00
00852             -66.00    11200.00
00853             -64.00    11200.00
00854             -70.00    11200.00
00855             -68.00    11400.00
00856             -74.00    11800.00
00857             -80.00    11400.00
00858             -78.00    11800.00
00859             -90.00    11800.00
00860             -88.00    11800.00
00861             -78.00    12000.00
00862             -80.00    12000.00
00863             -90.00    12000.00
00864             -98.00    12000.00
00865             -98.00    12000.00
00866             -94.00    12000.00
00867             -94.00    12200.00
00868             -98.00    12200.00
00869            -102.00    12200.00
00870            -104.00    12200.00
00871            -112.00    12400.00
00872            -114.00    12400.00
00873            -118.00    12200.00
00874            -114.00    12400.00
00875            -112.00    12400.00
00876            -114.00    12200.00
00877            -128.00    12400.00
00878            -130.00    12400.00
00879            -138.00    12400.00
00880            -136.00    12400.00
00881            -130.00    12400.00
00882            -130.00    12400.00
00883            -138.00    12400.00
00884            -150.00    12400.00
00885            -152.00    12400.00
00886            -152.00    12400.00
00887            -152.00    12200.00
00888            -152.00    12200.00
00889            -144.00    12200.00
00890            -146.00    12200.00
00891            -154.00    12200.00
00892            -160.00    12200.00
00893            -162.00    12000.00
00894            -150.00    12200.00
00895            -130.00    12000.00
00896            -138.00    12000.00
00897            -160.00    11800.00
00898            -154.00    12000.00
00899            -132.00    11800.00
00900            -118.00    11600.00
00901            -130.00    11800.00
00902            -140.00    11600.00
00903            -126.00    11600.00
00904            -112.00    11400.00
00905            -118.00    11400.00
00906            -114.00    11200.00
00907            -110.00    11200.00
00908            -106.00    11000.00
00909            -106.00    11000.00
00910             -98.00    10800.00
00911             -94.00    10800.00
00912             -96.00    10600.00
00913             -98.00    10600.00
00914             -88.00    10400.00
00915             -80.00    10400.00
00916             -86.00    10200.00
00917             -82.00    10200.00
00918             -72.00    10000.00
00919             -72.00    10000.00
00920             -78.00     9800.00
00921             -70.00     9800.00
00922             -58.00     9600.00
00923             -56.00     9600.00
00924             -64.00     9200.00
00925             -70.00     9200.00
00926             -64.00     9000.00
00927             -52.00     9000.00
00928             -50.00     8800.00
00929             -46.00     8600.00
00930             -48.00     8400.00
00931             -56.00     8200.00
00932             -54.00     8000.00
00933             -46.00     8000.00
00934             -36.00     8000.00
00935             -34.00     7600.00
00936             -42.00     7600.00
00937             -42.00     7400.00
00938             -42.00     7200.00
00939             -36.00     7200.00
00940             -36.00     6800.00
00941             -32.00     6800.00
00942             -34.00     6600.00
00943             -34.00     6400.00
00944             -30.00     6400.00
00945             -26.00     6000.00
00946             -32.00     6000.00
00947             -30.00     5800.00
00948             -30.00     5600.00
00949             -24.00     5400.00
00950             -26.00     5200.00
00951             -26.00     5000.00
00952             -26.00     4800.00
00953             -24.00     4400.00
00954             -20.00     4600.00
00955             -18.00     4400.00
00956             -16.00     4000.00
00957             -22.00     3800.00
00958             -26.00     3600.00
00959             -24.00     3400.00
00960             -18.00     3200.00
00961             -16.00     3200.00
00962             -12.00     2800.00
00963             -14.00     2600.00
00964             -16.00     2600.00
00965             -16.00     2400.00
00966             -16.00     2000.00
00967             -14.00     2000.00
00968             -10.00     1800.00
00969              -8.00     1600.00
00970             -10.00     1400.00
00971             -10.00     1200.00
00972             -12.00     1000.00
00973             -10.00      800.00
00974              -6.00      400.00
00975              -2.00      400.00
00976              -4.00      200.00
00977              -2.00        0.00
00978               8.00        0.00
00979              30.00     -400.00
00980              12.00     -600.00
00981             -10.00     -800.00
00982             -10.00     -800.00
00983               8.00    -1000.00
00984              14.00    -1400.00
00985              46.00    -1400.00
00986             190.00    -1600.00
00987             232.00    -2000.00
00988            -198.00    -2400.00
00989            -254.00    -2400.00
00990            -114.00    -2800.00
00991              94.00    -2800.00
00992             118.00    -2400.00
00993             246.00    -3200.00
00994            -116.00    -3200.00
00995            -228.00    -3200.00
00996             198.00    -4000.00
00997               8.00    -3600.00
00998               8.00    -3800.00
00999               2.00    -4400.00
01000               2.00    -4000.00
01001             128.00    -4800.00
01002             -80.00    -4600.00
01003             -30.00    -4800.00
01004               0.00    -5000.00
01005              32.00    -5200.00
01006             128.00    -5600.00
01007             -48.00    -5400.00
01008              -8.00    -6000.00
01009              12.00    -6000.00
01010              40.00    -6000.00
01011              60.00    -6600.00
01012             -16.00    -6200.00
01013              28.00    -6800.00
01014              14.00    -6800.00
01015              48.00    -7000.00
01016               8.00    -7200.00
01017               2.00    -7200.00
01018              62.00    -7600.00
01019              22.00    -7600.00
01020              42.00    -7800.00
01021              22.00    -7800.00
01022              14.00    -8000.00
01023              54.00    -8400.00
01024              34.00    -8400.00
01025              14.00    -8600.00
01026              34.00    -8600.00
01027              48.00    -8800.00
01028              38.00    -9000.00
01029              44.00    -9200.00
01030              38.00    -9200.00
01031              32.00    -9400.00
01032              50.00    -9400.00
01033              46.00    -9600.00
01034              40.00    -9800.00
01035              56.00    -9800.00
01036              42.00   -10000.00
01037              46.00   -10000.00
01038              50.00   -10000.00
01039              46.00   -10200.00
01040              66.00   -10400.00
01041              70.00   -10400.00
01042              50.00   -10600.00
01043              52.00   -10800.00
01044              60.00   -10800.00
01045              60.00   -10800.00
01046              72.00   -11000.00
01047              76.00   -11000.00
01048              66.00   -11200.00
01049              72.00   -11000.00
01050              72.00   -11200.00
01051              68.00   -11200.00
01052              80.00   -11400.00
01053              86.00   -11200.00
01054              86.00   -11400.00
01055              88.00   -11600.00
01056              82.00   -11600.00
01057              86.00   -11600.00
01058              92.00   -11600.00
01059              96.00   -11800.00
01060             100.00   -11600.00
01061             104.00   -11800.00
01062             104.00   -11800.00
01063             102.00   -11800.00
01064             104.00   -12000.00
01065             104.00   -12000.00
01066             114.00   -12000.00
01067             124.00   -12000.00
01068             120.00   -11800.00
01069             122.00   -11800.00
01070             120.00   -12000.00
01071             120.00   -12000.00
01072             130.00   -12000.00
01073             136.00   -12000.00
01074             142.00   -12000.00
01075             142.00   -12000.00
01076             138.00   -12000.00
01077             136.00   -12000.00
01078             142.00   -12000.00
01079             150.00   -11800.00
01080             154.00   -11800.00
01081             152.00   -11800.00
01082             150.00   -11800.00
01083             144.00   -11800.00
01084             144.00   -11600.00
01085             142.00   -11600.00
01086             144.00   -11800.00
01087             144.00   -11600.00
01088             140.00   -11600.00
01089             134.00   -11600.00
01090             128.00   -11400.00
01091             126.00   -11400.00
01092             122.00   -11200.00
01093             128.00   -11200.00
01094             122.00   -11200.00
01095             118.00   -11200.00
01096             106.00   -11000.00
01097             102.00   -11000.00
01098             102.00   -11000.00
01099             102.00   -10800.00
01100              98.00   -10800.00
01101              98.00   -10600.00
01102              90.00   -10400.00
01103              86.00   -10400.00
01104              80.00   -10400.00
01105              78.00   -10200.00
01106              78.00   -10000.00
01107              78.00   -10000.00
01108              76.00   -10000.00
01109              70.00    -9600.00
01110              62.00    -9600.00
01111              58.00    -9400.00
01112              62.00    -9400.00
01113              64.00    -9400.00
01114              64.00    -9200.00
01115              58.00    -9000.00
01116              52.00    -8800.00
01117              48.00    -8800.00
01118              48.00    -8600.00
01119              48.00    -8600.00
01120              48.00    -8400.00
01121              48.00    -8400.00
01122              42.00    -8000.00
01123              34.00    -8000.00
01124              34.00    -7800.00
01125              38.00    -7600.00
01126              38.00    -7600.00
01127              38.00    -7200.00
01128              38.00    -7200.00
01129              32.00    -7000.00
01130              30.00    -7000.00
01131              26.00    -6800.00
01132              30.00    -6400.00
01133              28.00    -6400.00
01134              28.00    -6200.00
01135              26.00    -6000.00
01136              22.00    -6000.00
01137              22.00    -5600.00
01138              18.00    -5400.00
01139              22.00    -5200.00
01140              22.00    -5200.00
01141              22.00    -4800.00
01142              18.00    -4800.00
01143              16.00    -4600.00
01144              10.00    -4400.00
01145              14.00    -4400.00
01146              16.00    -4000.00
01147              16.00    -3800.00
01148              14.00    -3600.00
01149              14.00    -3400.00
01150              10.00    -3200.00
01151               8.00    -3000.00
01152               6.00    -2800.00
01153              10.00    -2800.00
01154              10.00    -2400.00
01155               6.00    -2400.00
01156               4.00    -2200.00
01157               0.00    -2000.00
01158               0.00    -1600.00
01159               2.00    -1600.00
01160               2.00    -1400.00
01161               6.00    -1000.00
01162               2.00     -800.00
01163               0.00     -800.00
01164              -6.00     -600.00
01165              -2.00     -400.00
01166              -2.00     -200.00
01167               2.00        0.00
01168               2.00      200.00
01169               0.00      400.00
01170              10.00      600.00
01171              26.00      800.00
01172               8.00      800.00
01173             -14.00     1000.00
01174             -10.00     1200.00
01175               6.00     1600.00
01176              22.00     1600.00
01177             166.00     2000.00
01178             246.00     2400.00
01179            -152.00     2400.00
01180            -254.00     2400.00
01181            -240.00     2800.00
01182              14.00     2800.00
01183             246.00     3200.00
01184             246.00     3400.00
01185            -254.00     3200.00
01186            -162.00     3600.00
01187             246.00     4000.00
01188            -200.00     4000.00
01189              50.00     4400.00
01190              22.00     4200.00
01191             -80.00     4400.00
01192             162.00     4800.00
01193            -166.00     5000.00
01194             -90.00     5400.00
01195              34.00     5400.00
01196              16.00     5600.00
01197              30.00     5800.00
01198             -78.00     5800.00
01199              -6.00     6200.00
01200             -74.00     6000.00
01201              40.00     6600.00
01202             -10.00     6400.00
01203             -98.00     6800.00
01204              32.00     7000.00
01205             -50.00     6800.00
01206              -6.00     7200.00
01207             -42.00     7400.00
01208             -56.00     7600.00
01209              -6.00     7800.00
01210               0.00     8000.00
01211             -42.00     8000.00
01212             -64.00     8200.00
01213             -20.00     8400.00
01214             -40.00     8400.00
01215             -24.00     8800.00
01216             -48.00     8800.00
01217             -48.00     8800.00
01218             -46.00     9000.00
01219             -26.00     9200.00
01220             -42.00     9400.00
01221             -42.00     9400.00
01222             -42.00     9600.00
01223             -72.00     9800.00
01224             -40.00     9800.00
01225             -50.00    10000.00
01226             -42.00    10000.00
01227             -48.00    10000.00
01228             -66.00    10400.00
01229             -74.00    10400.00
01230             -54.00    10400.00
01231             -44.00    10800.00
01232             -54.00    10800.00
01233             -62.00    10800.00
01234             -80.00    10800.00
01235             -78.00    11200.00
01236             -66.00    11000.00
01237             -60.00    11200.00
01238             -62.00    11200.00
01239             -70.00    11400.00
01240             -86.00    11400.00
01241             -84.00    11800.00
01242             -80.00    11600.00
01243             -82.00    11800.00
01244             -80.00    12000.00
01245             -86.00    11800.00
01246             -90.00    12000.00
01247             -90.00    12000.00
01248             -96.00    12200.00
01249            -102.00    12000.00
01250            -102.00    12000.00
01251             -96.00    12000.00
01252             -96.00    12200.00
01253             -98.00    12200.00
01254            -114.00    12200.00
01255            -122.00    12400.00
01256            -120.00    12400.00
01257            -114.00    12400.00
01258            -110.00    12400.00
01259            -112.00    12400.00
01260            -122.00    12400.00
01261            -134.00    12400.00
01262            -138.00    12400.00
01263            -136.00    12400.00
01264            -132.00    12400.00
01265            -130.00    12400.00
01266            -136.00    12400.00
01267            -144.00    12400.00
01268            -152.00    12400.00
01269            -154.00    12400.00
01270            -152.00    12200.00
01271            -146.00    12200.00
01272            -146.00    12200.00
01273            -150.00    12400.00
01274            -154.00    12200.00
01275            -160.00    12200.00
01276            -154.00    12200.00
01277            -146.00    12000.00
01278            -144.00    12000.00
01279            -142.00    12000.00
01280            -144.00    12000.00
01281            -144.00    12000.00
01282            -142.00    11800.00
01283            -138.00    11800.00
01284            -130.00    11800.00
01285            -128.00    11600.00
01286            -124.00    11600.00
01287            -122.00    11400.00
01288            -120.00    11400.00
01289            -118.00    11400.00
01290            -112.00    11200.00
01291            -108.00    11200.00
01292            -102.00    11200.00
01293             -98.00    10800.00
01294             -98.00    10800.00
01295            -100.00    10600.00
01296             -98.00    10600.00
01297             -90.00    10400.00
01298             -86.00    10400.00
01299             -78.00    10400.00
01300             -80.00    10400.00
01301             -80.00    10000.00
01302             -80.00     9800.00
01303             -74.00     9800.00
01304             -66.00     9800.00
01305             -64.00     9600.00
01306             -64.00     9400.00
01307             -64.00     9200.00
01308             -64.00     9200.00
01309             -62.00     9200.00
01310             -58.00     9000.00
01311             -50.00     8800.00
01312             -48.00     8800.00
01313             -48.00     8400.00
01314             -54.00     8400.00
01315             -52.00     8200.00
01316             -48.00     8000.00
01317             -42.00     8000.00
01318             -38.00     7600.00
01319             -40.00     7600.00
01320             -42.00     7400.00
01321             -40.00     7400.00
01322             -40.00     7200.00
01323             -34.00     7000.00
01324             -32.00     6600.00
01325             -32.00     6600.00
01326             -34.00     6400.00
01327             -32.00     6200.00
01328             -32.00     6000.00
01329             -30.00     6000.00
01330             -26.00     5800.00
01331             -26.00     5600.00
01332             -24.00     5600.00
01333             -24.00     5200.00
01334             -26.00     5200.00
01335             -26.00     4800.00
01336             -26.00     4600.00
01337             -24.00     4400.00
01338             -18.00     4200.00
01339             -16.00     4200.00
01340             -18.00     4000.00
01341             -20.00     3800.00
01342             -24.00     3600.00
01343             -20.00     3400.00
01344             -14.00     3200.00
01345             -12.00     3200.00
01346             -12.00     2800.00
01347             -16.00     2600.00
01348             -20.00     2600.00
01349             -16.00     2200.00
01350             -14.00     2000.00
01351             -10.00     1800.00
01352              -8.00     1600.00
01353             -10.00     1600.00
01354             -14.00     1200.00
01355             -12.00     1000.00
01356             -10.00      800.00
01357              -8.00      800.00
01358              -6.00      400.00
01359              -2.00      200.00
01360               0.00        0.00
01361               0.00        0.00
01362              18.00     -400.00
01363              24.00     -600.00
01364              -2.00     -600.00
01365             -16.00     -800.00
01366              -2.00     -800.00
01367              10.00    -1200.00
01368              22.00    -1200.00
01369             104.00    -1400.00
01370             246.00    -2000.00
01371              32.00    -2400.00
01372            -254.00    -2400.00
01373            -254.00    -2600.00
01374              48.00    -2800.00
01375              78.00    -2600.00
01376             246.00    -2800.00
01377             174.00    -3600.00
01378            -254.00    -3000.00
01379              38.00    -3600.00
01380             152.00    -3800.00
01381             -50.00    -3600.00
01382              46.00    -4400.00
01383             -42.00    -4000.00
01384             102.00    -4600.00
01385              26.00    -4800.00
01386             -94.00    -4800.00
01387              16.00    -5200.00
01388             -22.00    -5000.00
01389             118.00    -5400.00
01390              40.00    -5400.00
01391             -56.00    -5600.00
01392              22.00    -6200.00
01393               8.00    -5800.00
01394              74.00    -6400.00
01395              10.00    -6400.00
01396               6.00    -6400.00
01397              24.00    -7000.00
01398              26.00    -6800.00
01399              40.00    -7400.00
01400             -18.00    -7200.00
01401              50.00    -7400.00
01402              40.00    -7400.00
01403              26.00    -7800.00
01404              42.00    -8000.00
01405               2.00    -7800.00
01406              38.00    -8400.00
01407              50.00    -8200.00
01408              22.00    -8600.00
01409              24.00    -8800.00
01410              48.00    -8800.00
01411              42.00    -9000.00
01412              40.00    -9000.00
01413              44.00    -9200.00
01414              28.00    -9400.00
01415              42.00    -9400.00
01416              54.00    -9600.00
01417              34.00    -9600.00
01418              50.00    -9600.00
01419              52.00   -10000.00
01420              38.00   -10000.00
01421              50.00   -10000.00
01422              48.00   -10200.00
01423              56.00   -10400.00
01424              72.00   -10400.00
01425              62.00   -10600.00
01426              48.00   -10800.00
01427              56.00   -10800.00
01428              58.00   -10800.00
01429              64.00   -11000.00
01430              78.00   -11000.00
01431              70.00   -11000.00
01432              70.00   -11200.00
01433              74.00   -11200.00
01434              66.00   -11200.00
01435              74.00   -11200.00
01436              84.00   -11200.00
01437              80.00   -11600.00
01438              90.00   -11400.00
01439              86.00   -11600.00
01440              80.00   -11600.00
01441              88.00   -11600.00
01442              94.00   -11800.00
01443              96.00   -11800.00
01444             104.00   -11800.00
01445             104.00   -11800.00
01446             102.00   -11800.00
01447             102.00   -12000.00
01448             102.00   -11800.00
01449             106.00   -12000.00
01450             122.00   -12000.00
01451             120.00   -12000.00
01452             120.00   -12000.00
01453             122.00   -12000.00
01454             118.00   -12000.00
01455             128.00   -12000.00
01456             136.00   -12000.00
01457             136.00   -12000.00
01458             140.00   -12000.00
01459             142.00   -12000.00
01460             134.00   -12000.00
01461             140.00   -11800.00
01462             144.00   -12000.00
01463             150.00   -11800.00
01464             152.00   -11800.00
01465             152.00   -11800.00
01466             144.00   -11800.00
01467             142.00   -11600.00
01468             144.00   -11800.00
01469             144.00   -11800.00
01470             146.00   -11600.00
01471             142.00   -11600.00
01472             138.00   -11600.00
01473             132.00   -11400.00
01474             128.00   -11600.00
01475             126.00   -11400.00
01476             128.00   -11200.00
01477             122.00   -11000.00
01478             118.00   -11200.00
01479             114.00   -11200.00
01480             104.00   -11000.00
01481             100.00   -11000.00
01482             102.00   -10800.00
01483             102.00   -10800.00
01484             100.00   -10800.00
01485              94.00   -10600.00
01486              88.00   -10600.00
01487              82.00   -10400.00
01488              82.00   -10200.00
01489              78.00   -10200.00
01490              80.00   -10000.00
01491              78.00   -10000.00
01492              72.00    -9800.00
01493              66.00    -9800.00
01494              62.00    -9600.00
01495              56.00    -9600.00
01496              64.00    -9400.00
01497              64.00    -9200.00
01498              58.00    -9200.00
01499              54.00    -9000.00
01500              46.00    -8800.00
01501              48.00    -8800.00
01502              48.00    -8400.00
01503              48.00    -8400.00
01504              46.00    -8400.00
01505              48.00    -8000.00
01506              38.00    -8000.00
01507              38.00    -7800.00
01508              36.00    -7600.00
01509              34.00    -7400.00
01510              36.00    -7400.00
01511              38.00    -7200.00
01512              32.00    -7200.00
01513              30.00    -7000.00
01514              30.00    -6800.00
01515              28.00    -6600.00
01516              26.00    -6400.00
01517              28.00    -6200.00
01518              26.00    -6200.00
01519              24.00    -6000.00
01520              22.00    -5800.00
01521              22.00    -5600.00
01522              20.00    -5400.00
01523              22.00    -5200.00
01524              22.00    -4800.00
01525              22.00    -4800.00
01526              16.00    -4600.00
01527              12.00    -4600.00
01528              14.00    -4200.00
01529              14.00    -4000.00
01530              10.00    -3800.00
01531              16.00    -3800.00
01532              16.00    -3600.00
01533               8.00    -3200.00
01534               2.00    -3200.00
01535              12.00    -3000.00
01536              14.00    -2800.00
01537               8.00    -2600.00
01538               6.00    -2400.00
01539               6.00    -2200.00
01540               2.00    -2200.00
01541               6.00    -2000.00
01542              12.00    -1600.00
01543              10.00    -1400.00
01544               0.00    -1000.00
01545              -8.00    -1000.00
01546              -6.00     -800.00
01547               2.00     -600.00
01548               6.00     -400.00
01549               6.00     -400.00
01550              -2.00        0.00
01551              -6.00      200.00
01552              -6.00      400.00
01553               6.00      400.00
01554              34.00      800.00
01555              22.00      800.00
01556             -10.00     1000.00
01557             -30.00     1200.00
01558              -8.00     1400.00
01559              26.00     1600.00
01560              88.00     1800.00
01561             246.00     2000.00
01562             106.00     2400.00
01563            -254.00     2400.00
01564            -254.00     2600.00
01565             -50.00     2800.00
01566             150.00     3000.00
01567             246.00     3400.00
01568             -22.00     3400.00
01569            -254.00     3400.00
01570             230.00     3800.00
01571              34.00     4000.00
01572            -154.00     4200.00
01573             134.00     4400.00
01574            -128.00     4400.00
01575             104.00     4800.00
01576              10.00     5000.00
01577            -200.00     5400.00
01578              26.00     5200.00
01579               2.00     5600.00
01580              48.00     5800.00
01581             -42.00     5600.00
01582             -40.00     6000.00
01583             -38.00     6000.00
01584             -40.00     6400.00
01585              70.00     6600.00
01586            -102.00     6600.00
01587             -14.00     6800.00
01588              -8.00     7000.00
01589             -38.00     7200.00
01590              -2.00     7400.00
01591             -72.00     7600.00
01592             -30.00     7600.00
01593              -6.00     8000.00
01594              -8.00     8000.00
01595             -62.00     8000.00
01596             -32.00     8400.00
01597             -38.00     8600.00
01598             -38.00     8600.00
01599             -32.00     8800.00
01600             -54.00     8800.00
01601             -42.00     9000.00
01602             -34.00     9200.00
01603             -26.00     9200.00
01604             -54.00     9600.00
01605             -34.00     9600.00
01606             -66.00     9800.00
01607             -50.00     9800.00
01608             -42.00     9800.00
01609             -48.00    10000.00
01610             -42.00    10000.00
01611             -62.00    10200.00
01612             -72.00    10400.00
01613             -66.00    10400.00
01614             -42.00    10400.00
01615             -50.00    10600.00
01616             -56.00    10800.00
01617             -72.00    11200.00
01618             -80.00    10800.00
01619             -72.00    11200.00
01620             -64.00    11200.00
01621             -66.00    11200.00
01622             -70.00    11400.00
01623             -76.00    11400.00
01624             -84.00    11800.00
01625             -78.00    11600.00
01626             -86.00    11800.00
01627             -88.00    11800.00
01628             -80.00    11800.00
01629             -86.00    11800.00
01630             -90.00    12000.00
01631             -96.00    12000.00
01632             -98.00    12000.00
01633            -104.00    12000.00
01634             -96.00    12000.00
01635             -96.00    12200.00
01636             -98.00    12200.00
01637            -106.00    12200.00
01638            -120.00    12000.00
01639            -118.00    12400.00
01640            -114.00    12400.00
01641            -114.00    12200.00
01642            -114.00    12400.00
01643            -120.00    12400.00
01644            -130.00    12200.00
01645            -136.00    12400.00
01646            -134.00    12400.00
01647            -132.00    12400.00
01648            -130.00    12400.00
01649            -136.00    12400.00
01650            -144.00    12400.00
01651            -150.00    12400.00
01652            -152.00    12200.00
01653            -150.00    12400.00
01654            -150.00    12200.00
01655            -146.00    12200.00
01656            -148.00    12200.00
01657            -154.00    12200.00
01658            -160.00    12200.00
01659            -160.00    12200.00
01660            -152.00    12000.00
01661            -144.00    12000.00
01662            -144.00    12000.00
01663            -138.00    12000.00
01664            -144.00    12000.00
01665            -144.00    11800.00
01666            -138.00    11600.00
01667            -130.00    11800.00
01668            -128.00    11800.00
01669            -122.00    11600.00
01670            -122.00    11600.00
01671            -122.00    11400.00
01672            -118.00    11400.00
01673            -114.00    11200.00
01674            -104.00    11200.00
01675            -102.00    11200.00
01676            -100.00    10800.00
01677            -102.00    10800.00
01678            -104.00    10800.00
01679             -98.00    10800.00
01680             -94.00    10400.00
01681             -86.00    10400.00
01682             -80.00    10400.00
01683             -76.00    10200.00
01684             -78.00    10200.00
01685             -86.00    10000.00
01686             -80.00    10000.00
01687             -72.00     9800.00
01688             -64.00     9600.00
01689             -64.00     9600.00
01690             -66.00     9400.00
01691             -70.00     9200.00
01692             -64.00     9200.00
01693             -56.00     9000.00
01694             -54.00     8800.00
01695             -50.00     8600.00
01696             -56.00     8600.00
01697             -58.00     8400.00
01698             -48.00     8200.00
01699             -42.00     8000.00
01700             -48.00     8000.00
01701             -42.00     7800.00
01702             -42.00     7600.00
01703             -40.00     7600.00
01704             -34.00     7400.00
01705             -42.00     7200.00
01706             -42.00     7000.00
01707             -38.00     7000.00
01708             -32.00     6800.00
01709             -30.00     6400.00
01710             -32.00     6400.00
01711             -38.00     6400.00
01712             -32.00     6000.00
01713             -30.00     6000.00
01714             -26.00     5800.00
01715             -24.00     5600.00
01716             -24.00     5400.00
01717             -26.00     5200.00
01718             -26.00     5000.00
01719             -28.00     4800.00
01720             -22.00     4400.00
01721             -16.00     4400.00
01722             -16.00     4000.00
01723             -20.00     4000.00
01724             -22.00     3800.00
01725             -22.00     3600.00
01726             -24.00     3400.00
01727             -16.00     3200.00
01728             -10.00     3000.00
01729             -10.00     2800.00
01730             -14.00     2600.00
01731             -20.00     2600.00
01732             -16.00     2400.00
01733             -10.00     2000.00
01734              -6.00     2000.00
01735              -2.00     1800.00
01736              -8.00     1600.00
01737             -16.00     1600.00
01738             -14.00     1000.00
01739             -10.00      800.00
01740              -8.00      800.00
01741              -2.00      600.00
01742              -2.00      400.00
01743              -2.00      200.00
01744              -4.00        0.00
01745               8.00     -200.00
01746              28.00     -400.00
01747              12.00     -600.00
01748             -10.00     -800.00
01749              -8.00    -1000.00
01750               8.00    -1200.00
01751              14.00    -1200.00
01752              48.00    -1400.00
01753             202.00    -1600.00
01754             220.00    -2200.00
01755            -224.00    -2400.00
01756            -254.00    -2600.00
01757             -96.00    -2800.00
01758              94.00    -2800.00
01759             128.00    -2800.00
01760             246.00    -3000.00
01761            -150.00    -3400.00
01762            -202.00    -3200.00
01763             206.00    -4000.00
01764             -10.00    -3600.00
01765              16.00    -4000.00
01766              -6.00    -4400.00
01767              10.00    -4000.00
01768             120.00    -4800.00
01769             -88.00    -4600.00
01770             -24.00    -5000.00
01771              -6.00    -5200.00
01772              40.00    -5200.00
01773             122.00    -5600.00
01774             -54.00    -5400.00
01775              -2.00    -6000.00
01776               8.00    -6000.00
01777              46.00    -6200.00
01778              56.00    -6400.00
01779             -16.00    -6200.00
01780              30.00    -6800.00
01781              16.00    -6800.00
01782              48.00    -7000.00
01783               0.00    -7200.00
01784               8.00    -7200.00
01785              62.00    -7600.00
01786              22.00    -7600.00
01787              40.00    -7800.00
01788              14.00    -7800.00
01789              16.00    -8200.00
01790              54.00    -8400.00
01791              32.00    -8400.00
01792              18.00    -8600.00
01793              38.00    -8600.00
01794              48.00    -8800.00
01795              38.00    -8800.00
01796              42.00    -9200.00
01797              40.00    -9200.00
01798              38.00    -9400.00
01799              48.00    -9600.00
01800              40.00    -9600.00
01801              46.00    -9600.00
01802              56.00    -9800.00
01803              38.00   -10000.00
01804              54.00   -10000.00
01805              52.00   -10000.00
01806              48.00   -10200.00
01807              64.00   -10200.00
01808              58.00   -10400.00
01809              50.00   -10600.00
01810              56.00   -10600.00
01811              64.00   -10800.00
01812              64.00   -10800.00
01813              60.00   -11000.00
01814              62.00   -11000.00
01815              78.00   -11200.00
01816              90.00   -11200.00
01817              66.00   -11200.00
01818              56.00   -11200.00
01819              74.00   -11400.00
01820              82.00   -11200.00
01821              94.00   -11600.00
01822              94.00   -11600.00
01823              80.00   -11600.00
01824              80.00   -11600.00
01825              86.00   -11800.00
01826              94.00   -11800.00
01827             106.00   -11800.00
01828             104.00   -11600.00
01829              96.00   -11800.00
01830             102.00   -11800.00
01831             100.00   -11800.00
01832             102.00   -12000.00
01833             118.00   -11800.00
01834             122.00   -12000.00
01835             120.00   -12000.00
01836             118.00   -12000.00
01837             112.00   -12000.00
01838             122.00   -12000.00
01839             134.00   -12000.00
01840             134.00   -12000.00
01841             136.00   -12000.00
01842             142.00   -12000.00
01843             138.00   -12000.00
01844             138.00   -12000.00
01845             138.00   -12000.00
01846             140.00   -11800.00
01847             152.00   -12000.00
01848             160.00   -11800.00
01849             152.00   -11800.00
01850             138.00   -11800.00
01851             134.00   -11600.00
01852             140.00   -11600.00
01853             150.00   -11600.00
01854             150.00   -11600.00
01855             142.00   -11400.00
01856             130.00   -11600.00
01857             122.00   -11600.00
01858             122.00   -11400.00
01859             126.00   -11200.00
01860             128.00   -11200.00
01861             126.00   -11200.00
01862             118.00   -11000.00
01863             110.00   -11200.00
01864             102.00   -11000.00
01865             100.00   -10800.00
01866             102.00   -10800.00
01867             104.00   -10800.00
01868             100.00   -10600.00
01869              92.00   -10400.00
01870              80.00   -10400.00
01871              78.00   -10400.00
01872              80.00   -10200.00
01873              80.00   -10000.00
01874              80.00   -10000.00
01875              74.00   -10000.00
01876              64.00    -9800.00
01877              62.00    -9600.00
01878              60.00    -9600.00
01879              64.00    -9400.00
01880              62.00    -9200.00
01881              58.00    -9200.00
01882              54.00    -9000.00
01883              50.00    -8800.00
01884              48.00    -8800.00
01885              48.00    -8800.00
01886              48.00    -8400.00
01887              46.00    -8400.00
01888              44.00    -8400.00
01889              40.00    -8000.00
01890              38.00    -8000.00
01891              38.00    -7600.00
01892              34.00    -7600.00
01893              34.00    -7400.00
01894              34.00    -7200.00
01895              32.00    -7200.00
01896              32.00    -7000.00
01897              30.00    -6800.00
01898              26.00    -6600.00
01899              24.00    -6400.00
01900              28.00    -6200.00
01901              26.00    -6200.00
01902              26.00    -6000.00
01903              22.00    -5800.00
01904              22.00    -5800.00
01905              18.00    -5400.00
01906              16.00    -5400.00
01907              22.00    -5200.00
01908              22.00    -4800.00
01909              18.00    -4800.00
01910              16.00    -4600.00
01911              16.00    -4400.00
01912              16.00    -4000.00
01913              16.00    -4000.00
01914              16.00    -3800.00
01915              14.00    -3600.00
01916              14.00    -3400.00
01917              10.00    -3200.00
01918               8.00    -3000.00
01919               8.00    -2800.00
01920              10.00    -2800.00
01921              14.00    -2400.00
01922              14.00    -2400.00
01923               2.00    -2200.00
01924               0.00    -2000.00
01925               2.00    -1600.00
01926               6.00    -1600.00
01927               8.00    -1200.00
01928               6.00    -1000.00
01929               2.00     -800.00
01930               0.00     -800.00
01931               0.00     -600.00
01932               0.00     -200.00
01933               0.00        0.00
01934               0.00        0.00
01935               4.00      200.00
01936               2.00      400.00
01937              16.00      600.00
01938              26.00      800.00
01939               2.00      800.00
01940             -14.00     1200.00
01941              -8.00     1200.00
01942               8.00     1600.00
01943              24.00     1800.00
01944             178.00     2000.00
01945             246.00     2400.00
01946            -184.00     2400.00
01947            -254.00     2600.00
01948            -216.00     2800.00
01949              22.00     2800.00
01950             246.00     3200.00
01951             246.00     3600.00
01952            -254.00     3200.00
01953            -114.00     3800.00
01954             246.00     4000.00
01955            -210.00     3800.00
01956              70.00     4400.00
01957              -2.00     4400.00
01958             -64.00     4600.00
01959             158.00     4800.00
01960            -178.00     5000.00
01961             -74.00     5000.00
01962              30.00     5400.00
01963              16.00     5600.00
01964              22.00     5600.00
01965             -74.00     6000.00
01966              -2.00     6000.00
01967             -78.00     6200.00
01968              54.00     6600.00
01969             -20.00     6400.00
01970             -90.00     6800.00
01971              26.00     7000.00
01972             -54.00     7200.00
01973              -6.00     7400.00
01974             -48.00     7400.00
01975             -50.00     7600.00
01976              -2.00     7600.00
01977              -6.00     8000.00
01978             -48.00     8000.00
01979             -58.00     8200.00
01980             -22.00     8400.00
01981             -42.00     8400.00
01982             -22.00     8800.00
01983             -50.00     9000.00
01984             -48.00     9000.00
01985             -42.00     9200.00
01986             -24.00     9200.00
01987             -46.00     9600.00
01988             -46.00     9600.00
01989             -48.00     9800.00
01990             -64.00     9800.00
01991             -38.00    10000.00
01992             -52.00    10000.00
01993             -42.00    10000.00
01994             -50.00    10200.00
01995             -64.00    10400.00
01996             -70.00    10400.00
01997             -48.00    10600.00
01998             -46.00    10800.00
01999             -62.00    10800.00
02000             -66.00    10800.00
02001             -78.00    10800.00
02002             -70.00    11200.00
02003             -62.00    11000.00
02004             -64.00    11200.00
02005             -76.00    11200.00
02006             -78.00    11400.00
02007             -80.00    11600.00
02008             -72.00    11800.00
02009             -78.00    11600.00
02010             -90.00    11800.00
02011             -90.00    11800.00
02012             -90.00    11800.00
02013             -90.00    12000.00
02014             -90.00    12000.00
02015             -90.00    12000.00
02016             -98.00    12000.00
02017            -104.00    12000.00
02018            -104.00    12200.00
02019             -98.00    12200.00
02020            -102.00    12200.00
02021            -110.00    12200.00
02022            -114.00    12200.00
02023            -114.00    12200.00
02024            -114.00    12200.00
02025            -118.00    12200.00
02026            -118.00    12400.00
02027            -128.00    12400.00
02028            -130.00    12400.00
02029            -134.00    12400.00
02030            -134.00    12200.00
02031            -134.00    12200.00
02032            -136.00    12200.00
02033            -142.00    12400.00
02034            -146.00    12400.00
02035            -154.00    12400.00
02036            -152.00    12200.00
02037            -150.00    12200.00
02038            -146.00    12200.00
02039            -150.00    12200.00
02040            -154.00    12200.00
02041            -160.00    12200.00
02042            -154.00    12000.00
02043            -154.00    12200.00
02044            -144.00    12000.00
02045            -146.00    12000.00
02046            -146.00    12000.00
02047            -144.00    12000.00
02048            -146.00    12000.00
02049            -142.00    12000.00
02050            -134.00    11800.00
02051            -126.00    11800.00
02052            -122.00    11600.00
02053            -122.00    11600.00
02054            -126.00    11600.00
02055            -122.00    11400.00
02056            -118.00    11200.00
02057            -106.00    11200.00
02058            -102.00    11200.00
02059            -102.00    11200.00
02060            -102.00    11000.00
02061             -98.00    10800.00
02062             -98.00    10800.00
02063             -90.00    10600.00
02064             -86.00    10600.00
02065             -80.00    10400.00
02066             -80.00    10200.00
02067             -82.00    10000.00
02068             -80.00    10000.00
02069             -76.00    10000.00
02070             -74.00     9800.00
02071             -72.00     9800.00
02072             -66.00     9600.00
02073             -64.00     9600.00
02074             -62.00     9400.00
02075             -64.00     9200.00
02076             -62.00     9000.00
02077             -62.00     9000.00
02078             -54.00     8800.00
02079             -50.00     8800.00
02080             -48.00     8400.00
02081             -50.00     8200.00
02082             -50.00     8200.00
02083             -50.00     8000.00
02084             -46.00     8000.00
02085             -40.00     7800.00
02086             -38.00     7600.00
02087             -38.00     7400.00
02088             -42.00     7200.00
02089             -42.00     7200.00
02090             -40.00     6800.00
02091             -38.00     6800.00
02092             -32.00     6600.00
02093             -30.00     6400.00
02094             -32.00     6200.00
02095             -34.00     6200.00
02096             -32.00     6000.00
02097             -26.00     5800.00
02098             -24.00     5600.00
02099             -22.00     5400.00
02100             -26.00     5200.00
02101             -26.00     5000.00
02102             -30.00     4800.00
02103             -26.00     4600.00
02104             -22.00     4400.00
02105             -16.00     4400.00
02106             -16.00     4200.00
02107             -18.00     4000.00
02108             -22.00     3600.00
02109             -22.00     3600.00
02110             -16.00     3400.00
02111             -12.00     3200.00
02112             -10.00     3000.00
02113             -16.00     2800.00
02114             -16.00     2600.00
02115             -14.00     2400.00
02116             -14.00     2200.00
02117              -6.00     2000.00
02118             -10.00     1800.00
02119             -10.00     1600.00
02120              -8.00     1600.00
02121             -10.00     1200.00
02122             -16.00     1000.00
02123             -10.00     1000.00
02124              -6.00      600.00
02125               0.00      400.00
02126               0.00      400.00
02127              -8.00      200.00
02128               0.00        0.00
02129              30.00     -400.00
02130              24.00     -400.00
02131              -8.00     -600.00
02132             -14.00     -800.00
02133               2.00    -1000.00
02134              14.00    -1200.00
02135              24.00    -1200.00
02136             104.00    -1400.00
02137             246.00    -2000.00
02138              10.00    -2400.00
02139            -254.00    -2400.00
02140            -254.00    -2600.00
02141              52.00    -2800.00
02142              64.00    -2600.00
02143             246.00    -2800.00
02144             150.00    -3400.00
02145            -254.00    -3200.00
02146              62.00    -3600.00
02147             130.00    -4000.00
02148             -48.00    -3600.00
02149              46.00    -4400.00
02150             -42.00    -4000.00
02151             102.00    -4400.00
02152              16.00    -4800.00
02153             -88.00    -4800.00
02154              14.00    -5200.00
02155             -22.00    -5000.00
02156             122.00    -5600.00
02157              24.00    -5400.00
02158             -48.00    -5600.00
02159              22.00    -6000.00
02160               8.00    -6000.00
02161              76.00    -6400.00
02162               6.00    -6200.00
02163               8.00    -6600.00
02164              24.00    -7000.00
02165              24.00    -6800.00
02166              32.00    -7200.00
02167             -16.00    -7000.00
02168              54.00    -7400.00
02169              40.00    -7600.00
02170              30.00    -7800.00
02171              34.00    -8000.00
02172               0.00    -8000.00
02173              46.00    -8400.00
02174              52.00    -8400.00
02175              18.00    -8400.00
02176              24.00    -8800.00
02177              42.00    -8800.00
02178              42.00    -9000.00
02179              42.00    -8800.00
02180              42.00    -9200.00
02181              32.00    -9200.00
02182              44.00    -9400.00
02183              54.00    -9600.00
02184              38.00    -9600.00
02185              50.00    -9800.00
02186              48.00    -9800.00
02187              40.00   -10000.00
02188              54.00   -10000.00
02189              50.00   -10200.00
02190              58.00   -10200.00
02191              70.00   -10200.00
02192              56.00   -10400.00
02193              50.00   -10600.00
02194              58.00   -10800.00
02195              62.00   -10800.00
02196              66.00   -10800.00
02197              74.00   -11000.00
02198              66.00   -11200.00
02199              68.00   -11200.00
02200              74.00   -11200.00
02201              66.00   -11200.00
02202              72.00   -11200.00
02203              82.00   -11400.00
02204              80.00   -11600.00
02205              90.00   -11600.00
02206              82.00   -11600.00
02207              80.00   -11600.00
02208              86.00   -11600.00
02209              90.00   -11800.00
02210              96.00   -11800.00
02211             104.00   -11800.00
02212             104.00   -11800.00
02213             100.00   -12000.00
02214             102.00   -11800.00
02215             102.00   -11800.00
02216             110.00   -11800.00
02217             120.00   -12000.00
02218             118.00   -11800.00
02219             118.00   -12000.00
02220             120.00   -12000.00
02221             120.00   -12000.00
02222             122.00   -12000.00
02223             134.00   -12000.00
02224             142.00   -12000.00
02225             134.00   -12000.00
02226             140.00   -11800.00
02227             138.00   -12000.00
02228             136.00   -12000.00
02229             144.00   -11800.00
02230             150.00   -11800.00
02231             150.00   -11800.00
02232             158.00   -11800.00
02233             144.00   -11600.00
02234             136.00   -11800.00
02235             144.00   -11800.00
02236             146.00   -11600.00
02237             146.00   -11600.00
02238             144.00   -11600.00
02239             134.00   -11400.00
02240             134.00   -11400.00
02241             134.00   -11400.00
02242             118.00   -11200.00
02243             126.00   -11200.00
02244             126.00   -11200.00
02245             122.00   -11000.00
02246             114.00   -11000.00
02247             106.00   -11000.00
02248             102.00   -11000.00
02249             106.00   -10800.00
02250             102.00   -10800.00
02251              98.00   -10800.00
02252              96.00   -10600.00
02253              88.00   -10200.00
02254              82.00   -10400.00
02255              86.00   -10400.00
02256              82.00   -10000.00
02257              78.00   -10000.00
02258              76.00   -10000.00
02259              70.00   -10000.00
02260              70.00    -9600.00
02261              64.00    -9600.00
02262              58.00    -9600.00
02263              62.00    -9400.00
02264              62.00    -9200.00
02265              58.00    -9200.00
02266              54.00    -9000.00
02267              50.00    -8800.00
02268              48.00    -8800.00
02269              46.00    -8600.00
02270              50.00    -8400.00
02271              46.00    -8400.00
02272              42.00    -8400.00
02273              40.00    -8000.00
02274              34.00    -7800.00
02275              38.00    -7800.00
02276              38.00    -7400.00
02277              34.00    -7400.00
02278              38.00    -7200.00
02279              32.00    -7000.00
02280              30.00    -7000.00
02281              26.00    -6800.00
02282              24.00    -6400.00
02283              30.00    -6400.00
02284              26.00    -6200.00
02285              30.00    -6000.00
02286              24.00    -5800.00
02287              22.00    -5800.00
02288              16.00    -5600.00
02289              18.00    -5400.00
02290              22.00    -5200.00
02291              22.00    -5000.00
02292              20.00    -4800.00
02293              14.00    -4600.00
02294              12.00    -4400.00
02295              10.00    -4400.00
02296              16.00    -4000.00
02297              16.00    -3800.00
02298              14.00    -3600.00
02299              10.00    -3600.00
02300               8.00    -3200.00
02301               8.00    -3000.00
02302               8.00    -2800.00
02303               8.00    -2800.00
02304              10.00    -2600.00
02305              10.00    -2400.00
02306               6.00    -2200.00
02307               2.00    -2000.00
02308               4.00    -1800.00
02309               4.00    -1600.00
02310               6.00    -1400.00
02311               6.00    -1200.00
02312               6.00    -1000.00
02313               0.00     -800.00
02314              -2.00     -600.00
02315              -2.00     -400.00
02316               0.00     -200.00
02317               4.00        0.00
02318               2.00      200.00
02319               2.00      400.00
02320               8.00      400.00
02321              30.00      800.00
02322              22.00     1000.00
02323              -8.00     1000.00
02324             -14.00     1200.00
02325               2.00     1400.00
02326              16.00     1600.00
02327              76.00     1800.00
02328             246.00     2200.00
02329              94.00     2400.00
02330            -254.00     2600.00
02331            -254.00     2600.00
02332             -56.00     2800.00
02333             164.00     3000.00
02334             246.00     3400.00
02335             -72.00     3400.00
02336            -254.00     3600.00
02337             246.00     4000.00
02338              -2.00     3800.00
02339            -134.00     4400.00
02340             126.00     4400.00
02341            -130.00     4400.00
02342             128.00     4800.00
02343             -12.00     4800.00
02344            -198.00     5200.00
02345              26.00     5400.00
02346              -6.00     5600.00
02347              54.00     5800.00
02348             -46.00     5800.00
02349             -32.00     6200.00
02350             -42.00     6000.00
02351             -38.00     6400.00
02352              54.00     6600.00
02353            -112.00     6600.00
02354               2.00     6800.00
02355             -10.00     7000.00
02356             -38.00     7200.00
02357             -14.00     7400.00
02358             -76.00     7600.00
02359             -20.00     7600.00
02360               0.00     8000.00
02361             -10.00     8000.00
02362             -70.00     8200.00
02363             -38.00     8400.00
02364             -38.00     8400.00
02365             -32.00     8800.00
02366             -32.00     8800.00
02367             -50.00     8800.00
02368             -44.00     9000.00
02369             -34.00     9200.00
02370             -30.00     9400.00
02371             -54.00     9400.00
02372             -36.00     9800.00
02373             -66.00     9600.00
02374             -46.00    10000.00
02375             -48.00    10000.00
02376             -50.00    10000.00
02377             -40.00    10400.00
02378             -56.00    10200.00
02379             -72.00    10400.00
02380             -64.00    10400.00
02381             -42.00    10600.00
02382             -56.00    10600.00
02383             -56.00    10800.00
02384             -72.00    10800.00
02385             -82.00    10800.00
02386             -70.00    11200.00
02387             -62.00    11200.00
02388             -64.00    11200.00
02389             -68.00    11400.00
02390             -78.00    11400.00
02391             -82.00    11400.00
02392             -80.00    11600.00
02393             -86.00    11800.00
02394             -88.00    11800.00
02395             -82.00    12000.00
02396             -86.00    12000.00
02397             -90.00    11800.00
02398             -96.00    12200.00
02399            -102.00    12000.00
02400            -100.00    12000.00
02401             -96.00    12000.00
02402             -98.00    12200.00
02403            -102.00    12200.00
02404            -110.00    12200.00
02405            -120.00    12200.00
02406            -118.00    12200.00
02407            -116.00    12400.00
02408            -114.00    12200.00
02409            -114.00    12200.00
02410            -120.00    12400.00
02411            -132.00    12400.00
02412            -136.00    12200.00
02413            -134.00    12200.00
02414            -138.00    12400.00
02415            -134.00    12200.00
02416            -136.00    12400.00
02417            -142.00    12400.00
02418            -150.00    12400.00
02419            -154.00    12200.00
02420            -154.00    12400.00
02421            -150.00    12200.00
02422            -146.00    12200.00
02423            -150.00    12200.00
02424            -156.00    12200.00
02425            -160.00    12200.00
02426            -158.00    12000.00
02427            -152.00    12000.00
02428            -144.00    12000.00
02429            -142.00    12000.00
02430            -144.00    12000.00
02431            -144.00    12000.00
02432            -144.00    11800.00
02433            -138.00    11800.00
02434            -128.00    11800.00
02435            -126.00    11600.00
02436            -120.00    11800.00
02437            -122.00    11600.00
02438            -128.00    11400.00
02439            -120.00    11400.00
02440            -112.00    11200.00
02441            -104.00    11200.00
02442             -98.00    11200.00
02443             -98.00    11000.00
02444            -100.00    10800.00
02445            -102.00    10800.00
02446             -94.00    10600.00
02447             -88.00    10600.00
02448             -80.00    10400.00
02449             -80.00    10400.00
02450             -78.00    10400.00
02451             -80.00    10000.00
02452             -78.00    10000.00
02453             -74.00     9800.00
02454             -72.00     9800.00
02455             -64.00     9600.00
02456             -62.00     9600.00
02457             -62.00     9400.00
02458             -66.00     9200.00
02459             -64.00     9000.00
02460             -62.00     9000.00
02461             -56.00     8800.00
02462             -48.00     8800.00
02463             -48.00     8400.00
02464             -54.00     8400.00
02465             -58.00     8400.00
02466             -48.00     8000.00
02467             -40.00     8000.00
02468             -38.00     8000.00
02469             -44.00     7600.00
02470             -46.00     7600.00
02471             -38.00     7400.00
02472             -38.00     7200.00
02473             -40.00     7000.00
02474             -40.00     6800.00
02475             -36.00     6600.00
02476             -32.00     6600.00
02477             -32.00     6400.00
02478             -32.00     6200.00
02479             -32.00     6000.00
02480             -32.00     5800.00
02481             -26.00     5600.00
02482             -26.00     5600.00
02483             -26.00     5400.00
02484             -28.00     5200.00
02485             -24.00     5000.00
02486             -24.00     4800.00
02487             -26.00     4400.00
02488             -22.00     4400.00
02489             -16.00     4400.00
02490             -16.00     4000.00
02491             -20.00     4000.00
02492             -26.00     3800.00
02493             -24.00     3600.00
02494             -16.00     3200.00
02495             -14.00     3200.00
02496             -12.00     3200.00
02497             -12.00     2800.00
02498             -16.00     2600.00
02499             -16.00     2200.00
02500             -12.00     2200.00
02501             -10.00     2000.00
02502              -8.00     1800.00
02503              -8.00     1600.00
02504             -10.00     1200.00
02505             -10.00     1200.00
02506              -8.00     1000.00
02507             -10.00      800.00
02508              -2.00      800.00
02509              -2.00      400.00
02510              -2.00      200.00
02511               0.00        0.00
02512              10.00        0.00
02513              30.00     -400.00
02514               8.00     -600.00
02515             -12.00     -800.00
02516              -8.00     -800.00
02517              10.00    -1000.00
02518              16.00    -1200.00
02519              54.00    -1400.00
02520             214.00    -1600.00
02521             202.00    -2200.00
02522            -248.00    -2400.00
02523            -254.00    -2400.00
02524             -74.00    -2600.00
02525              90.00    -2800.00
02526             142.00    -2800.00
02527             246.00    -3200.00
02528            -184.00    -3400.00
02529            -176.00    -3200.00
02530             208.00    -4000.00
02531             -18.00    -3600.00
02532              22.00    -3800.00
02533             -14.00    -4400.00
02534              22.00    -4000.00
02535             112.00    -4800.00
02536             -94.00    -4800.00
02537             -18.00    -5200.00
02538             -10.00    -5000.00
02539              48.00    -5200.00
02540             114.00    -5600.00
02541             -58.00    -5600.00
02542               0.00    -6200.00
02543               6.00    -5800.00
02544              48.00    -6200.00
02545              50.00    -6400.00
02546             -16.00    -6400.00
02547              30.00    -6800.00
02548              14.00    -6800.00
02549              48.00    -7000.00
02550              -6.00    -7400.00
02551              14.00    -7200.00
02552              58.00    -7600.00
02553              18.00    -7600.00
02554              46.00    -7800.00
02555              14.00    -7800.00
02556              18.00    -8200.00
02557              56.00    -8400.00
02558              32.00    -8400.00
02559              16.00    -8800.00
02560              38.00    -8600.00
02561              46.00    -8600.00
02562              38.00    -8800.00
02563              46.00    -9000.00
02564              34.00    -9200.00
02565              32.00    -9200.00
02566              54.00    -9400.00
02567              42.00    -9600.00
02568              42.00   -10000.00
02569              56.00    -9600.00
02570              42.00    -9800.00
02571              48.00   -10000.00
02572              50.00   -10000.00
02573              48.00   -10200.00
02574              68.00   -10200.00
02575              70.00   -10400.00
02576              50.00   -10600.00
02577              54.00   -10600.00
02578              60.00   -10800.00
02579              62.00   -10800.00
02580              72.00   -11000.00
02581              76.00   -10800.00
02582              68.00   -11000.00
02583              74.00   -11200.00
02584              70.00   -11200.00
02585              70.00   -11200.00
02586              80.00   -11200.00
02587              80.00   -11200.00
02588              88.00   -11600.00
02589              90.00   -11600.00
02590              82.00   -11600.00
02591              82.00   -11600.00
02592              88.00   -11600.00
02593              94.00   -11800.00
02594             100.00   -11800.00
02595             106.00   -11800.00
02596             102.00   -11800.00
02597             102.00   -11800.00
02598             102.00   -12000.00
02599             102.00   -11800.00
02600             118.00   -12000.00
02601             126.00   -12000.00
02602             122.00   -12000.00
02603             118.00   -12000.00
02604             112.00   -12000.00
02605             120.00   -12000.00
02606             134.00   -12000.00
02607             142.00   -12000.00
02608             136.00   -11800.00
02609             136.00   -11800.00
02610             134.00   -12000.00
02611             136.00   -12000.00
02612             144.00   -11800.00
02613             150.00   -11800.00
02614             152.00   -11800.00
02615             150.00   -11800.00
02616             146.00   -11800.00
02617             144.00   -11800.00
02618             144.00   -11800.00
02619             144.00   -11600.00
02620             150.00   -11600.00
02621             144.00   -11600.00
02622             136.00   -11600.00
02623             134.00   -11400.00
02624             128.00   -11600.00
02625             128.00   -11400.00
02626             126.00   -11200.00
02627             128.00   -11200.00
02628             122.00   -11200.00
02629             118.00   -11000.00
02630             110.00   -11000.00
02631             108.00   -11000.00
02632             104.00   -11000.00
02633             102.00   -10800.00
02634              98.00   -10800.00
02635              96.00   -10600.00
02636              90.00   -10600.00
02637              86.00   -10400.00
02638              82.00   -10400.00
02639              80.00   -10200.00
02640              80.00   -10000.00
02641              80.00   -10000.00
02642              74.00    -9600.00
02643              72.00    -9800.00
02644              64.00    -9600.00
02645              62.00    -9400.00
02646              62.00    -9400.00
02647              62.00    -9200.00
02648              62.00    -9200.00
02649              58.00    -9200.00
02650              52.00    -8800.00
02651              46.00    -8800.00
02652              46.00    -8600.00
02653              48.00    -8600.00
02654              48.00    -8400.00
02655              46.00    -8200.00
02656              40.00    -8000.00
02657              38.00    -8000.00
02658              34.00    -7800.00
02659              34.00    -7600.00
02660              38.00    -7400.00
02661              38.00    -7400.00
02662              34.00    -7200.00
02663              30.00    -7000.00
02664              28.00    -6800.00
02665              28.00    -6600.00
02666              26.00    -6400.00
02667              32.00    -6400.00
02668              26.00    -6200.00
02669              24.00    -6000.00
02670              22.00    -5800.00
02671              16.00    -5600.00
02672              16.00    -5600.00
02673              22.00    -5400.00
02674              18.00    -5200.00
02675              20.00    -4800.00
02676              18.00    -4800.00
02677              14.00    -4600.00
02678              14.00    -4400.00
02679              14.00    -4200.00
02680              14.00    -3800.00
02681              16.00    -3600.00
02682              14.00    -3600.00
02683               8.00    -3400.00
02684              10.00    -3200.00
02685               8.00    -3000.00
02686               8.00    -2800.00
02687               8.00    -2800.00
02688               6.00    -2400.00
02689              10.00    -2400.00
02690               6.00    -2200.00
02691              -2.00    -2000.00
02692               6.00    -1600.00
02693               2.00    -1400.00
02694               2.00    -1200.00
02695              10.00    -1000.00
02696               0.00     -800.00
02697              -2.00     -800.00
02698               0.00     -600.00
02699               2.00     -200.00
02700               0.00        0.00
02701               0.00      200.00
02702               0.00      200.00
02703               4.00      400.00
02704              20.00      800.00
02705              28.00      800.00
02706               2.00     1000.00
02707             -12.00     1200.00
02708              -8.00     1200.00
02709               2.00     1600.00
02710              26.00     1800.00
02711             198.00     2000.00
02712             246.00     2400.00
02713            -208.00     2400.00
02714            -254.00     2600.00
02715            -198.00     2800.00
02716              30.00     3000.00
02717             246.00     3400.00
02718             246.00     3400.00
02719            -254.00     3200.00
02720             -64.00     3800.00
02721             246.00     4000.00
02722            -220.00     4000.00
02723              86.00     4400.00
02724             -18.00     4400.00
02725             -42.00     4600.00
02726             144.00     4800.00
02727            -198.00     5000.00
02728             -60.00     5400.00
02729              30.00     5400.00
02730              24.00     5800.00
02731              16.00     5600.00
02732             -74.00     6000.00
02733             -10.00     6200.00
02734             -82.00     6000.00
02735              54.00     6800.00
02736             -32.00     6600.00
02737             -78.00     6800.00
02738              32.00     7000.00
02739             -58.00     7000.00
02740              -8.00     7400.00
02741             -54.00     7400.00
02742             -48.00     7600.00
02743              -4.00     7800.00
02744              -2.00     8000.00
02745             -44.00     8000.00
02746             -58.00     8200.00
02747             -26.00     8400.00
02748             -48.00     8400.00
02749             -24.00     8800.00
02750             -46.00     8800.00
02751             -46.00     9000.00
02752             -44.00     9000.00
02753             -26.00     9200.00
02754             -54.00     9600.00
02755             -48.00     9600.00
02756             -50.00     9600.00
02757             -62.00     9800.00
02758             -28.00    10000.00
02759             -42.00    10000.00
02760             -38.00    10000.00
02761             -48.00    10200.00
02762             -66.00    10400.00
02763             -78.00    10400.00
02764             -58.00    10600.00
02765             -58.00    10600.00
02766             -70.00    10600.00
02767             -70.00    10800.00
02768             -74.00    11000.00
02769             -58.00    11000.00
02770             -46.00    11200.00
02771             -48.00    11200.00
02772             -58.00    11400.00
02773             -78.00    11400.00
02774            -102.00    11400.00
02775             -98.00    11600.00
02776             -92.00    11600.00
02777             -90.00    11800.00
02778             -66.00    11800.00
02779             -66.00    11800.00
02780             -78.00    12000.00
02781             -78.00    12000.00
02782             -90.00    12000.00
02783            -120.00    12000.00
02784            -128.00    12000.00
02785            -106.00    12200.00
02786             -86.00    12400.00
02787             -94.00    12200.00
02788            -118.00    12200.00
02789            -120.00    12200.00
02790             -98.00    12200.00
02791            -104.00    12200.00
02792            -114.00    12400.00
02793            -124.00    12400.00
02794            -138.00    12200.00
02795            -144.00    12400.00
02796            -140.00    12400.00
02797            -128.00    12200.00
02798            -126.00    12400.00
02799            -130.00    12400.00
02800            -138.00    12400.00
02801            -142.00    12400.00
02802            -154.00    12400.00
02803            -162.00    12200.00
02804            -152.00    12200.00
02805            -144.00    12200.00
02806            -154.00    12200.00
02807            -162.00    12200.00
02808            -160.00    12200.00
02809            -150.00    12000.00
02810            -142.00    12200.00
02811            -144.00    12000.00
02812            -150.00    12000.00
02813            -152.00    12000.00
02814            -152.00    12000.00
02815            -144.00    11800.00
02816            -134.00    11800.00
02817            -128.00    11800.00
02818            -128.00    11800.00
02819            -122.00    11600.00
02820            -118.00    11800.00
02821            -122.00    11400.00
02822            -124.00    11400.00
02823            -122.00    11200.00
02824            -114.00    11400.00
02825            -102.00    11200.00
02826             -94.00    11200.00
02827             -90.00    10800.00
02828             -96.00    11000.00
02829            -104.00    10800.00
02830             -98.00    10600.00
02831             -86.00    10600.00
02832             -80.00    10400.00
02833             -80.00    10400.00
02834             -80.00    10200.00
02835             -74.00    10000.00
02836             -72.00     9800.00
02837             -72.00     9800.00
02838             -70.00     9600.00
02839             -66.00     9600.00
02840             -64.00     9400.00
02841             -64.00     9600.00
02842             -58.00     9200.00
02843             -56.00     9000.00
02844             -56.00     9000.00
02845             -50.00     8800.00
02846             -48.00     8800.00
02847             -50.00     8600.00
02848             -52.00     8400.00
02849             -54.00     8200.00
02850             -50.00     8000.00
02851             -40.00     8000.00
02852             -34.00     7600.00
02853             -42.00     7800.00
02854             -42.00     7400.00
02855             -42.00     7400.00
02856             -42.00     7200.00
02857             -38.00     7000.00
02858             -32.00     6800.00
02859             -32.00     6600.00
02860             -32.00     6400.00
02861             -34.00     6400.00
02862             -32.00     6200.00
02863             -32.00     5800.00
02864             -26.00     5600.00
02865             -26.00     5600.00
02866             -26.00     5400.00
02867             -26.00     5200.00
02868             -26.00     5000.00
02869             -30.00     5000.00
02870             -26.00     4600.00
02871             -24.00     4400.00
02872             -18.00     4200.00
02873             -16.00     4200.00
02874             -18.00     4000.00
02875             -22.00     3800.00
02876             -24.00     3400.00
02877             -22.00     3400.00
02878             -18.00     3200.00
02879             -10.00     3000.00
02880             -10.00     2800.00
02881             -14.00     2600.00
02882             -16.00     2400.00
02883             -16.00     2400.00
02884             -14.00     2000.00
02885             -10.00     1800.00
02886              -6.00     1600.00
02887             -10.00     1400.00
02888             -10.00     1400.00
02889             -10.00     1000.00
02890             -10.00      800.00
02891              -8.00      800.00
02892               0.00      400.00
02893               0.00      200.00
02894              -2.00      200.00
02895               2.00        0.00
02896              24.00     -200.00
02897              22.00     -400.00
02898              -2.00     -600.00
02899             -10.00     -800.00
02900               0.00     -800.00
02901              14.00    -1200.00
02902              26.00    -1400.00
02903             118.00    -1400.00
02904             246.00    -2000.00
02905             -20.00    -2400.00
02906            -254.00    -2400.00
02907            -254.00    -2600.00
02908              66.00    -2600.00
02909              78.00    -2600.00
02910             246.00    -2800.00
02911             106.00    -3200.00
02912            -254.00    -3200.00
02913              88.00    -3800.00
02914             118.00    -3800.00
02915             -46.00    -3600.00
02916              38.00    -4400.00
02917             -46.00    -4200.00
02918             118.00    -4400.00
02919               0.00    -4800.00
02920             -86.00    -4800.00
02921              14.00    -5200.00
02922             -16.00    -5000.00
02923             126.00    -5600.00
02924              14.00    -5400.00
02925             -48.00    -5800.00
02926              18.00    -6200.00
02927              14.00    -5800.00
02928              74.00    -6600.00
02929               0.00    -6200.00
02930              14.00    -6600.00
02931              20.00    -7000.00
02932              32.00    -6800.00
02933              32.00    -7400.00
02934             -16.00    -7200.00
02935              54.00    -7400.00
02936              32.00    -7400.00
02937              30.00    -7600.00
02938              34.00    -7800.00
02939               2.00    -7800.00
02940              44.00    -8400.00
02941              46.00    -8200.00
02942              18.00    -8600.00
02943              26.00    -8600.00
02944              48.00    -8800.00
02945              42.00    -8800.00
02946              40.00    -9000.00
02947              42.00    -9200.00
02948              30.00    -9200.00
02949              42.00    -9400.00
02950              52.00    -9400.00
02951              38.00    -9600.00
02952              54.00    -9600.00
02953              50.00   -10000.00
02954              42.00   -10000.00
02955              54.00   -10000.00
02956              48.00   -10200.00
02957              56.00   -10400.00
02958              72.00   -10400.00
02959              62.00   -10200.00
02960              50.00   -10800.00
02961              56.00   -10600.00
02962              60.00   -10800.00
02963              66.00   -10800.00
02964              78.00   -11000.00
02965              70.00   -11000.00
02966              70.00   -11200.00
02967              78.00   -11200.00
02968              68.00   -11200.00
02969              78.00   -11400.00
02970              86.00   -11400.00
02971              82.00   -11400.00
02972              90.00   -11400.00
02973              88.00   -11600.00
02974              82.00   -11600.00
02975              92.00   -11800.00
02976              94.00   -11600.00
02977              96.00   -11800.00
02978             104.00   -11800.00
02979             104.00   -11800.00
02980             102.00   -12000.00
02981             104.00   -12000.00
02982             104.00   -12000.00
02983             110.00   -12000.00
02984             120.00   -11800.00
02985             120.00   -12000.00
02986             120.00   -12000.00
02987             120.00   -12000.00
02988             118.00   -12000.00
02989             126.00   -12000.00
02990             134.00   -12000.00
02991             136.00   -12000.00
02992             140.00   -11800.00
02993             138.00   -12000.00
02994             134.00   -12000.00
02995             138.00   -11800.00
02996             146.00   -11800.00
02997             150.00   -11800.00
02998             152.00   -11800.00
02999             150.00   -11800.00
03000             144.00   -11800.00
03001             144.00   -11600.00
03002             142.00   -11600.00
03003             144.00   -11600.00
03004             144.00   -11600.00
03005             142.00   -11600.00
03006             136.00   -11600.00
03007             130.00   -11600.00
03008             126.00   -11400.00
03009             122.00   -11200.00
03010             126.00   -11200.00
03011             126.00   -11200.00
03012             120.00   -11200.00
03013             112.00   -11200.00
03014             104.00   -11000.00
03015             102.00   -10800.00
03016             102.00   -10800.00
03017             102.00   -10800.00
03018             102.00   -10800.00
03019              94.00   -10600.00
03020              86.00   -10400.00
03021              82.00   -10200.00
03022              80.00   -10000.00
03023              82.00   -10000.00
03024              82.00   -10000.00
03025              78.00    -9600.00
03026              70.00    -9800.00
03027              66.00    -9600.00
03028              62.00    -9400.00
03029              62.00    -9400.00
03030              64.00    -9400.00
03031              62.00    -9200.00
03032              62.00    -9200.00
03033              54.00    -8800.00
03034              48.00    -8800.00
03035              48.00    -8800.00
03036              48.00    -8600.00
03037              50.00    -8400.00
03038              48.00    -8400.00
03039              46.00    -8000.00
03040              38.00    -8000.00
03041              38.00    -7800.00
03042              40.00    -7800.00
03043              34.00    -7400.00
03044              36.00    -7200.00
03045              34.00    -7200.00
03046              30.00    -7000.00
03047              32.00    -7000.00
03048              26.00    -6800.00
03049              26.00    -6600.00
03050              26.00    -6400.00
03051              24.00    -6200.00
03052              24.00    -6000.00
03053              24.00    -5800.00
03054              22.00    -5600.00
03055              22.00    -5600.00
03056              16.00    -5400.00
03057              16.00    -5200.00
03058              18.00    -5000.00
03059              22.00    -4800.00
03060              16.00    -4600.00
03061              14.00    -4600.00
03062              10.00    -4200.00
03063              12.00    -4200.00
03064              16.00    -3800.00
03065              16.00    -3800.00
03066              14.00    -3600.00
03067              10.00    -3200.00
03068               8.00    -3000.00
03069               6.00    -3000.00
03070               6.00    -2800.00
03071               8.00    -2600.00
03072               8.00    -2400.00
03073               8.00    -2200.00
03074               6.00    -2000.00
03075               0.00    -1800.00
03076               0.00    -1600.00
03077               4.00    -1400.00
03078               6.00    -1200.00
03079               6.00    -1000.00
03080               2.00     -800.00
03081              -2.00     -600.00
03082              -6.00     -400.00
03083              -2.00        0.00
03084               2.00        0.00
03085               4.00      200.00
03086               4.00      400.00
03087               2.00      400.00
03088              26.00      800.00
03089              18.00      800.00
03090              -8.00     1200.00
03091             -16.00     1200.00
03092               0.00     1600.00
03093              10.00     1600.00
03094              88.00     1800.00
03095             246.00     2400.00
03096              62.00     2400.00
03097            -254.00     2400.00
03098            -254.00     2800.00
03099             -42.00     2800.00
03100             192.00     3000.00
03101             246.00     3400.00
03102            -130.00     3200.00
03103            -254.00     3400.00
03104             246.00     4000.00
03105             -38.00     3800.00
03106            -104.00     4200.00
03107             120.00     4400.00
03108            -130.00     4400.00
03109             134.00     4600.00
03110             -38.00     5000.00
03111            -184.00     5400.00
03112              38.00     5200.00
03113              -2.00     5600.00
03114              50.00     5600.00
03115             -58.00     5800.00
03116             -26.00     6000.00
03117             -50.00     6000.00
03118             -24.00     6400.00
03119              54.00     6600.00
03120            -114.00     6600.00
03121               8.00     7000.00
03122             -18.00     6800.00
03123             -34.00     7200.00
03124             -16.00     7200.00
03125             -72.00     7600.00
03126             -18.00     7600.00
03127              -2.00     8000.00
03128             -18.00     8000.00
03129             -70.00     8000.00
03130             -30.00     8400.00
03131             -40.00     8400.00
03132             -32.00     8400.00
03133             -32.00     8800.00
03134             -54.00     9000.00
03135             -46.00     9000.00
03136             -34.00     9200.00
03137             -34.00     9400.00
03138             -52.00     9600.00
03139             -38.00     9800.00
03140             -66.00     9600.00
03141             -46.00     9600.00
03142             -46.00    10000.00
03143             -52.00    10000.00
03144             -42.00    10200.00
03145             -58.00    10200.00
03146             -70.00    10400.00
03147             -66.00    10400.00
03148             -46.00    10600.00
03149             -54.00    10600.00
03150             -54.00    10800.00
03151             -66.00    11000.00
03152             -78.00    11000.00
03153             -72.00    11200.00
03154             -70.00    11200.00
03155             -66.00    11400.00
03156             -62.00    11400.00
03157             -72.00    11800.00
03158             -80.00    11600.00
03159             -80.00    11800.00
03160             -90.00    11800.00
03161             -80.00    11800.00
03162             -74.00    12000.00
03163             -86.00    12000.00
03164             -96.00    11800.00
03165             -96.00    12000.00
03166             -94.00    12200.00
03167             -96.00    12000.00
03168             -96.00    12200.00
03169             -98.00    12000.00
03170            -102.00    12400.00
03171            -106.00    12400.00
03172            -114.00    12400.00
03173            -114.00    12200.00
03174            -118.00    12200.00
03175            -118.00    12400.00
03176            -114.00    12400.00
03177            -120.00    12200.00
03178            -126.00    12400.00
03179            -134.00    12400.00
03180            -136.00    12400.00
03181            -136.00    12400.00
03182            -134.00    12400.00
03183            -136.00    12400.00
03184            -144.00    12400.00
03185            -148.00    12400.00
03186            -154.00    12400.00
03187            -154.00    12400.00
03188            -146.00    12200.00
03189            -144.00    12200.00
03190            -146.00    12200.00
03191            -158.00    12200.00
03192            -166.00    12000.00
03193            -162.00    12200.00
03194            -150.00    12000.00
03195            -138.00    12200.00
03196            -138.00    12000.00
03197            -146.00    12000.00
03198            -150.00    12000.00
03199            -150.00    11800.00
03200            -144.00    11800.00
03201            -128.00    11800.00
03202            -114.00    11600.00
03203            -122.00    11800.00
03204            -130.00    11400.00
03205            -126.00    11400.00
03206            -116.00    11400.00
03207            -110.00    11200.00
03208            -106.00    11200.00
03209            -106.00    11000.00
03210            -106.00    10800.00
03211            -104.00    10800.00
03212             -94.00    10800.00
03213             -88.00    10800.00
03214             -90.00    10600.00
03215             -92.00    10400.00
03216             -86.00    10400.00
03217             -74.00    10400.00
03218             -72.00    10000.00
03219             -72.00    10000.00
03220             -78.00     9800.00
03221             -80.00     9800.00
03222             -70.00     9600.00
03223             -62.00     9600.00
03224             -56.00     9400.00
03225             -54.00     9200.00
03226             -68.00     9200.00
03227             -72.00     9000.00
03228             -62.00     8800.00
03229             -38.00     8800.00
03230             -32.00     8400.00
03231             -48.00     8400.00
03232             -64.00     8200.00
03233             -64.00     8200.00
03234             -48.00     8000.00
03235             -30.00     8000.00
03236             -30.00     7600.00
03237             -42.00     7600.00
03238             -46.00     7400.00
03239             -42.00     7200.00
03240             -40.00     7000.00
03241             -34.00     6800.00
03242             -32.00     6600.00
03243             -32.00     6400.00
03244             -34.00     6400.00
03245             -38.00     6200.00
03246             -32.00     6000.00
03247             -30.00     5800.00
03248             -22.00     5800.00
03249             -26.00     5600.00
03250             -30.00     5400.00
03251             -30.00     5200.00
03252             -30.00     5000.00
03253             -26.00     4800.00
03254             -24.00     4400.00
03255             -16.00     4400.00
03256             -16.00     4200.00
03257             -22.00     4000.00
03258             -26.00     3800.00
03259             -22.00     3600.00
03260             -16.00     3400.00
03261             -16.00     3200.00
03262             -18.00     3200.00
03263             -16.00     2800.00
03264             -16.00     2800.00
03265             -10.00     2600.00
03266             -14.00     2400.00
03267             -18.00     2200.00
03268             -16.00     1800.00
03269             -10.00     1600.00
03270              -8.00     1600.00
03271              -8.00     1200.00
03272             -12.00     1200.00
03273             -10.00     1000.00
03274              -8.00      800.00
03275              -6.00      600.00
03276              -2.00      200.00
03277              -2.00      200.00
03278              -2.00        0.00
03279              12.00     -200.00
03280              32.00     -400.00
03281               6.00     -600.00
03282             -14.00     -800.00
03283              -8.00    -1000.00
03284              10.00    -1200.00
03285              16.00    -1200.00
03286              58.00    -1400.00
03287             224.00    -1800.00
03288             184.00    -2200.00
03289            -254.00    -2400.00
03290            -254.00    -2400.00
03291             -54.00    -2800.00
03292              92.00    -2800.00
03293             158.00    -2600.00
03294             246.00    -3200.00
03295            -208.00    -3200.00
03296            -150.00    -3200.00
03297             208.00    -4000.00
03298             -32.00    -3400.00
03299              30.00    -4000.00
03300             -16.00    -4400.00
03301              36.00    -4000.00
03302             108.00    -4800.00
03303             -96.00    -4800.00
03304             -10.00    -5000.00
03305             -16.00    -5000.00
03306              58.00    -5400.00
03307             104.00    -5400.00
03308             -62.00    -5400.00
03309               6.00    -6000.00
03310               6.00    -6000.00
03311              54.00    -6200.00
03312              48.00    -6400.00
03313             -16.00    -6400.00
03314              30.00    -7000.00
03315              12.00    -6800.00
03316              48.00    -7200.00
03317              -8.00    -7200.00
03318              20.00    -7200.00
03319              58.00    -7800.00
03320              18.00    -7600.00
03321              42.00    -8000.00
03322              14.00    -7800.00
03323              24.00    -8000.00
03324              54.00    -8400.00
03325              26.00    -8400.00
03326              16.00    -8800.00
03327              38.00    -8600.00
03328              44.00    -8800.00
03329              40.00    -8800.00
03330              42.00    -9200.00
03331              34.00    -9200.00
03332              34.00    -9400.00
03333              54.00    -9400.00
03334              44.00    -9400.00
03335              46.00    -9600.00
03336              58.00   -10000.00
03337              40.00   -10000.00
03338              48.00   -10200.00
03339              50.00   -10200.00
03340              48.00   -10200.00
03341              70.00   -10400.00
03342              70.00   -10600.00
03343              54.00   -10600.00
03344              54.00   -10800.00
03345              58.00   -10800.00
03346              62.00   -11000.00
03347              76.00   -10800.00
03348              74.00   -11000.00
03349              66.00   -11000.00
03350              74.00   -11200.00
03351              70.00   -11200.00
03352              70.00   -11400.00
03353              86.00   -11200.00
03354              86.00   -11400.00
03355              86.00   -11600.00
03356              90.00   -11600.00
03357              80.00   -11800.00
03358              86.00   -11600.00
03359              94.00   -11600.00
03360              96.00   -11800.00
03361             102.00   -11800.00
03362             104.00   -11800.00
03363             102.00   -11800.00
03364             104.00   -11800.00
03365             106.00   -11800.00
03366             106.00   -12000.00
03367             116.00   -12000.00
03368             120.00   -12000.00
03369             118.00   -11800.00
03370             122.00   -12000.00
03371             122.00   -12000.00
03372             120.00   -12000.00
03373             128.00   -12000.00
03374             134.00   -12000.00
03375             138.00   -12000.00
03376             142.00   -12000.00
03377             136.00   -12000.00
03378             136.00   -12000.00
03379             144.00   -12000.00
03380             146.00   -11800.00
03381             150.00   -11800.00
03382             152.00   -11800.00
03383             144.00   -11800.00
03384             142.00   -11800.00
03385             142.00   -11800.00
03386             142.00   -11600.00
03387             146.00   -11600.00
03388             144.00   -11800.00
03389             138.00   -11600.00
03390             132.00   -11600.00
03391             122.00   -11600.00
03392             122.00   -11400.00
03393             126.00   -11200.00
03394             128.00   -11200.00
03395             122.00   -11200.00
03396             112.00   -11000.00
03397             104.00   -11200.00
03398             106.00   -11000.00
03399             106.00   -11000.00
03400              98.00   -10800.00
03401              96.00   -10800.00
03402              96.00   -10400.00
03403              92.00   -10400.00
03404              86.00   -10400.00
03405              80.00   -10400.00
03406              78.00   -10200.00
03407              80.00   -10000.00
03408              78.00   -10000.00
03409              76.00   -10000.00
03410              70.00    -9600.00
03411              64.00    -9600.00
03412              62.00    -9400.00
03413              62.00    -9400.00
03414              64.00    -9400.00
03415              62.00    -9200.00
03416              58.00    -9200.00
03417              54.00    -8800.00
03418              48.00    -8800.00
03419              46.00    -8600.00
03420              48.00    -8600.00
03421              48.00    -8400.00
03422              48.00    -8200.00
03423              42.00    -8000.00
03424              38.00    -7800.00
03425              38.00    -7800.00
03426              38.00    -7400.00
03427              38.00    -7400.00
03428              36.00    -7200.00
03429              34.00    -7200.00
03430              32.00    -7000.00
03431              32.00    -6800.00
03432              28.00    -6600.00
03433              26.00    -6600.00
03434              28.00    -6400.00
03435              30.00    -6200.00
03436              24.00    -6000.00
03437              20.00    -5800.00
03438              18.00    -5600.00
03439              18.00    -5600.00
03440              18.00    -5200.00
03441              18.00    -5200.00
03442              18.00    -5000.00
03443              16.00    -4800.00
03444              14.00    -4600.00
03445              10.00    -4400.00
03446              14.00    -4000.00
03447              10.00    -4200.00
03448              14.00    -3800.00
03449              14.00    -3600.00
03450               8.00    -3200.00
03451               6.00    -3200.00
03452               6.00    -3000.00
03453               6.00    -2800.00
03454              10.00    -2800.00
03455               8.00    -2400.00
03456               6.00    -2200.00
03457               2.00    -2200.00
03458               2.00    -2000.00
03459               0.00    -1600.00
03460               4.00    -1600.00
03461               2.00    -1000.00
03462               6.00    -1200.00
03463               2.00     -800.00
03464               0.00     -800.00
03465              -2.00     -400.00
03466              -2.00     -200.00
03467               0.00        0.00
03468               2.00        0.00
03469               2.00      200.00
03470               0.00      400.00
03471              16.00      800.00
03472              24.00      800.00
03473               6.00     1000.00
03474             -14.00     1200.00
03475              -8.00     1200.00
03476               6.00     1600.00
03477              32.00     1600.00
03478             210.00     2000.00
03479             246.00     2400.00
03480            -246.00     2600.00
03481            -254.00     2600.00
03482            -176.00     2800.00
03483              42.00     2800.00
03484             246.00     3400.00
03485             246.00     3400.00
03486            -254.00     3200.00
03487             -16.00     3600.00
03488             240.00     4000.00
03489            -222.00     4000.00
03490             102.00     4400.00
03491             -42.00     4400.00
03492             -22.00     4600.00
03493             138.00     4800.00
03494            -202.00     5000.00
03495             -46.00     5400.00
03496              26.00     5400.00
03497              26.00     5600.00
03498              14.00     5600.00
03499             -70.00     6000.00
03500              -8.00     6000.00
03501             -74.00     6000.00
03502              64.00     6600.00
03503             -46.00     6400.00
03504             -74.00     6800.00
03505              26.00     7000.00
03506             -56.00     7000.00
03507               0.00     7200.00
03508             -58.00     7400.00
03509             -48.00     7600.00
03510              -6.00     7600.00
03511              -2.00     8000.00
03512             -50.00     8000.00
03513             -58.00     8200.00
03514             -24.00     8400.00
03515             -42.00     8400.00
03516             -26.00     8800.00
03517             -48.00     9000.00
03518             -48.00     9000.00
03519             -42.00     9200.00
03520             -26.00     9200.00
03521             -50.00     9400.00
03522             -42.00     9600.00
03523             -50.00     9600.00
03524             -64.00     9800.00
03525             -34.00     9800.00
03526             -54.00     9800.00
03527             -42.00    10200.00
03528             -54.00    10000.00
03529             -66.00    10400.00
03530             -72.00    10400.00
03531             -48.00    10600.00
03532             -46.00    10600.00
03533             -56.00    10800.00
03534             -66.00    10800.00
03535             -78.00    10800.00
03536             -72.00    11200.00
03537             -66.00    11000.00
03538             -64.00    11200.00
03539             -66.00    11200.00
03540             -72.00    11400.00
03541             -80.00    11400.00
03542             -80.00    11400.00
03543             -82.00    11800.00
03544             -88.00    11800.00
03545             -80.00    11600.00
03546             -80.00    12000.00
03547             -88.00    12000.00
03548             -94.00    12000.00
03549             -98.00    12000.00
03550             -98.00    12000.00
03551             -98.00    12000.00
03552             -96.00    12200.00
03553             -98.00    12200.00
03554            -102.00    12200.00
03555            -112.00    12200.00
03556            -118.00    12200.00
03557            -114.00    12200.00
03558            -112.00    12200.00
03559            -114.00    12200.00
03560            -114.00    12400.00
03561            -128.00    12200.00
03562            -136.00    12400.00
03563            -136.00    12200.00
03564            -136.00    12400.00
03565            -132.00    12400.00
03566            -134.00    12400.00
03567            -138.00    12200.00
03568            -146.00    12400.00
03569            -154.00    12200.00
03570            -154.00    12200.00
03571            -152.00    12400.00
03572            -146.00    12200.00
03573            -150.00    12000.00
03574            -152.00    12200.00
03575            -158.00    12000.00
03576            -162.00    12000.00
03577            -156.00    12200.00
03578            -146.00    12000.00
03579            -144.00    12000.00
03580            -142.00    12000.00
03581            -144.00    12000.00
03582            -152.00    12000.00
03583            -146.00    12000.00
03584            -134.00    11800.00
03585            -126.00    11600.00
03586            -122.00    11800.00
03587            -126.00    11600.00
03588            -126.00    11400.00
03589            -120.00    11400.00
03590            -118.00    11200.00
03591            -114.00    11200.00
03592            -102.00    11200.00
03593             -96.00    11000.00
03594             -98.00    11000.00
03595            -106.00    10800.00
03596            -104.00    10800.00
03597             -88.00    10600.00
03598             -80.00    10400.00
03599             -80.00    10400.00
03600             -86.00    10400.00
03601             -86.00    10200.00
03602             -80.00    10000.00
03603             -72.00    10000.00
03604             -68.00     9800.00
03605             -70.00     9600.00
03606             -66.00     9600.00
03607             -62.00     9600.00
03608             -64.00     9200.00
03609             -62.00     9200.00
03610             -58.00     9000.00
03611             -58.00     9000.00
03612             -54.00     8800.00
03613             -48.00     8600.00
03614             -48.00     8400.00
03615             -50.00     8200.00
03616             -50.00     8200.00
03617             -50.00     8000.00
03618             -42.00     7800.00
03619             -40.00     7600.00
03620             -40.00     7600.00
03621             -40.00     7400.00
03622             -42.00     7200.00
03623             -40.00     7200.00
03624             -38.00     7200.00
03625             -34.00     6800.00
03626             -30.00     6600.00
03627             -32.00     6400.00
03628             -34.00     6400.00
03629             -34.00     6400.00
03630             -30.00     6000.00
03631             -26.00     5600.00
03632             -24.00     5600.00
03633             -26.00     5400.00
03634             -26.00     5400.00
03635             -26.00     5000.00
03636             -30.00     4800.00
03637             -28.00     4400.00
03638             -24.00     4400.00
03639             -18.00     4200.00
03640             -14.00     4200.00
03641             -20.00     4000.00
03642             -26.00     3800.00
03643             -24.00     3600.00
03644             -16.00     3200.00
03645             -14.00     3200.00
03646             -14.00     3000.00
03647             -14.00     2600.00
03648             -16.00     2600.00
03649             -16.00     2200.00
03650             -16.00     2200.00
03651             -12.00     2000.00
03652             -10.00     1800.00
03653              -8.00     1600.00
03654             -10.00     1200.00
03655             -10.00     1200.00
03656             -10.00     1000.00
03657             -10.00      800.00
03658              -6.00      600.00
03659              -2.00      400.00
03660               0.00      200.00
03661              -2.00        0.00
03662               2.00        0.00
03663              26.00     -400.00
03664              18.00     -600.00
03665              -8.00     -600.00
03666             -14.00     -800.00
03667               6.00     -800.00
03668              16.00    -1200.00
03669              30.00    -1400.00
03670             130.00    -1600.00
03671             246.00    -2000.00
03672             -46.00    -2400.00
03673            -254.00    -2400.00
03674            -236.00    -2600.00
03675              74.00    -2800.00
03676              82.00    -2400.00
03677             246.00    -2800.00
03678              78.00    -3400.00
03679            -254.00    -3200.00
03680             116.00    -3800.00
03681             102.00    -3800.00
03682             -34.00    -3600.00
03683              38.00    -4400.00
03684             -38.00    -4000.00
03685             126.00    -4600.00
03686             -10.00    -4800.00
03687             -74.00    -4800.00
03688              14.00    -5200.00
03689             -10.00    -5000.00
03690             136.00    -5600.00
03691               4.00    -5400.00
03692             -42.00    -6000.00
03693              28.00    -6000.00
03694              14.00    -6000.00
03695              70.00    -6400.00
03696              -2.00    -6400.00
03697              16.00    -6800.00
03698              16.00    -6800.00
03699              40.00    -6800.00
03700              30.00    -7200.00
03701             -16.00    -7200.00
03702              56.00    -7600.00
03703              24.00    -7400.00
03704              30.00    -7800.00
03705              40.00    -7800.00
03706               8.00    -7800.00
03707              54.00    -8400.00
03708              38.00    -8400.00
03709               0.00    -8600.00
03710              32.00    -8600.00
03711              64.00    -8800.00
03712              42.00    -9000.00
03713              32.00    -9200.00
03714              34.00    -9000.00
03715              30.00    -9200.00
03716              50.00    -9400.00
03717              54.00    -9400.00
03718              38.00    -9800.00
03719              54.00    -9600.00
03720              46.00   -10000.00
03721              38.00   -10000.00
03722              54.00   -10200.00
03723              50.00   -10200.00
03724              56.00   -10400.00
03725              74.00   -10400.00
03726              54.00   -10600.00
03727              46.00   -10600.00
03728              64.00   -10800.00
03729              66.00   -10800.00
03730              66.00   -11000.00
03731              72.00   -11000.00
03732              62.00   -11000.00
03733              72.00   -11000.00
03734              80.00   -11200.00
03735              64.00   -11200.00
03736              78.00   -11400.00
03737              86.00   -11200.00
03738              82.00   -11400.00
03739              90.00   -11600.00
03740              82.00   -11600.00
03741              78.00   -11600.00
03742              90.00   -11800.00
03743             100.00   -11600.00
03744             102.00   -11800.00
03745             102.00   -11600.00
03746              94.00   -11800.00
03747              98.00   -11800.00
03748             112.00   -11800.00
03749             110.00   -12000.00
03750             112.00   -11800.00
03751             120.00   -12000.00
03752             118.00   -11800.00
03753             118.00   -11800.00
03754             122.00   -12000.00
03755             120.00   -12000.00
03756             128.00   -12000.00
03757             136.00   -11800.00
03758             136.00   -12000.00
03759             136.00   -12000.00
03760             134.00   -12000.00
03761             136.00   -11800.00
03762             142.00   -11800.00
03763             150.00   -11800.00
03764             150.00   -12000.00
03765             146.00   -12000.00
03766             144.00   -11800.00
03767             142.00   -12000.00
03768             144.00   -11600.00
03769             146.00   -11800.00
03770             142.00   -11800.00
03771             144.00   -11600.00
03772             138.00   -11600.00
03773             136.00   -11600.00
03774             130.00   -11600.00
03775             124.00   -11600.00
03776             122.00   -11400.00
03777             128.00   -11200.00
03778             122.00   -11200.00
03779             118.00   -11200.00
03780             112.00   -11000.00
03781             106.00   -11000.00
03782             102.00   -11000.00
03783             102.00   -10800.00
03784              98.00   -10800.00
03785             102.00   -10600.00
03786              96.00   -10600.00
03787              86.00   -10400.00
03788              80.00   -10400.00
03789              78.00   -10200.00
03790              78.00   -10000.00
03791              80.00   -10000.00
03792              80.00    -9800.00
03793              72.00    -9800.00
03794              64.00    -9600.00
03795              58.00    -9600.00
03796              62.00    -9600.00
03797              64.00    -9200.00
03798              64.00    -9200.00
03799              58.00    -9000.00
03800              54.00    -8800.00
03801              48.00    -8800.00
03802              46.00    -8800.00
03803              48.00    -8600.00
03804              48.00    -8400.00
03805              48.00    -8400.00
03806              48.00    -8000.00
03807              40.00    -7800.00
03808              38.00    -7800.00
03809              38.00    -7800.00
03810              38.00    -7400.00
03811              38.00    -7200.00
03812              38.00    -7000.00
03813              34.00    -7200.00
03814              30.00    -7000.00
03815              28.00    -6800.00
03816              30.00    -6600.00
03817              30.00    -6400.00
03818              32.00    -6200.00
03819              24.00    -6200.00
03820              22.00    -5800.00
03821              22.00    -5800.00
03822              22.00    -5400.00
03823              22.00    -5200.00
03824              22.00    -5200.00
03825              18.00    -4800.00
03826              16.00    -5000.00
03827              18.00    -4600.00
03828              16.00    -4400.00
03829              14.00    -4000.00
03830              14.00    -4000.00
03831              10.00    -4000.00
03832              14.00    -3600.00
03833              14.00    -3600.00
03834              10.00    -3200.00
03835               6.00    -3200.00
03836               8.00    -2800.00
03837               8.00    -2800.00
03838              10.00    -2600.00
03839               8.00    -2400.00
03840               6.00    -2200.00
03841               2.00    -2000.00
03842               2.00    -1600.00
03843               2.00    -1600.00
03844               6.00    -1400.00
03845               6.00    -1000.00
03846               6.00    -1000.00
03847               0.00     -800.00
03848               0.00     -600.00
03849               0.00     -400.00
03850              -2.00     -200.00
03851               4.00        0.00
03852               0.00      200.00
03853               0.00      400.00
03854               8.00      400.00
03855              26.00      800.00
03856              18.00      800.00
03857              -6.00     1200.00
03858             -16.00     1200.00
03859               2.00     1600.00
03860              14.00     1600.00
03861              96.00     1800.00
03862             246.00     2400.00
03863              36.00     2400.00
03864            -254.00     2400.00
03865            -254.00     2800.00
03866             -34.00     2800.00
03867             216.00     3200.00
03868             246.00     3600.00
03869            -186.00     3400.00
03870            -254.00     3600.00
03871             246.00     4000.00
03872             -70.00     4000.00
03873             -82.00     4200.00
03874             106.00     4400.00
03875            -136.00     4400.00
03876             150.00     4800.00
03877             -54.00     5000.00
03878            -168.00     5400.00
03879              42.00     5400.00
03880              -2.00     5600.00
03881              48.00     5600.00
03882             -64.00     5800.00
03883             -22.00     6000.00
03884             -50.00     6000.00
03885             -14.00     6400.00
03886              46.00     6600.00
03887            -114.00     6600.00
03888              16.00     7000.00
03889             -24.00     6800.00
03890             -26.00     7200.00
03891             -18.00     7400.00
03892             -72.00     7600.00
03893             -14.00     7600.00
03894               0.00     7800.00
03895             -24.00     8000.00
03896             -74.00     8000.00
03897             -32.00     8400.00
03898             -38.00     8400.00
03899             -22.00     8400.00
03900             -34.00     8800.00
03901             -56.00     8800.00
03902             -50.00     9000.00
03903             -40.00     9200.00
03904             -32.00     9200.00
03905             -46.00     9600.00
03906             -32.00     9600.00
03907             -70.00     9800.00
03908             -48.00     9800.00
03909             -50.00    10000.00
03910             -48.00    10000.00
03911             -42.00    10200.00
03912             -56.00    10200.00
03913             -72.00    10400.00
03914             -64.00    10400.00
03915             -46.00    10600.00
03916             -56.00    10600.00
03917             -60.00    10800.00
03918             -74.00    11000.00
03919             -74.00    10800.00
03920             -70.00    11200.00
03921             -66.00    11200.00
03922             -68.00    11200.00
03923             -70.00    11400.00
03924             -74.00    11400.00
03925             -80.00    11600.00
03926             -78.00    11600.00
03927             -88.00    11800.00
03928             -86.00    11800.00
03929             -80.00    11800.00
03930             -86.00    11800.00
03931             -94.00    12000.00
03932             -96.00    12000.00
03933             -98.00    12000.00
03934             -98.00    12000.00
03935             -94.00    12200.00
03936             -96.00    12200.00
03937             -98.00    12200.00
03938            -106.00    12200.00
03939            -118.00    12200.00
03940            -118.00    12200.00
03941            -114.00    12200.00
03942            -114.00    12200.00
03943            -112.00    12400.00
03944            -120.00    12400.00
03945            -128.00    12400.00
03946            -134.00    12400.00
03947            -134.00    12200.00
03948            -134.00    12400.00
03949            -130.00    12400.00
03950            -136.00    12400.00
03951            -142.00    12200.00
03952            -150.00    12200.00
03953            -154.00    12200.00
03954            -154.00    12400.00
03955            -146.00    12400.00
03956            -146.00    12200.00
03957            -152.00    12200.00
03958            -154.00    12000.00
03959            -158.00    12200.00
03960            -158.00    12200.00
03961            -154.00    12000.00
03962            -144.00    12000.00
03963            -144.00    12000.00
03964            -142.00    12000.00
03965            -146.00    11800.00
03966            -144.00    12000.00
03967            -140.00    11800.00
03968            -130.00    11800.00
03969            -128.00    11600.00
03970            -124.00    11600.00
03971            -122.00    11400.00
03972            -122.00    11400.00
03973            -120.00    11400.00
03974            -114.00    11200.00
03975            -106.00    11200.00
03976            -102.00    11200.00
03977             -96.00    10800.00
03978             -98.00    10800.00
03979            -102.00    10800.00
03980             -98.00    10800.00
03981             -88.00    10600.00
03982             -82.00    10400.00
03983             -80.00    10400.00
03984             -80.00    10200.00
03985             -80.00    10200.00
03986             -80.00    10000.00
03987             -74.00    10000.00
03988             -68.00     9800.00
03989             -64.00     9600.00
03990             -64.00     9600.00
03991             -64.00     9400.00
03992             -64.00     9200.00
03993             -62.00     9200.00
03994             -58.00     9000.00
03995             -54.00     9000.00
03996             -50.00     8800.00
03997             -48.00     8600.00
03998             -50.00     8400.00
03999             -50.00     8200.00
04000             -48.00     8000.00
04001             -46.00     8000.00
04002             -40.00     7600.00
04003             -38.00     7600.00
04004             -40.00     7600.00
04005             -38.00     7400.00
04006             -42.00     7200.00
04007             -38.00     7000.00
04008             -34.00     6800.00
04009             -30.00     6600.00
04010             -30.00     6600.00
04011             -32.00     6400.00
04012             -34.00     6200.00
04013             -30.00     5800.00
04014             -30.00     5800.00
04015             -22.00     5600.00
04016             -22.00     5400.00
04017             -24.00     5400.00
04018             -26.00     5400.00
04019             -26.00     4800.00
04020             -24.00     4800.00
04021             -22.00     4400.00
04022             -16.00     4400.00
04023             -16.00     4000.00
04024             -18.00     4000.00
04025             -22.00     3600.00
04026             -24.00     3600.00
04027             -16.00     3400.00
04028             -14.00     3200.00
04029             -14.00     3200.00
04030             -16.00     2800.00
04031             -14.00     2600.00
04032             -14.00     2600.00
04033             -14.00     2400.00
04034             -16.00     2000.00
04035             -10.00     1800.00
04036              -8.00     1600.00
04037             -10.00     1600.00
04038             -10.00     1200.00
04039             -10.00     1200.00
04040             -10.00      800.00
04041             -10.00      800.00
04042             -10.00      600.00
04043              -4.00      400.00
04044              -2.00      200.00
04045               0.00        0.00
04046              14.00     -400.00
04047              26.00     -400.00
04048               6.00     -600.00
04049             -16.00     -800.00
04050              -2.00    -1000.00
04051              10.00    -1200.00
04052              16.00    -1000.00
04053              64.00    -1400.00
04054             232.00    -1600.00
04055             162.00    -2200.00
04056            -254.00    -2400.00
04057            -254.00    -2600.00
04058             -34.00    -2800.00
04059              92.00    -2800.00
04060             166.00    -2800.00
04061             246.00    -3200.00
04062            -232.00    -3200.00
04063            -122.00    -3200.00
04064             208.00    -4000.00
04065             -34.00    -3600.00
04066              34.00    -4200.00
04067             -24.00    -4200.00
04068              38.00    -4400.00
04069              98.00    -4800.00
04070             -92.00    -4800.00
04071               0.00    -5000.00
04072             -20.00    -5200.00
04073              66.00    -5400.00
04074              96.00    -5600.00
04075             -56.00    -5600.00
04076              14.00    -6200.00
04077               6.00    -5800.00
04078              62.00    -6200.00
04079              40.00    -6400.00
04080             -18.00    -6200.00
04081              32.00    -6800.00
04082              18.00    -6800.00
04083              48.00    -7200.00
04084              -6.00    -7200.00
04085              18.00    -7200.00
04086              54.00    -7600.00
04087              22.00    -7400.00
04088              48.00    -8000.00
04089               8.00    -7800.00
04090              22.00    -8400.00
04091              50.00    -8200.00
04092              26.00    -8400.00
04093              16.00    -8600.00
04094              40.00    -8600.00
04095              46.00    -9000.00
04096              38.00    -9000.00
04097              42.00    -9200.00
04098              30.00    -9200.00
04099              34.00    -9400.00
04100              56.00    -9400.00
04101              40.00    -9600.00
04102              40.00    -9600.00
04103              54.00    -9800.00
04104              38.00   -10000.00
04105              48.00   -10000.00
04106              54.00   -10200.00
04107              54.00   -10200.00
04108              66.00   -10200.00
04109              62.00   -10400.00
04110              48.00   -10600.00
04111              54.00   -10600.00
04112              62.00   -10800.00
04113              64.00   -10800.00
04114              72.00   -11000.00
04115              74.00   -11000.00
04116              70.00   -11000.00
04117              74.00   -11200.00
04118              70.00   -11200.00
04119              72.00   -11200.00
04120              82.00   -11200.00
04121              82.00   -11400.00
04122              86.00   -11600.00
04123              86.00   -11600.00
04124              78.00   -11800.00
04125              86.00   -11600.00
04126              94.00   -11800.00
04127              96.00   -11800.00
04128              98.00   -11600.00
04129             102.00   -11600.00
04130             102.00   -11800.00
04131             104.00   -11800.00
04132             102.00   -11800.00
04133             102.00   -12000.00
04134             114.00   -12000.00
04135             126.00   -11800.00
04136             126.00   -12000.00
04137             126.00   -12000.00
04138             118.00   -12000.00
04139             118.00   -12000.00
04140             128.00   -11800.00
04141             138.00   -11800.00
04142             142.00   -12000.00
04143             142.00   -11800.00
04144             138.00   -12000.00
04145             134.00   -11800.00
04146             142.00   -12000.00
04147             146.00   -11800.00
04148             150.00   -11800.00
04149             154.00   -11800.00
04150             150.00   -11600.00
04151             144.00   -11800.00
04152             142.00   -11600.00
04153             142.00   -11600.00
04154             142.00   -11600.00
04155             146.00   -11600.00
04156             138.00   -11600.00
04157             134.00   -11600.00
04158             128.00   -11600.00
04159             122.00   -11400.00
04160             126.00   -11200.00
04161             126.00   -11200.00
04162             122.00   -11200.00
04163             116.00   -11000.00
04164             110.00   -11000.00
04165             102.00   -10800.00
04166             102.00   -10800.00
04167             102.00   -10800.00
04168              98.00   -10600.00
04169              96.00   -10600.00
04170              88.00   -10400.00
04171              84.00   -10400.00
04172              80.00   -10400.00
04173              78.00   -10200.00
04174              78.00   -10200.00
04175              78.00   -10000.00
04176              76.00    -9800.00
04177              64.00    -9800.00
04178              64.00    -9600.00
04179              62.00    -9400.00
04180              64.00    -9400.00
04181              64.00    -9200.00
04182              58.00    -9200.00
04183              54.00    -9000.00
04184              52.00    -8800.00
04185              48.00    -8800.00
04186              46.00    -8600.00
04187              48.00    -8400.00
04188              48.00    -8400.00
04189              46.00    -8000.00
04190              42.00    -8000.00
04191              40.00    -7800.00
04192              36.00    -7800.00
04193              38.00    -7400.00
04194              38.00    -7400.00
04195              38.00    -7200.00
04196              34.00    -7200.00
04197              32.00    -7000.00
04198              30.00    -6800.00
04199              30.00    -6600.00
04200              30.00    -6400.00
04201              32.00    -6200.00
04202              26.00    -6200.00
04203              26.00    -6000.00
04204              22.00    -5600.00
04205              18.00    -5600.00
04206              20.00    -5400.00
04207              22.00    -5200.00
04208              22.00    -5200.00
04209              20.00    -4800.00
04210              16.00    -4600.00
04211              14.00    -4600.00
04212              14.00    -4400.00
04213              14.00    -4000.00
04214              16.00    -4000.00
04215              16.00    -3800.00
04216              14.00    -3600.00
04217              10.00    -3400.00
04218               8.00    -3200.00
04219               8.00    -3000.00
04220               8.00    -3000.00
04221               8.00    -2800.00
04222               8.00    -2400.00
04223               6.00    -2400.00
04224               2.00    -2200.00
04225               2.00    -2000.00
04226               2.00    -1600.00
04227               2.00    -1400.00
04228               6.00    -1200.00
04229               2.00    -1000.00
04230               0.00     -800.00
04231               0.00     -800.00
04232              -2.00     -600.00
04233               0.00     -400.00
04234               0.00        0.00
04235               0.00      200.00
04236               2.00      400.00
04237               2.00      200.00
04238              16.00      800.00
04239              26.00      800.00
04240               0.00     1000.00
04241             -16.00     1200.00
04242              -6.00     1400.00
04243               8.00     1600.00
04244              34.00     1800.00
04245             224.00     2000.00
04246             246.00     2400.00
04247            -254.00     2400.00
04248            -254.00     2400.00
04249            -154.00     2600.00
04250              54.00     3000.00
04251             246.00     3200.00
04252             246.00     3400.00
04253            -254.00     3200.00
04254              22.00     3800.00
04255             216.00     4000.00
04256            -222.00     4000.00
04257             118.00     4400.00
04258             -56.00     4400.00
04259              -6.00     4800.00
04260             120.00     4800.00
04261            -210.00     5200.00
04262             -28.00     5400.00
04263              24.00     5400.00
04264              32.00     5800.00
04265               2.00     5600.00
04266             -70.00     6000.00
04267             -14.00     6200.00
04268             -72.00     6200.00
04269              72.00     6800.00
04270             -54.00     6400.00
04271             -70.00     6800.00
04272              22.00     7000.00
04273             -54.00     7200.00
04274               6.00     7400.00
04275             -58.00     7400.00
04276             -48.00     7600.00
04277             -10.00     7800.00
04278              -2.00     8000.00
04279             -50.00     8000.00
04280             -50.00     8200.00
04281             -24.00     8400.00
04282             -42.00     8400.00
04283             -26.00     8800.00
04284             -48.00     8800.00
04285             -44.00     9000.00
04286             -42.00     9200.00
04287             -24.00     9400.00
04288             -50.00     9400.00
04289             -42.00     9600.00
04290             -54.00     9600.00
04291             -62.00     9600.00
04292             -34.00     9800.00
04293             -52.00     9800.00
04294             -42.00    10000.00
04295             -56.00    10200.00
04296             -68.00    10400.00
04297             -72.00    10400.00
04298             -46.00    10600.00
04299             -48.00    10600.00
04300             -56.00    10600.00
04301             -66.00    10800.00
04302             -80.00    11000.00
04303             -72.00    11200.00
04304             -64.00    11000.00
04305             -64.00    11200.00
04306             -70.00    11400.00
04307             -74.00    11400.00
04308             -82.00    11400.00
04309             -78.00    11800.00
04310             -82.00    11800.00
04311             -88.00    11800.00
04312             -82.00    11800.00
04313             -82.00    12000.00
04314             -90.00    11800.00
04315             -96.00    12000.00
04316             -98.00    12000.00
04317            -102.00    12200.00
04318             -96.00    12000.00
04319             -96.00    12200.00
04320            -102.00    12200.00
04321            -104.00    12400.00
04322            -112.00    12200.00
04323            -118.00    12200.00
04324            -114.00    12200.00
04325            -114.00    12200.00
04326            -112.00    12400.00
04327            -114.00    12400.00
04328            -126.00    12400.00
04329            -134.00    12400.00
04330            -134.00    12400.00
04331            -134.00    12400.00
04332            -130.00    12400.00
04333            -134.00    12400.00
04334            -138.00    12200.00
04335            -144.00    12400.00
04336            -152.00    12400.00
04337            -154.00    12200.00
04338            -150.00    12200.00
04339            -146.00    12200.00
04340            -146.00    12200.00
04341            -152.00    12400.00
04342            -158.00    12200.00
04343            -160.00    12000.00
04344            -154.00    12200.00
04345            -146.00    12000.00
04346            -142.00    12000.00
04347            -140.00    12000.00
04348            -144.00    12000.00
04349            -144.00    12000.00
04350            -144.00    11600.00
04351            -136.00    11800.00
04352            -126.00    11800.00
04353            -122.00    11600.00
04354            -126.00    11800.00
04355            -126.00    11400.00
04356            -122.00    11400.00
04357            -118.00    11200.00
04358            -110.00    11200.00
04359            -104.00    11000.00
04360            -102.00    11200.00
04361            -100.00    11000.00
04362            -100.00    10800.00
04363             -98.00    10600.00
04364             -94.00    10400.00
04365             -86.00    10400.00
04366             -80.00    10400.00
04367             -78.00    10200.00
04368             -80.00    10200.00
04369             -78.00    10000.00
04370             -78.00    10000.00
04371             -72.00     9800.00
04372             -64.00     9800.00
04373             -64.00     9600.00
04374             -64.00     9600.00
04375             -64.00     9400.00
04376             -64.00     9200.00
04377             -62.00     9000.00
04378             -56.00     9000.00
04379             -50.00     8800.00
04380             -48.00     8600.00
04381             -50.00     8400.00
04382             -54.00     8400.00
04383             -52.00     8200.00
04384             -48.00     8000.00
04385             -38.00     7800.00
04386             -38.00     7600.00
04387             -42.00     7600.00
04388             -42.00     7400.00
04389             -40.00     7200.00
04390             -34.00     7200.00
04391             -34.00     7000.00
04392             -38.00     6800.00
04393             -32.00     6600.00
04394             -26.00     6400.00
04395             -30.00     6400.00
04396             -34.00     6400.00
04397             -32.00     6000.00
04398             -26.00     5800.00
04399             -18.00     5600.00
04400             -22.00     5400.00
04401             -30.00     5400.00
04402             -28.00     5000.00
04403             -28.00     4800.00
04404             -24.00     4600.00
04405             -16.00     4400.00
04406             -16.00     4200.00
04407             -16.00     4000.00
04408             -18.00     4000.00
04409             -22.00     3800.00
04410             -18.00     3600.00
04411             -16.00     3200.00
04412             -14.00     3200.00
04413             -10.00     3000.00
04414             -10.00     2600.00
04415             -16.00     2600.00
04416             -16.00     2400.00
04417             -12.00     2200.00
04418             -10.00     1800.00
04419             -10.00     1800.00
04420             -10.00     1600.00
04421             -14.00     1600.00
04422             -12.00     1200.00
04423              -8.00     1000.00
04424             -10.00      800.00
04425              -6.00      800.00
04426              -4.00      400.00
04427              -6.00      200.00
04428               0.00        0.00
04429               6.00        0.00
04430              26.00     -400.00
04431              16.00     -400.00
04432              -8.00     -800.00
04433             -14.00     -800.00
04434               0.00    -1000.00
04435              14.00    -1200.00
04436              30.00    -1400.00
04437             138.00    -1400.00
04438             246.00    -2000.00
04439             -74.00    -2200.00
04440            -254.00    -2400.00
04441            -218.00    -2800.00
04442              78.00    -2600.00
04443              86.00    -2600.00
04444             246.00    -3000.00
04445              40.00    -3400.00
04446            -254.00    -3200.00
04447             130.00    -3800.00
04448              86.00    -3800.00
04449             -28.00    -3600.00
04450              30.00    -4600.00
04451             -38.00    -4000.00
04452             126.00    -4600.00
04453             -26.00    -4800.00
04454             -68.00    -4800.00
04455              10.00    -5200.00
04456              -8.00    -5000.00
04457             134.00    -5600.00
04458              -6.00    -5400.00
04459             -34.00    -5800.00
04460              22.00    -6000.00
04461              22.00    -6000.00
04462              72.00    -6600.00
04463              -8.00    -6200.00
04464              16.00    -6800.00
04465              22.00    -6800.00
04466              42.00    -6800.00
04467              24.00    -7200.00
04468             -18.00    -7200.00
04469              54.00    -7400.00
04470              38.00    -7600.00
04471              42.00    -7800.00
04472              32.00    -7800.00
04473              -2.00    -8000.00
04474              48.00    -8400.00
04475              48.00    -8400.00
04476              18.00    -8600.00
04477              30.00    -8800.00
04478              46.00    -8800.00
04479              38.00    -8800.00
04480              40.00    -9000.00
04481              38.00    -9200.00
04482              26.00    -9200.00
04483              48.00    -9400.00
04484              50.00    -9600.00
04485              32.00    -9600.00
04486              54.00    -9800.00
04487              48.00   -10000.00
04488              40.00   -10000.00
04489              50.00   -10000.00
04490              46.00   -10200.00
04491              58.00   -10200.00
04492              70.00   -10400.00
04493              54.00   -10400.00
04494              50.00   -10600.00
04495              56.00   -10600.00
04496              58.00   -10800.00
04497              66.00   -10800.00
04498              78.00   -11000.00
04499              66.00   -11000.00
04500              70.00   -11200.00
04501              74.00   -11200.00
04502              66.00   -11200.00
04503              78.00   -11200.00
04504              80.00   -11400.00
04505              82.00   -11600.00
04506              88.00   -11400.00
04507              86.00   -11400.00
04508              80.00   -11600.00
04509              90.00   -11600.00
04510              94.00   -11800.00
04511              98.00   -11800.00
04512             102.00   -11600.00
04513             104.00   -11800.00
04514             102.00   -12000.00
04515             104.00   -12000.00
04516             102.00   -11800.00
04517             110.00   -12000.00
04518             124.00   -11800.00
04519             122.00   -11800.00
04520             118.00   -12000.00
04521             120.00   -12000.00
04522             118.00   -12000.00
04523             128.00   -12000.00
04524             138.00   -12000.00
04525             136.00   -12000.00
04526             138.00   -11800.00
04527             136.00   -12000.00
04528             136.00   -11800.00
04529             142.00   -12000.00
04530             150.00   -11800.00
04531             150.00   -11800.00
04532             152.00   -11800.00
04533             150.00   -12000.00
04534             144.00   -11800.00
04535             144.00   -11600.00
04536             144.00   -11600.00
04537             142.00   -11600.00
04538             146.00   -11600.00
04539             142.00   -11400.00
04540             136.00   -11600.00
04541             132.00   -11400.00
04542             126.00   -11400.00
04543             120.00   -11200.00
04544             128.00   -11200.00
04545             126.00   -11200.00
04546             120.00   -11200.00
04547             112.00   -11000.00
04548             104.00   -11000.00
04549             102.00   -10800.00
04550             102.00   -10800.00
04551             102.00   -10600.00
04552             102.00   -10600.00
04553              90.00   -10400.00
04554              88.00   -10600.00
04555              82.00   -10200.00
04556              74.00   -10200.00
04557              80.00   -10000.00
04558              80.00   -10000.00
04559              72.00   -10000.00
04560              70.00    -9800.00
04561              66.00    -9600.00
04562              60.00    -9600.00
04563              62.00    -9400.00
04564              62.00    -9400.00
04565              60.00    -9200.00
04566              60.00    -9000.00
04567              54.00    -8800.00
04568              48.00    -8800.00
04569              48.00    -8800.00
04570              46.00    -8600.00
04571              44.00    -8400.00
04572              50.00    -8400.00
04573              46.00    -8000.00
04574              38.00    -8000.00
04575              32.00    -7800.00
04576              32.00    -7600.00
04577              40.00    -7400.00
04578              46.00    -7200.00
04579              34.00    -7200.00
04580              28.00    -7000.00
04581              24.00    -6800.00
04582              26.00    -6600.00
04583              32.00    -6800.00
04584              28.00    -6400.00
04585              24.00    -6200.00
04586              30.00    -6000.00
04587              24.00    -6200.00
04588              18.00    -5600.00
04589              16.00    -5600.00
04590              22.00    -5200.00
04591              22.00    -5200.00
04592              24.00    -4800.00
04593              16.00    -4800.00
04594              16.00    -4600.00
04595              16.00    -4400.00
04596              12.00    -4000.00
04597              14.00    -4000.00
04598              16.00    -3800.00
04599              16.00    -3600.00
04600              10.00    -3600.00
04601              10.00    -3200.00
04602              10.00    -3000.00
04603              10.00    -3000.00
04604               8.00    -2800.00
04605               6.00    -2800.00
04606              10.00    -2200.00
04607              10.00    -2200.00
04608               6.00    -2000.00
04609               0.00    -1800.00
04610               0.00    -1600.00
04611               6.00    -1400.00
04612               6.00    -1400.00
04613               2.00    -1000.00
04614               0.00     -800.00
04615              -2.00     -600.00
04616              -2.00     -400.00
04617              -2.00     -200.00
04618               2.00      200.00
04619               2.00      200.00
04620               2.00      400.00
04621               6.00      400.00
04622              22.00      800.00
04623              14.00      800.00
04624              -8.00     1000.00
04625             -10.00     1200.00
04626               2.00     1600.00
04627              14.00     1600.00
04628             104.00     1800.00
04629             246.00     2200.00
04630               0.00     2400.00
04631            -254.00     2400.00
04632            -254.00     2600.00
04633             -24.00     2800.00
04634             238.00     3200.00
04635             246.00     3600.00
04636            -240.00     3200.00
04637            -254.00     3600.00
04638             246.00     4000.00
04639             -96.00     4000.00
04640             -64.00     4200.00
04641              96.00     4400.00
04642            -128.00     4400.00
04643             158.00     4800.00
04644             -80.00     4800.00
04645            -162.00     5400.00
04646              40.00     5200.00
04647               2.00     5600.00
04648              48.00     5600.00
04649             -66.00     5800.00
04650             -22.00     6000.00
04651             -58.00     6000.00
04652              -2.00     6400.00
04653              40.00     6400.00
04654            -114.00     6600.00
04655              18.00     7000.00
04656             -30.00     7000.00
04657             -26.00     7400.00
04658             -24.00     7400.00
04659             -72.00     7600.00
04660             -14.00     7600.00
04661               0.00     8000.00
04662             -22.00     8000.00
04663             -70.00     8000.00
04664             -28.00     8400.00
04665             -42.00     8400.00
04666             -28.00     8800.00
04667             -38.00     8800.00
04668             -48.00     9000.00
04669             -46.00     9000.00
04670             -32.00     9200.00
04671             -38.00     9400.00
04672             -50.00     9600.00
04673             -38.00     9800.00
04674             -66.00     9600.00
04675             -42.00     9800.00
04676             -48.00    10000.00
04677             -48.00    10000.00
04678             -46.00    10200.00
04679             -62.00    10200.00
04680             -74.00    10400.00
04681             -58.00    10400.00
04682             -42.00    10800.00
04683             -54.00    10600.00
04684             -58.00    10800.00
04685             -74.00    10800.00
04686             -80.00    11000.00
04687             -70.00    11000.00
04688             -64.00    11200.00
04689             -70.00    11200.00
04690             -70.00    11400.00
04691             -78.00    11400.00
04692             -82.00    11400.00
04693             -80.00    11800.00
04694             -90.00    11600.00
04695             -84.00    11800.00
04696             -80.00    11800.00
04697             -86.00    12000.00
04698             -90.00    12000.00
04699             -96.00    12000.00
04700            -106.00    12000.00
04701            -102.00    12000.00
04702             -94.00    12200.00
04703             -96.00    12200.00
04704             -98.00    12200.00
04705            -114.00    12200.00
04706            -122.00    12400.00
04707            -106.00    12200.00
04708            -108.00    12200.00
04709            -126.00    12400.00
04710            -122.00    12400.00
04711            -114.00    12400.00
04712            -118.00    12400.00
04713            -136.00    12400.00
04714            -150.00    12400.00
04715            -134.00    12200.00
04716            -120.00    12400.00
04717            -132.00    12400.00
04718            -144.00    12400.00
04719            -152.00    12400.00
04720            -162.00    12200.00
04721            -154.00    12200.00
04722            -142.00    12200.00
04723            -138.00    12200.00
04724            -146.00    12400.00
04725            -162.00    12200.00
04726            -162.00    12000.00
04727            -152.00    12200.00
04728            -152.00    12000.00
04729            -150.00    12000.00
04730            -134.00    12000.00
04731            -136.00    12000.00
04732            -150.00    12000.00
04733            -150.00    11800.00
04734            -138.00    11800.00
04735            -126.00    11800.00
04736            -120.00    11600.00
04737            -126.00    11600.00
04738            -126.00    11600.00
04739            -122.00    11400.00
04740            -120.00    11400.00
04741            -110.00    11200.00
04742             -98.00    11200.00
04743            -104.00    11000.00
04744            -106.00    10800.00
04745            -102.00    10800.00
04746             -96.00    10800.00
04747             -90.00    10600.00
04748             -90.00    10600.00
04749             -88.00    10400.00
04750             -82.00    10400.00
04751             -80.00    10200.00
04752             -78.00    10200.00
04753             -74.00    10000.00
04754             -78.00     9800.00
04755             -74.00     9600.00
04756             -66.00     9600.00
04757             -58.00     9600.00
04758             -64.00     9200.00
04759             -66.00     9200.00
04760             -64.00     9200.00
04761             -56.00     9000.00
04762             -54.00     8800.00
04763             -54.00     8800.00
04764             -50.00     8400.00
04765             -50.00     8400.00
04766             -50.00     8200.00
04767             -48.00     8200.00
04768             -42.00     8000.00
04769             -40.00     7800.00
04770             -40.00     7600.00
04771             -42.00     7400.00
04772             -38.00     7200.00
04773             -42.00     7200.00
04774             -40.00     7000.00
04775             -40.00     6800.00
04776             -32.00     6600.00
04777             -30.00     6400.00
04778             -32.00     6400.00
04779             -34.00     6200.00
04780             -32.00     5800.00
04781             -30.00     5800.00
04782             -26.00     5600.00
04783             -22.00     5600.00
04784             -24.00     5400.00
04785             -26.00     5200.00
04786             -30.00     5000.00
04787             -30.00     4800.00
04788             -18.00     4600.00
04789             -16.00     4400.00
04790             -14.00     4000.00
04791             -20.00     4000.00
04792             -18.00     3800.00
04793             -20.00     3600.00
04794             -18.00     3400.00
04795             -14.00     3200.00
04796             -14.00     3000.00
04797             -14.00     2800.00
04798             -14.00     2800.00
04799             -16.00     2400.00
04800             -16.00     2200.00
04801             -14.00     2000.00
04802             -10.00     1800.00
04803              -8.00     1800.00
04804              -6.00     1600.00
04805             -10.00     1400.00
04806             -12.00     1000.00
04807             -12.00     1000.00
04808             -10.00      800.00
04809              -6.00      600.00
04810              -2.00      400.00
04811              -2.00        0.00
04812               2.00        0.00
04813              14.00     -200.00
04814              26.00     -400.00
04815               0.00     -400.00
04816             -16.00     -800.00
04817              -2.00     -800.00
04818              10.00    -1000.00
04819              16.00    -1400.00
04820              64.00    -1400.00
04821             238.00    -1600.00
04822             144.00    -2200.00
04823            -254.00    -2400.00
04824            -254.00    -2400.00
04825             -18.00    -2800.00
04826              82.00    -2600.00
04827             182.00    -2800.00
04828             246.00    -3400.00
04829            -254.00    -3200.00
04830             -94.00    -3400.00
04831             206.00    -4000.00
04832             -48.00    -3600.00
04833              32.00    -4000.00
04834             -32.00    -4200.00
04835              56.00    -4400.00
04836              90.00    -4800.00
04837            -104.00    -4600.00
04838               0.00    -5200.00
04839             -22.00    -4800.00
04840              80.00    -5400.00
04841              94.00    -5400.00
04842             -64.00    -5600.00
04843              14.00    -6000.00
04844               2.00    -5600.00
04845              62.00    -6200.00
04846              32.00    -6400.00
04847              -8.00    -6400.00
04848              38.00    -7000.00
04849              14.00    -6800.00
04850              48.00    -7200.00
04851             -14.00    -7200.00
04852              26.00    -7200.00
04853              56.00    -7600.00
04854              22.00    -7400.00
04855              46.00    -7800.00
04856               8.00    -7800.00
04857              24.00    -8200.00
04858              54.00    -8200.00
04859              26.00    -8400.00
04860              18.00    -8600.00
04861              40.00    -8600.00
04862              42.00    -8800.00
04863              38.00    -9000.00
04864              44.00    -9200.00
04865              36.00    -9200.00
04866              38.00    -9200.00
04867              56.00    -9400.00
04868              46.00    -9600.00
04869              50.00    -9800.00
04870              42.00    -9600.00
04871              42.00   -10000.00
04872              32.00   -10000.00
04873              50.00   -10200.00
04874              38.00   -10000.00
04875              38.00   -10400.00
04876             106.00   -10400.00
04877              72.00   -10400.00
04878              98.00   -10800.00
04879              50.00   -10600.00
04880              58.00   -11000.00
04881              42.00   -10800.00
04882              40.00   -11200.00
04883              24.00   -11000.00
04884              70.00   -11000.00
04885             122.00   -11000.00
04886              94.00   -11200.00
04887              96.00   -11400.00
04888              70.00   -11200.00
04889              88.00   -11600.00
04890              78.00   -11400.00
04891              82.00   -11600.00
04892              84.00   -11600.00
04893              80.00   -11800.00
04894              88.00   -11800.00
04895              82.00   -11600.00
04896             126.00   -11800.00
04897             126.00   -11800.00
04898             106.00   -11800.00
04899              94.00   -11800.00
04900              94.00   -12000.00
04901             102.00   -12000.00
04902             124.00   -12000.00
04903             136.00   -12000.00
04904             126.00   -12000.00
04905             106.00   -11800.00
04906              98.00   -11800.00
04907             130.00   -11800.00
04908             166.00   -11800.00
04909             158.00   -11800.00
04910             134.00   -12000.00
04911             126.00   -12000.00
04912             120.00   -11800.00
04913             136.00   -12000.00
04914             150.00   -11800.00
04915             154.00   -11800.00
04916             158.00   -12000.00
04917             156.00   -11800.00
04918             144.00   -11800.00
04919             142.00   -11600.00
04920             142.00   -11800.00
04921             136.00   -11600.00
04922             142.00   -11600.00
04923             136.00   -11600.00
04924             134.00   -11400.00
04925             134.00   -11600.00
04926             128.00   -11400.00
04927             128.00   -11200.00
04928             128.00   -11200.00
04929             120.00   -11200.00
04930             108.00   -11200.00
04931             104.00   -11000.00
04932             102.00   -10800.00
04933             112.00   -10800.00
04934             110.00   -10800.00
04935             100.00   -10600.00
04936              94.00   -10400.00
04937              88.00   -10400.00
04938              88.00   -10200.00
04939              82.00   -10200.00
04940              78.00   -10000.00
04941              72.00   -10200.00
04942              78.00   -10000.00
04943              72.00    -9800.00
04944              70.00    -9600.00
04945              64.00    -9600.00
04946              62.00    -9400.00
04947              64.00    -9400.00
04948              62.00    -9200.00
04949              58.00    -9200.00
04950              54.00    -9000.00
04951              52.00    -8800.00
04952              48.00    -8800.00
04953              48.00    -8600.00
04954              48.00    -8400.00
04955              48.00    -8400.00
04956              46.00    -8000.00
04957              42.00    -8000.00
04958              38.00    -7800.00
04959              34.00    -7800.00
04960              38.00    -7400.00
04961              34.00    -7200.00
04962              38.00    -7200.00
04963              32.00    -7000.00
04964              26.00    -7000.00
04965              30.00    -6800.00
04966              30.00    -6600.00
04967              30.00    -6400.00
04968              30.00    -6200.00
04969              26.00    -6200.00
04970              22.00    -6000.00
04971              22.00    -5800.00
04972              22.00    -5600.00
04973              22.00    -5400.00
04974              20.00    -5200.00
04975              18.00    -5200.00
04976              16.00    -4800.00
04977              22.00    -4600.00
04978              18.00    -4400.00
04979              14.00    -4400.00
04980              14.00    -4000.00
04981              10.00    -4000.00
04982              14.00    -3600.00
04983              16.00    -3600.00
04984              14.00    -3200.00
04985              14.00    -3200.00
04986               8.00    -3000.00
04987               6.00    -2800.00
04988               6.00    -2600.00
04989               8.00    -2400.00
04990              10.00    -2200.00
04991               6.00    -2200.00
04992               0.00    -1800.00
04993               0.00    -1600.00
04994               6.00    -1400.00
04995               8.00    -1000.00
04996               8.00    -1000.00
04997               2.00     -800.00
04998              -2.00     -600.00
04999              -2.00     -600.00
05000               0.00        0.00
