Unit:(mV)
                     CH1         CH2
Frequency              ? 260.991 kHz
00001              14.00    -3400.00
00002              14.00    -3200.00
00003               8.00    -3200.00
00004               8.00    -2800.00
00005               8.00    -2600.00
00006               8.00    -2400.00
00007              10.00    -2200.00
00008               8.00    -2200.00
00009               2.00    -2000.00
00010               4.00    -1600.00
00011               6.00    -1400.00
00012               8.00    -1400.00
00013               6.00    -1000.00
00014               2.00    -1000.00
00015               0.00     -800.00
00016               0.00     -600.00
00017              -2.00     -400.00
00018               0.00        0.00
00019               6.00        0.00
00020               6.00      200.00
00021               2.00      400.00
00022              16.00      600.00
00023              26.00      800.00
00024               6.00     1000.00
00025             -16.00     1000.00
00026             -10.00     1200.00
00027              12.00     1600.00
00028              30.00     1800.00
00029             190.00     1800.00
00030             246.00     2400.00
00031            -210.00     2400.00
00032            -254.00     2600.00
00033            -218.00     2800.00
00034              58.00     2800.00
00035             246.00     3200.00
00036             246.00     3600.00
00037            -254.00     3200.00
00038            -254.00     3400.00
00039             246.00     4000.00
00040            -134.00     4000.00
00041              72.00     4200.00
00042             -10.00     4400.00
00043            -146.00     4400.00
00044             182.00     4800.00
00045            -114.00     5000.00
00046            -126.00     5400.00
00047              16.00     5400.00
00048              32.00     5600.00
00049              30.00     5600.00
00050             -80.00     5800.00
00051              -8.00     6000.00
00052            -106.00     6000.00
00053              46.00     6400.00
00054              16.00     6400.00
00055            -126.00     6600.00
00056              18.00     7000.00
00057             -40.00     6800.00
00058             -14.00     7200.00
00059             -34.00     7200.00
00060             -64.00     7600.00
00061             -32.00     7600.00
00062               2.00     8000.00
00063             -32.00     8000.00
00064             -80.00     8000.00
00065             -14.00     8400.00
00066             -42.00     8400.00
00067             -36.00     8800.00
00068             -44.00     8800.00
00069             -64.00     9000.00
00070             -56.00     9000.00
00071             -14.00     9200.00
00072             -40.00     9200.00
00073             -58.00     9400.00
00074             -50.00     9600.00
00075             -90.00     9600.00
00076             -38.00     9800.00
00077             -32.00    10000.00
00078             -40.00    10000.00
00079             -62.00    10000.00
00080             -74.00    10200.00
00081             -90.00    10400.00
00082             -54.00    10400.00
00083             -34.00    10600.00
00084             -66.00    10600.00
00085             -66.00    10800.00
00086             -82.00    10800.00
00087             -82.00    10800.00
00088             -64.00    11200.00
00089             -72.00    11200.00
00090             -86.00    11200.00
00091             -70.00    11200.00
00092             -82.00    11400.00
00093             -84.00    11600.00
00094             -80.00    11600.00
00095             -96.00    11800.00
00096             -90.00    11800.00
00097             -86.00    11800.00
00098             -96.00    12000.00
00099             -96.00    12000.00
00100             -98.00    12000.00
00101            -110.00    12000.00
00102            -106.00    12000.00
00103            -100.00    12000.00
00104            -108.00    12000.00
00105            -112.00    12200.00
00106            -116.00    12000.00
00107            -122.00    12200.00
00108            -122.00    12000.00
00109            -126.00    12200.00
00110            -128.00    12200.00
00111            -122.00    12200.00
00112            -128.00    12400.00
00113            -138.00    12200.00
00114            -144.00    12200.00
00115            -142.00    12200.00
00116            -142.00    12200.00
00117            -144.00    12200.00
00118            -146.00    12200.00
00119            -152.00    12200.00
00120            -160.00    12200.00
00121            -162.00    12200.00
00122            -160.00    12200.00
00123            -152.00    12200.00
00124            -152.00    12200.00
00125            -160.00    12000.00
00126            -168.00    12200.00
00127            -168.00    12000.00
00128            -160.00    12000.00
00129            -150.00    12000.00
00130            -146.00    12000.00
00131            -148.00    12000.00
00132            -150.00    12000.00
00133            -150.00    11800.00
00134            -150.00    11600.00
00135            -138.00    11600.00
00136            -132.00    11600.00
00137            -128.00    11600.00
00138            -128.00    11400.00
00139            -130.00    11200.00
00140            -128.00    11400.00
00141            -120.00    11200.00
00142            -114.00    11200.00
00143            -102.00    10800.00
00144             -98.00    10800.00
00145            -102.00    10800.00
00146            -106.00    10800.00
00147            -106.00    10600.00
00148             -98.00    10400.00
00149             -86.00    10400.00
00150             -80.00    10400.00
00151             -80.00    10200.00
00152             -82.00    10000.00
00153             -82.00    10000.00
00154             -80.00    10000.00
00155             -74.00     9800.00
00156             -70.00     9600.00
00157             -64.00     9600.00
00158             -64.00     9400.00
00159             -66.00     9200.00
00160             -70.00     9000.00
00161             -66.00     9000.00
00162             -58.00     8800.00
00163             -50.00     8600.00
00164             -48.00     8600.00
00165             -50.00     8400.00
00166             -56.00     8200.00
00167             -54.00     8000.00
00168             -54.00     8000.00
00169             -42.00     7600.00
00170             -42.00     7600.00
00171             -42.00     7600.00
00172             -42.00     7200.00
00173             -42.00     7200.00
00174             -42.00     7200.00
00175             -38.00     6800.00
00176             -38.00     6600.00
00177             -38.00     6400.00
00178             -34.00     6400.00
00179             -34.00     6200.00
00180             -38.00     6000.00
00181             -32.00     6000.00
00182             -32.00     5600.00
00183             -26.00     5600.00
00184             -22.00     5400.00
00185             -30.00     5200.00
00186             -30.00     5000.00
00187             -28.00     4800.00
00188             -26.00     4400.00
00189             -18.00     4400.00
00190             -22.00     4200.00
00191             -22.00     4000.00
00192             -24.00     4000.00
00193             -22.00     3600.00
00194             -20.00     3400.00
00195             -16.00     3200.00
00196             -18.00     3200.00
00197             -16.00     2800.00
00198             -16.00     2800.00
00199             -16.00     2600.00
00200             -14.00     2200.00
00201              -8.00     2000.00
00202              -8.00     2000.00
00203             -10.00     1600.00
00204             -14.00     1600.00
00205             -16.00     1200.00
00206              -8.00     1200.00
00207              -2.00     1000.00
00208              -6.00      800.00
00209             -10.00      600.00
00210             -10.00      400.00
00211              -2.00        0.00
00212               6.00      200.00
00213              16.00        0.00
00214              30.00     -400.00
00215               6.00     -600.00
00216             -18.00     -800.00
00217             -14.00     -800.00
00218              16.00    -1000.00
00219              24.00    -1200.00
00220              32.00    -1400.00
00221             134.00    -1400.00
00222             246.00    -2000.00
00223             -78.00    -2400.00
00224            -254.00    -2400.00
00225            -234.00    -2800.00
00226             118.00    -2800.00
00227             102.00    -2600.00
00228             246.00    -2800.00
00229             112.00    -3600.00
00230            -254.00    -3200.00
00231              92.00    -3800.00
00232             134.00    -3800.00
00233             -48.00    -3600.00
00234              70.00    -4400.00
00235             -62.00    -4200.00
00236              74.00    -4600.00
00237              42.00    -4800.00
00238             -74.00    -5000.00
00239             -16.00    -5200.00
00240              12.00    -5200.00
00241             144.00    -5600.00
00242              -2.00    -5600.00
00243             -32.00    -5800.00
00244              18.00    -6400.00
00245             -16.00    -6000.00
00246              98.00    -6400.00
00247              14.00    -6400.00
00248              -4.00    -6600.00
00249              28.00    -7000.00
00250              30.00    -6800.00
00251              30.00    -7200.00
00252               0.00    -7200.00
00253              50.00    -7600.00
00254              32.00    -7600.00
00255              42.00    -7600.00
00256              32.00    -8000.00
00257               0.00    -7800.00
00258              56.00    -8400.00
00259              42.00    -8200.00
00260              24.00    -8600.00
00261              38.00    -8800.00
00262              38.00    -8800.00
00263              42.00    -9000.00
00264              54.00    -9000.00
00265              40.00    -9400.00
00266              38.00    -9400.00
00267              52.00    -9400.00
00268              50.00    -9600.00
00269              48.00    -9600.00
00270              58.00    -9800.00
00271              50.00   -10000.00
00272              48.00   -10000.00
00273              62.00   -10000.00
00274              48.00   -10200.00
00275              66.00   -10200.00
00276              78.00   -10400.00
00277              62.00   -10400.00
00278              62.00   -10800.00
00279              58.00   -10800.00
00280              60.00   -10800.00
00281              78.00   -10800.00
00282              88.00   -10800.00
00283              78.00   -11200.00
00284              78.00   -11200.00
00285              72.00   -11200.00
00286              70.00   -11200.00
00287              88.00   -11200.00
00288              94.00   -11200.00
00289              94.00   -11600.00
00290              96.00   -11600.00
00291              86.00   -11600.00
00292              82.00   -11600.00
00293             102.00   -11800.00
00294             110.00   -11600.00
00295             110.00   -11800.00
00296             108.00   -11800.00
00297             102.00   -11800.00
00298             102.00   -12000.00
00299             112.00   -11800.00
00300             112.00   -12000.00
00301             120.00   -11800.00
00302             128.00   -11800.00
00303             122.00   -12000.00
00304             124.00   -12000.00
00305             124.00   -12000.00
00306             122.00   -12000.00
00307             136.00   -12000.00
00308             144.00   -12000.00
00309             142.00   -12000.00
00310             144.00   -11800.00
00311             144.00   -12000.00
00312             144.00   -12000.00
00313             148.00   -11800.00
00314             150.00   -12000.00
00315             154.00   -11800.00
00316             158.00   -11800.00
00317             158.00   -11800.00
00318             150.00   -11600.00
00319             146.00   -11600.00
00320             144.00   -11600.00
00321             146.00   -11600.00
00322             152.00   -11600.00
00323             150.00   -11400.00
00324             142.00   -11600.00
00325             134.00   -11600.00
00326             126.00   -11600.00
00327             130.00   -11200.00
00328             132.00   -11400.00
00329             132.00   -11200.00
00330             122.00   -11000.00
00331             114.00   -11000.00
00332             104.00   -11000.00
00333             110.00   -10800.00
00334             104.00   -10800.00
00335             106.00   -10800.00
00336             102.00   -10600.00
00337              96.00   -10400.00
00338              90.00   -10400.00
00339              88.00   -10200.00
00340              84.00   -10200.00
00341              82.00   -10000.00
00342              84.00   -10000.00
00343              80.00    -9800.00
00344              78.00    -9600.00
00345              70.00    -9600.00
00346              64.00    -9400.00
00347              64.00    -9400.00
00348              68.00    -9200.00
00349              70.00    -9000.00
00350              58.00    -9200.00
00351              54.00    -8800.00
00352              50.00    -8800.00
00353              50.00    -8800.00
00354              50.00    -8600.00
00355              48.00    -8400.00
00356              54.00    -8200.00
00357              50.00    -8000.00
00358              40.00    -8000.00
00359              38.00    -7800.00
00360              38.00    -7600.00
00361              40.00    -7400.00
00362              42.00    -7400.00
00363              34.00    -7200.00
00364              30.00    -7000.00
00365              30.00    -6800.00
00366              32.00    -6800.00
00367              30.00    -6400.00
00368              32.00    -6200.00
00369              30.00    -6200.00
00370              32.00    -6000.00
00371              30.00    -6000.00
00372              18.00    -5600.00
00373              16.00    -5400.00
00374              22.00    -5200.00
00375              24.00    -5200.00
00376              30.00    -4800.00
00377              22.00    -4800.00
00378              10.00    -4600.00
00379               8.00    -4600.00
00380              18.00    -4000.00
00381              24.00    -3800.00
00382              14.00    -3800.00
00383               0.00    -3600.00
00384               8.00    -3600.00
00385              26.00    -3200.00
00386              18.00    -3000.00
00387              -2.00    -3000.00
00388             -10.00    -2600.00
00389               6.00    -2600.00
00390              26.00    -2200.00
00391              20.00    -2200.00
00392               0.00    -2000.00
00393             -10.00    -1600.00
00394              -6.00    -1600.00
00395               6.00    -1400.00
00396              16.00    -1400.00
00397              14.00    -1000.00
00398               2.00     -800.00
00399              -6.00     -600.00
00400             -10.00     -400.00
00401              -6.00     -200.00
00402               0.00        0.00
00403              10.00      400.00
00404              16.00      400.00
00405              16.00      600.00
00406              24.00      800.00
00407              -2.00      800.00
00408             -14.00     1200.00
00409              -6.00     1400.00
00410              10.00     1400.00
00411              18.00     1600.00
00412             148.00     2000.00
00413             246.00     2400.00
00414            -112.00     2400.00
00415            -254.00     2200.00
00416            -254.00     2800.00
00417              32.00     2800.00
00418             246.00     3000.00
00419             246.00     3400.00
00420            -254.00     3200.00
00421            -254.00     3600.00
00422             246.00     4000.00
00423             -90.00     4000.00
00424               8.00     4200.00
00425              48.00     4400.00
00426            -174.00     4400.00
00427             178.00     4800.00
00428             -64.00     4800.00
00429            -166.00     5200.00
00430              16.00     5400.00
00431              26.00     5600.00
00432              46.00     5600.00
00433             -82.00     5600.00
00434              -6.00     6200.00
00435             -86.00     6000.00
00436               2.00     6400.00
00437              46.00     6600.00
00438            -144.00     6600.00
00439              30.00     6800.00
00440             -62.00     7000.00
00441             -32.00     7200.00
00442               6.00     7400.00
00443             -42.00     7600.00
00444              -8.00     7600.00
00445             -38.00     8000.00
00446             -34.00     8000.00
00447            -114.00     8000.00
00448             -36.00     8400.00
00449             -46.00     8400.00
00450               2.00     8400.00
00451             -24.00     9000.00
00452             -66.00     8800.00
00453             -66.00     9000.00
00454             -30.00     9200.00
00455             -26.00     9200.00
00456             -70.00     9400.00
00457             -44.00     9600.00
00458             -86.00     9600.00
00459             -50.00     9800.00
00460             -58.00    10000.00
00461             -48.00    10000.00
00462             -44.00    10200.00
00463             -50.00    10400.00
00464             -82.00    10400.00
00465             -66.00    10400.00
00466             -38.00    10600.00
00467             -68.00    10600.00
00468             -74.00    10800.00
00469             -88.00    11000.00
00470             -82.00    10800.00
00471             -72.00    11200.00
00472             -56.00    11200.00
00473             -66.00    11200.00
00474             -64.00    11400.00
00475             -80.00    11400.00
00476             -96.00    11800.00
00477             -86.00    11600.00
00478             -98.00    11800.00
00479            -100.00    11800.00
00480             -86.00    11800.00
00481             -80.00    11800.00
00482             -96.00    12000.00
00483             -98.00    12000.00
00484            -112.00    12000.00
00485            -108.00    12000.00
00486             -96.00    12200.00
00487            -102.00    12000.00
00488            -112.00    12200.00
00489            -120.00    12200.00
00490            -128.00    12200.00
00491            -120.00    12200.00
00492            -112.00    12200.00
00493            -120.00    12200.00
00494            -126.00    12200.00
00495            -134.00    12200.00
00496            -144.00    12200.00
00497            -144.00    12200.00
00498            -138.00    12200.00
00499            -142.00    12200.00
00500            -142.00    12200.00
00501            -144.00    12200.00
00502            -154.00    12200.00
00503            -160.00    12200.00
00504            -162.00    12200.00
00505            -160.00    12200.00
00506            -152.00    12200.00
00507            -146.00    12200.00
00508            -160.00    12000.00
00509            -168.00    12200.00
00510            -170.00    12000.00
00511            -166.00    12000.00
00512            -150.00    12000.00
00513            -146.00    12000.00
00514            -150.00    11800.00
00515            -152.00    11800.00
00516            -154.00    11800.00
00517            -152.00    11600.00
00518            -138.00    11800.00
00519            -128.00    11600.00
00520            -126.00    11400.00
00521            -128.00    11400.00
00522            -130.00    11400.00
00523            -130.00    11400.00
00524            -122.00    11200.00
00525            -114.00    11200.00
00526            -106.00    11000.00
00527            -104.00    11000.00
00528            -104.00    10800.00
00529            -104.00    10800.00
00530            -102.00    10600.00
00531             -98.00    10600.00
00532             -94.00    10400.00
00533             -86.00    10400.00
00534             -82.00    10000.00
00535             -80.00    10200.00
00536             -82.00    10000.00
00537             -82.00    10000.00
00538             -78.00     9600.00
00539             -70.00     9600.00
00540             -66.00     9600.00
00541             -66.00     9400.00
00542             -64.00     9200.00
00543             -64.00     9200.00
00544             -62.00     9000.00
00545             -60.00     9000.00
00546             -56.00     8800.00
00547             -50.00     8400.00
00548             -50.00     8400.00
00549             -50.00     8400.00
00550             -54.00     8200.00
00551             -54.00     8000.00
00552             -48.00     8000.00
00553             -38.00     7800.00
00554             -40.00     7600.00
00555             -42.00     7400.00
00556             -42.00     7400.00
00557             -48.00     7200.00
00558             -40.00     6800.00
00559             -40.00     6600.00
00560             -34.00     6400.00
00561             -32.00     6400.00
00562             -36.00     6400.00
00563             -40.00     6000.00
00564             -34.00     5800.00
00565             -26.00     5600.00
00566             -26.00     5600.00
00567             -28.00     5400.00
00568             -30.00     5200.00
00569             -32.00     5000.00
00570             -26.00     4800.00
00571             -26.00     4800.00
00572             -22.00     4400.00
00573             -18.00     4200.00
00574             -24.00     4000.00
00575             -26.00     4000.00
00576             -24.00     3800.00
00577             -18.00     3400.00
00578             -16.00     3400.00
00579             -22.00     3000.00
00580             -24.00     2800.00
00581             -18.00     2600.00
00582              -8.00     2600.00
00583             -10.00     2400.00
00584             -14.00     2000.00
00585             -18.00     2000.00
00586             -18.00     1800.00
00587             -10.00     1600.00
00588              -6.00     1400.00
00589              -6.00     1200.00
00590             -10.00     1200.00
00591             -14.00      800.00
00592             -14.00      600.00
00593              -2.00      400.00
00594               4.00      200.00
00595               6.00        0.00
00596               4.00        0.00
00597              22.00     -400.00
00598              16.00     -600.00
00599              -8.00     -800.00
00600             -10.00     -800.00
00601               6.00    -1000.00
00602              16.00    -1200.00
00603              30.00    -1400.00
00604             112.00    -1600.00
00605             246.00    -1800.00
00606              -2.00    -2400.00
00607            -254.00    -2400.00
00608            -254.00    -2400.00
00609              94.00    -2800.00
00610             112.00    -2800.00
00611             246.00    -2800.00
00612             200.00    -3200.00
00613            -254.00    -3200.00
00614              16.00    -3600.00
00615             182.00    -3800.00
00616             -58.00    -3600.00
00617              74.00    -4400.00
00618             -54.00    -4200.00
00619              46.00    -4400.00
00620              74.00    -4800.00
00621             -72.00    -4800.00
00622             -18.00    -5200.00
00623             -10.00    -5000.00
00624             128.00    -5600.00
00625              30.00    -5600.00
00626             -40.00    -5600.00
00627              32.00    -6200.00
00628             -26.00    -6000.00
00629              84.00    -6400.00
00630              30.00    -6400.00
00631             -14.00    -6400.00
00632              32.00    -7000.00
00633              24.00    -6800.00
00634              32.00    -7200.00
00635              -2.00    -7200.00
00636              44.00    -7400.00
00637              32.00    -7800.00
00638              38.00    -7600.00
00639              42.00    -8000.00
00640               2.00    -7800.00
00641              50.00    -8400.00
00642              44.00    -8400.00
00643              22.00    -8600.00
00644              38.00    -8800.00
00645              42.00    -8800.00
00646              40.00    -9000.00
00647              48.00    -9000.00
00648              42.00    -9200.00
00649              38.00    -9400.00
00650              50.00    -9400.00
00651              50.00    -9600.00
00652              46.00    -9600.00
00653              58.00    -9600.00
00654              50.00   -10000.00
00655              50.00   -10000.00
00656              58.00   -10200.00
00657              48.00   -10200.00
00658              62.00   -10400.00
00659              72.00   -10200.00
00660              64.00   -10600.00
00661              62.00   -10400.00
00662              60.00   -10600.00
00663              64.00   -10800.00
00664              74.00   -10800.00
00665              80.00   -11000.00
00666              78.00   -11000.00
00667              80.00   -11000.00
00668              80.00   -11000.00
00669              70.00   -11200.00
00670              78.00   -11200.00
00671              88.00   -11200.00
00672              94.00   -11400.00
00673             102.00   -11600.00
00674              94.00   -11600.00
00675              82.00   -11600.00
00676              96.00   -11800.00
00677             104.00   -11800.00
00678             106.00   -11800.00
00679             112.00   -11600.00
00680             110.00   -11800.00
00681             104.00   -11800.00
00682             114.00   -11800.00
00683             112.00   -11800.00
00684             114.00   -11800.00
00685             130.00   -12000.00
00686             126.00   -12000.00
00687             128.00   -12000.00
00688             132.00   -11800.00
00689             130.00   -12000.00
00690             136.00   -12000.00
00691             136.00   -12000.00
00692             134.00   -12000.00
00693             144.00   -11800.00
00694             152.00   -12000.00
00695             152.00   -11800.00
00696             150.00   -11800.00
00697             146.00   -11800.00
00698             150.00   -11800.00
00699             160.00   -11800.00
00700             156.00   -11800.00
00701             146.00   -11800.00
00702             148.00   -11800.00
00703             148.00   -11800.00
00704             152.00   -11600.00
00705             150.00   -11600.00
00706             148.00   -11600.00
00707             138.00   -11600.00
00708             128.00   -11400.00
00709             130.00   -11400.00
00710             136.00   -11400.00
00711             128.00   -11200.00
00712             126.00   -11200.00
00713             118.00   -11200.00
00714             116.00   -11000.00
00715             110.00   -10800.00
00716             110.00   -10800.00
00717             104.00   -10800.00
00718             106.00   -10800.00
00719             102.00   -10800.00
00720              98.00   -10400.00
00721              90.00   -10400.00
00722              86.00   -10400.00
00723              86.00   -10200.00
00724              90.00   -10000.00
00725              86.00   -10000.00
00726              76.00    -9800.00
00727              70.00    -9600.00
00728              66.00    -9600.00
00729              70.00    -9600.00
00730              70.00    -9200.00
00731              64.00    -9200.00
00732              64.00    -9200.00
00733              66.00    -9000.00
00734              62.00    -9000.00
00735              54.00    -8800.00
00736              42.00    -8800.00
00737              40.00    -8600.00
00738              48.00    -8400.00
00739              56.00    -8400.00
00740              60.00    -8000.00
00741              54.00    -8000.00
00742              38.00    -7800.00
00743              28.00    -7600.00
00744              28.00    -7400.00
00745              38.00    -7400.00
00746              50.00    -7200.00
00747              48.00    -7200.00
00748              38.00    -6800.00
00749              24.00    -6800.00
00750              18.00    -6400.00
00751              26.00    -6400.00
00752              34.00    -6200.00
00753              32.00    -6200.00
00754              26.00    -6000.00
00755              22.00    -5600.00
00756              24.00    -5600.00
00757              24.00    -5200.00
00758              18.00    -5200.00
00759              16.00    -5200.00
00760              14.00    -4800.00
00761              18.00    -4800.00
00762              26.00    -4400.00
00763              22.00    -4400.00
00764              10.00    -4000.00
00765               6.00    -3800.00
00766               8.00    -3800.00
00767              16.00    -3600.00
00768              20.00    -3200.00
00769              14.00    -3000.00
00770               6.00    -3000.00
00771               0.00    -2800.00
00772               6.00    -2600.00
00773              16.00    -2400.00
00774              14.00    -2200.00
00775               2.00    -2000.00
00776              -2.00    -1600.00
00777               6.00    -1600.00
00778               8.00    -1400.00
00779               8.00    -1200.00
00780               0.00    -1000.00
00781              -2.00     -800.00
00782              -2.00     -600.00
00783              -6.00     -400.00
00784               0.00     -400.00
00785               8.00      200.00
00786               8.00      200.00
00787               6.00      400.00
00788               8.00      400.00
00789              22.00      600.00
00790               6.00     1000.00
00791             -14.00     1000.00
00792             -10.00     1200.00
00793               8.00     1400.00
00794              16.00     1600.00
00795             114.00     1800.00
00796             246.00     2400.00
00797             -22.00     2400.00
00798            -254.00     2400.00
00799            -254.00     2600.00
00800              18.00     2800.00
00801             246.00     3000.00
00802             246.00     3400.00
00803            -222.00     3400.00
00804            -254.00     3400.00
00805             246.00     4000.00
00806              -4.00     4000.00
00807             -42.00     4200.00
00808              94.00     4400.00
00809            -200.00     4400.00
00810             138.00     4800.00
00811               4.00     5000.00
00812            -180.00     5400.00
00813               6.00     5400.00
00814              14.00     5600.00
00815              56.00     5600.00
00816             -72.00     5800.00
00817             -16.00     6000.00
00818             -78.00     6000.00
00819             -22.00     6400.00
00820              78.00     6600.00
00821            -128.00     6400.00
00822              -6.00     6800.00
00823             -16.00     6800.00
00824             -34.00     7200.00
00825             -26.00     7200.00
00826             -70.00     7400.00
00827             -34.00     7600.00
00828              -2.00     7800.00
00829              -6.00     8000.00
00830             -90.00     8000.00
00831             -38.00     8400.00
00832             -36.00     8400.00
00833             -42.00     8800.00
00834             -28.00     8800.00
00835             -50.00     8800.00
00836             -64.00     9000.00
00837             -34.00     9200.00
00838             -38.00     9200.00
00839             -62.00     9400.00
00840             -30.00     9600.00
00841             -74.00     9600.00
00842             -58.00     9600.00
00843             -42.00     9800.00
00844             -56.00    10000.00
00845             -54.00    10000.00
00846             -62.00    10400.00
00847             -82.00    10400.00
00848             -64.00    10400.00
00849             -38.00    10400.00
00850             -62.00    10600.00
00851             -68.00    10600.00
00852             -78.00    10800.00
00853             -88.00    10800.00
00854             -70.00    11000.00
00855             -62.00    11200.00
00856             -78.00    11200.00
00857             -74.00    11200.00
00858             -80.00    11400.00
00859             -90.00    11400.00
00860             -80.00    11800.00
00861             -90.00    11600.00
00862             -96.00    11800.00
00863             -86.00    11600.00
00864             -88.00    11800.00
00865             -98.00    12000.00
00866             -98.00    12000.00
00867            -106.00    12000.00
00868            -110.00    12000.00
00869             -98.00    12000.00
00870            -104.00    12200.00
00871            -106.00    12200.00
00872            -114.00    12200.00
00873            -128.00    12200.00
00874            -126.00    12200.00
00875            -118.00    12200.00
00876            -120.00    12200.00
00877            -122.00    12200.00
00878            -128.00    12200.00
00879            -136.00    12400.00
00880            -142.00    12200.00
00881            -144.00    12200.00
00882            -144.00    12400.00
00883            -134.00    12200.00
00884            -142.00    12000.00
00885            -154.00    12200.00
00886            -158.00    12200.00
00887            -162.00    12200.00
00888            -162.00    12000.00
00889            -154.00    12200.00
00890            -152.00    12000.00
00891            -166.00    12200.00
00892            -168.00    12200.00
00893            -160.00    12000.00
00894            -154.00    12000.00
00895            -150.00    12000.00
00896            -160.00    12000.00
00897            -162.00    12000.00
00898            -144.00    11800.00
00899            -138.00    12000.00
00900            -144.00    11600.00
00901            -146.00    11800.00
00902            -142.00    11600.00
00903            -134.00    11400.00
00904            -128.00    11600.00
00905            -124.00    11400.00
00906            -122.00    11200.00
00907            -126.00    11200.00
00908            -130.00    11200.00
00909            -120.00    11000.00
00910             -96.00    11000.00
00911             -82.00    10800.00
00912             -94.00    10800.00
00913            -118.00    10600.00
00914            -122.00    10400.00
00915             -96.00    10400.00
00916             -66.00    10400.00
00917             -66.00    10400.00
00918             -86.00    10000.00
00919            -102.00    10000.00
00920             -90.00    10000.00
00921             -70.00     9800.00
00922             -62.00     9600.00
00923             -66.00     9600.00
00924             -70.00     9400.00
00925             -66.00     9200.00
00926             -64.00     9200.00
00927             -64.00     9000.00
00928             -64.00     9000.00
00929             -56.00     8800.00
00930             -48.00     8400.00
00931             -48.00     8400.00
00932             -54.00     8400.00
00933             -58.00     8200.00
00934             -54.00     8000.00
00935             -46.00     8000.00
00936             -38.00     7600.00
00937             -40.00     7600.00
00938             -48.00     7400.00
00939             -48.00     7200.00
00940             -44.00     7200.00
00941             -32.00     6800.00
00942             -32.00     6800.00
00943             -34.00     6600.00
00944             -38.00     6400.00
00945             -38.00     6000.00
00946             -34.00     6000.00
00947             -28.00     5800.00
00948             -26.00     5800.00
00949             -30.00     5600.00
00950             -30.00     5400.00
00951             -30.00     5200.00
00952             -32.00     5000.00
00953             -26.00     4800.00
00954             -30.00     4600.00
00955             -26.00     4400.00
00956             -22.00     4200.00
00957             -22.00     4000.00
00958             -22.00     4000.00
00959             -18.00     3600.00
00960             -22.00     3400.00
00961             -22.00     3400.00
00962             -18.00     3000.00
00963             -22.00     3000.00
00964             -16.00     2800.00
00965             -14.00     2600.00
00966             -18.00     2400.00
00967             -18.00     2200.00
00968             -16.00     2000.00
00969             -10.00     1800.00
00970              -6.00     1600.00
00971              -8.00     1600.00
00972             -14.00     1200.00
00973             -16.00     1000.00
00974             -12.00      800.00
00975              -8.00      600.00
00976              -2.00      400.00
00977               0.00      200.00
00978              -2.00        0.00
00979               0.00     -200.00
00980              26.00     -400.00
00981              24.00     -400.00
00982              -6.00     -600.00
00983             -22.00     -800.00
00984              -2.00    -1200.00
00985              22.00    -1200.00
00986              26.00    -1400.00
00987              90.00    -1600.00
00988             246.00    -2000.00
00989              72.00    -2400.00
00990            -254.00    -2400.00
00991            -254.00    -2800.00
00992              48.00    -2800.00
00993             128.00    -2800.00
00994             222.00    -2600.00
00995             246.00    -3400.00
00996            -254.00    -3200.00
00997             -78.00    -3600.00
00998             222.00    -4000.00
00999             -48.00    -3600.00
01000              70.00    -4400.00
01001             -42.00    -4400.00
01002              16.00    -4400.00
01003              98.00    -4800.00
01004             -64.00    -4800.00
01005             -26.00    -5200.00
01006             -22.00    -5200.00
01007             118.00    -5400.00
01008              70.00    -5600.00
01009             -46.00    -5400.00
01010              32.00    -6200.00
01011             -40.00    -6000.00
01012              66.00    -6200.00
01013              60.00    -6400.00
01014              -8.00    -6400.00
01015              34.00    -7000.00
01016              16.00    -6800.00
01017              34.00    -7200.00
01018               0.00    -7200.00
01019              38.00    -7400.00
01020              38.00    -7800.00
01021              34.00    -7400.00
01022              50.00    -8000.00
01023               0.00    -8000.00
01024              40.00    -8200.00
01025              54.00    -8400.00
01026              22.00    -8400.00
01027              32.00    -8600.00
01028              40.00    -8800.00
01029              42.00    -9000.00
01030              54.00    -9000.00
01031              46.00    -9200.00
01032              32.00    -9400.00
01033              42.00    -9400.00
01034              48.00    -9400.00
01035              48.00    -9600.00
01036              62.00    -9800.00
01037              58.00    -9600.00
01038              46.00   -10200.00
01039              56.00   -10000.00
01040              46.00   -10200.00
01041              54.00   -10200.00
01042              78.00   -10400.00
01043              70.00   -10400.00
01044              58.00   -10600.00
01045              62.00   -10800.00
01046              56.00   -10800.00
01047              66.00   -10800.00
01048              82.00   -10800.00
01049              78.00   -11000.00
01050              76.00   -11000.00
01051              80.00   -11000.00
01052              72.00   -11200.00
01053              80.00   -11200.00
01054              88.00   -11400.00
01055              82.00   -11200.00
01056              96.00   -11600.00
01057              98.00   -11600.00
01058              90.00   -11600.00
01059              96.00   -11600.00
01060              96.00   -11600.00
01061              98.00   -11800.00
01062             110.00   -11800.00
01063             112.00   -11800.00
01064             110.00   -11800.00
01065             114.00   -12000.00
01066             110.00   -11800.00
01067             112.00   -11800.00
01068             126.00   -12000.00
01069             128.00   -12000.00
01070             128.00   -12000.00
01071             134.00   -12000.00
01072             126.00   -12000.00
01073             134.00   -12000.00
01074             142.00   -11800.00
01075             146.00   -12000.00
01076             146.00   -12000.00
01077             144.00   -12000.00
01078             142.00   -12000.00
01079             150.00   -11800.00
01080             154.00   -12000.00
01081             154.00   -11800.00
01082             154.00   -11800.00
01083             154.00   -11800.00
01084             150.00   -11800.00
01085             150.00   -11800.00
01086             144.00   -11600.00
01087             146.00   -11800.00
01088             150.00   -11600.00
01089             148.00   -11600.00
01090             142.00   -11600.00
01091             134.00   -11400.00
01092             128.00   -11400.00
01093             128.00   -11400.00
01094             130.00   -11200.00
01095             130.00   -11200.00
01096             126.00   -11200.00
01097             114.00   -11000.00
01098             106.00   -11000.00
01099             106.00   -11000.00
01100             104.00   -10800.00
01101             106.00   -10800.00
01102             104.00   -10400.00
01103              96.00   -10400.00
01104              88.00   -10400.00
01105              82.00   -10400.00
01106              82.00   -10200.00
01107              86.00   -10200.00
01108              82.00   -10000.00
01109              80.00    -9800.00
01110              74.00    -9800.00
01111              70.00    -9600.00
01112              64.00    -9400.00
01113              64.00    -9400.00
01114              64.00    -9200.00
01115              66.00    -9200.00
01116              62.00    -9200.00
01117              58.00    -9000.00
01118              54.00    -8800.00
01119              50.00    -8800.00
01120              50.00    -8600.00
01121              48.00    -8400.00
01122              50.00    -8200.00
01123              50.00    -8200.00
01124              46.00    -8000.00
01125              40.00    -7800.00
01126              38.00    -7400.00
01127              40.00    -7400.00
01128              38.00    -7400.00
01129              38.00    -7200.00
01130              34.00    -7000.00
01131              32.00    -7000.00
01132              32.00    -6800.00
01133              30.00    -6600.00
01134              30.00    -6400.00
01135              32.00    -6200.00
01136              30.00    -6200.00
01137              26.00    -6000.00
01138              24.00    -5600.00
01139              22.00    -5600.00
01140              22.00    -5200.00
01141              24.00    -5400.00
01142              22.00    -5000.00
01143              22.00    -4800.00
01144              16.00    -4600.00
01145              14.00    -4400.00
01146              14.00    -4400.00
01147              14.00    -4000.00
01148              16.00    -3800.00
01149              14.00    -3800.00
01150              10.00    -3600.00
01151              14.00    -3200.00
01152               8.00    -3200.00
01153               8.00    -3000.00
01154               8.00    -2800.00
01155               8.00    -2600.00
01156               8.00    -2400.00
01157               8.00    -2200.00
01158               2.00    -2000.00
01159               0.00    -2000.00
01160               4.00    -1600.00
01161               6.00    -1400.00
01162               6.00    -1200.00
01163               2.00    -1000.00
01164               0.00     -800.00
01165              -2.00     -600.00
01166              -2.00     -400.00
01167               0.00     -400.00
01168               2.00        0.00
01169               6.00      200.00
01170               2.00      400.00
01171               6.00      400.00
01172              30.00      800.00
01173              16.00     1000.00
01174             -10.00     1000.00
01175             -18.00     1200.00
01176              -2.00     1400.00
01177              16.00     1800.00
01178              90.00     1800.00
01179             246.00     2200.00
01180              66.00     2400.00
01181            -254.00     2400.00
01182            -254.00     2600.00
01183             -16.00     2800.00
01184             196.00     3000.00
01185             246.00     3400.00
01186             -48.00     3400.00
01187            -254.00     3400.00
01188             214.00     4000.00
01189              78.00     4000.00
01190             -96.00     4200.00
01191             134.00     4400.00
01192            -194.00     4400.00
01193              88.00     4800.00
01194              56.00     4800.00
01195            -194.00     5200.00
01196              -6.00     5400.00
01197              16.00     5600.00
01198              62.00     5800.00
01199             -58.00     5600.00
01200             -30.00     6200.00
01201             -54.00     6000.00
01202             -52.00     6400.00
01203              90.00     6600.00
01204            -112.00     6400.00
01205             -32.00     6800.00
01206               0.00     6800.00
01207             -42.00     7200.00
01208             -10.00     7400.00
01209             -66.00     7400.00
01210             -38.00     7600.00
01211             -14.00     7600.00
01212              -2.00     8000.00
01213             -84.00     8000.00
01214             -42.00     8400.00
01215             -26.00     8400.00
01216             -42.00     8400.00
01217             -30.00     8800.00
01218             -52.00     8800.00
01219             -64.00     9000.00
01220             -34.00     9200.00
01221             -26.00     9200.00
01222             -64.00     9400.00
01223             -38.00     9600.00
01224             -72.00     9600.00
01225             -64.00     9800.00
01226             -38.00    10000.00
01227             -54.00     9800.00
01228             -54.00    10000.00
01229             -62.00    10200.00
01230             -78.00    10400.00
01231             -74.00    10400.00
01232             -38.00    10600.00
01233             -62.00    10600.00
01234             -70.00    10800.00
01235             -78.00    10800.00
01236             -90.00    10800.00
01237             -74.00    11200.00
01238             -64.00    11000.00
01239             -74.00    11200.00
01240             -74.00    11200.00
01241             -80.00    11400.00
01242             -92.00    11400.00
01243             -80.00    11600.00
01244             -86.00    11800.00
01245             -92.00    11600.00
01246             -88.00    11800.00
01247             -86.00    11800.00
01248             -98.00    12000.00
01249            -102.00    12000.00
01250            -106.00    12000.00
01251            -106.00    12000.00
01252             -98.00    12000.00
01253            -102.00    12000.00
01254            -110.00    12200.00
01255            -112.00    12000.00
01256            -122.00    12200.00
01257            -124.00    12200.00
01258            -120.00    12200.00
01259            -122.00    12200.00
01260            -120.00    12200.00
01261            -122.00    12200.00
01262            -138.00    12400.00
01263            -144.00    12400.00
01264            -138.00    12200.00
01265            -138.00    12200.00
01266            -136.00    12200.00
01267            -142.00    12200.00
01268            -152.00    12400.00
01269            -160.00    12200.00
01270            -160.00    12200.00
01271            -160.00    12200.00
01272            -154.00    12200.00
01273            -152.00    12200.00
01274            -158.00    12200.00
01275            -162.00    12200.00
01276            -162.00    12200.00
01277            -164.00    12000.00
01278            -156.00    12000.00
01279            -150.00    12000.00
01280            -150.00    12000.00
01281            -152.00    12000.00
01282            -152.00    11800.00
01283            -152.00    11600.00
01284            -142.00    11800.00
01285            -134.00    11600.00
01286            -130.00    11400.00
01287            -128.00    11400.00
01288            -130.00    11400.00
01289            -128.00    11400.00
01290            -124.00    11200.00
01291            -118.00    11200.00
01292            -112.00    11200.00
01293            -104.00    10800.00
01294            -106.00    10800.00
01295            -106.00    10600.00
01296            -104.00    10600.00
01297             -96.00    10400.00
01298             -94.00    10400.00
01299             -86.00    10400.00
01300             -82.00    10000.00
01301             -82.00    10200.00
01302             -86.00    10000.00
01303             -86.00     9800.00
01304             -80.00     9800.00
01305             -72.00     9600.00
01306             -68.00     9600.00
01307             -66.00     9600.00
01308             -66.00     9400.00
01309             -66.00     9200.00
01310             -66.00     9000.00
01311             -62.00     8800.00
01312             -58.00     8800.00
01313             -54.00     8600.00
01314             -50.00     8400.00
01315             -54.00     8400.00
01316             -56.00     8000.00
01317             -54.00     8200.00
01318             -48.00     8000.00
01319             -40.00     7600.00
01320             -40.00     7600.00
01321             -46.00     7400.00
01322             -42.00     7400.00
01323             -40.00     7200.00
01324             -42.00     6800.00
01325             -38.00     6800.00
01326             -34.00     6600.00
01327             -34.00     6600.00
01328             -32.00     6400.00
01329             -34.00     6000.00
01330             -32.00     5800.00
01331             -30.00     5600.00
01332             -26.00     5600.00
01333             -30.00     5400.00
01334             -26.00     5200.00
01335             -30.00     5000.00
01336             -26.00     5000.00
01337             -24.00     4600.00
01338             -30.00     4400.00
01339             -24.00     4200.00
01340             -16.00     4200.00
01341             -18.00     3800.00
01342             -16.00     3600.00
01343             -20.00     3600.00
01344             -22.00     3400.00
01345             -18.00     3200.00
01346             -16.00     2800.00
01347             -18.00     2800.00
01348             -18.00     2600.00
01349             -16.00     2400.00
01350             -10.00     2000.00
01351             -10.00     2000.00
01352             -14.00     1800.00
01353             -12.00     1600.00
01354              -6.00     1400.00
01355             -10.00     1200.00
01356             -12.00     1000.00
01357             -14.00      800.00
01358             -14.00      800.00
01359              -6.00      400.00
01360               0.00      200.00
01361               0.00      200.00
01362               2.00        0.00
01363              18.00     -200.00
01364              22.00     -600.00
01365              -2.00     -600.00
01366             -14.00     -800.00
01367               0.00    -1000.00
01368              16.00    -1200.00
01369              16.00    -1400.00
01370              70.00    -1600.00
01371             246.00    -2000.00
01372             140.00    -2200.00
01373            -254.00    -2400.00
01374            -254.00    -2400.00
01375               6.00    -2600.00
01376             134.00    -2800.00
01377             170.00    -2800.00
01378             246.00    -3200.00
01379            -254.00    -3400.00
01380            -154.00    -3400.00
01381             238.00    -4000.00
01382             -32.00    -3600.00
01383              54.00    -4000.00
01384             -16.00    -4400.00
01385             -18.00    -4000.00
01386             112.00    -4800.00
01387             -52.00    -4800.00
01388             -30.00    -5200.00
01389             -16.00    -5000.00
01390              96.00    -5200.00
01391              86.00    -5600.00
01392             -62.00    -5400.00
01393              30.00    -6000.00
01394             -16.00    -6000.00
01395              60.00    -6200.00
01396              74.00    -6400.00
01397             -24.00    -6400.00
01398              24.00    -6800.00
01399              22.00    -6800.00
01400              46.00    -7000.00
01401              10.00    -7200.00
01402              32.00    -7200.00
01403              42.00    -7600.00
01404              30.00    -7400.00
01405              54.00    -8000.00
01406               6.00    -8000.00
01407              30.00    -8200.00
01408              56.00    -8400.00
01409              24.00    -8400.00
01410              34.00    -8800.00
01411              46.00    -8800.00
01412              40.00    -9000.00
01413              48.00    -9000.00
01414              42.00    -9200.00
01415              30.00    -9400.00
01416              46.00    -9400.00
01417              56.00    -9400.00
01418              50.00    -9400.00
01419              58.00    -9600.00
01420              54.00    -9800.00
01421              42.00   -10000.00
01422              58.00   -10000.00
01423              54.00   -10200.00
01424              56.00   -10200.00
01425              74.00   -10400.00
01426              62.00   -10600.00
01427              54.00   -10600.00
01428              64.00   -10800.00
01429              64.00   -10800.00
01430              72.00   -10800.00
01431              82.00   -10800.00
01432              74.00   -11200.00
01433              72.00   -11200.00
01434              78.00   -11200.00
01435              72.00   -11200.00
01436              80.00   -11200.00
01437              88.00   -11200.00
01438              86.00   -11400.00
01439              94.00   -11600.00
01440              94.00   -11600.00
01441              86.00   -11600.00
01442              94.00   -11600.00
01443             102.00   -11800.00
01444              98.00   -11800.00
01445             104.00   -11800.00
01446             106.00   -11800.00
01447             112.00   -11800.00
01448             114.00   -12000.00
01449             108.00   -11800.00
01450             112.00   -11800.00
01451             126.00   -12000.00
01452             128.00   -12000.00
01453             128.00   -11800.00
01454             128.00   -12000.00
01455             122.00   -12000.00
01456             134.00   -12000.00
01457             142.00   -11800.00
01458             142.00   -12000.00
01459             146.00   -12000.00
01460             148.00   -11800.00
01461             146.00   -11800.00
01462             146.00   -11800.00
01463             146.00   -11800.00
01464             156.00   -11800.00
01465             160.00   -11800.00
01466             158.00   -11600.00
01467             150.00   -11600.00
01468             150.00   -11800.00
01469             150.00   -11600.00
01470             152.00   -11600.00
01471             148.00   -11600.00
01472             146.00   -11600.00
01473             140.00   -11600.00
01474             142.00   -11600.00
01475             134.00   -11400.00
01476             136.00   -11400.00
01477             128.00   -11200.00
01478             126.00   -11200.00
01479             120.00   -11000.00
01480             118.00   -11200.00
01481             114.00   -11000.00
01482             112.00   -10800.00
01483             102.00   -11000.00
01484              98.00   -10800.00
01485              98.00   -10800.00
01486              98.00   -10600.00
01487              96.00   -10400.00
01488              90.00   -10400.00
01489              84.00   -10200.00
01490              80.00   -10000.00
01491              80.00   -10000.00
01492              80.00   -10000.00
01493              74.00    -9800.00
01494              66.00    -9600.00
01495              66.00    -9400.00
01496              70.00    -9400.00
01497              70.00    -9400.00
01498              62.00    -9200.00
01499              56.00    -9200.00
01500              54.00    -8800.00
01501              54.00    -8800.00
01502              54.00    -8800.00
01503              48.00    -8600.00
01504              48.00    -8400.00
01505              52.00    -8200.00
01506              54.00    -8000.00
01507              48.00    -8000.00
01508              38.00    -7800.00
01509              38.00    -7800.00
01510              36.00    -7400.00
01511              42.00    -7200.00
01512              40.00    -7200.00
01513              34.00    -7000.00
01514              32.00    -6800.00
01515              30.00    -6800.00
01516              24.00    -6600.00
01517              30.00    -6400.00
01518              34.00    -6200.00
01519              32.00    -6200.00
01520              30.00    -6000.00
01521              22.00    -5800.00
01522              22.00    -5600.00
01523              22.00    -5200.00
01524              22.00    -5200.00
01525              22.00    -4800.00
01526              24.00    -4800.00
01527              22.00    -4600.00
01528              18.00    -4400.00
01529              14.00    -4400.00
01530              10.00    -4000.00
01531              14.00    -3800.00
01532              22.00    -3800.00
01533              16.00    -3400.00
01534              14.00    -3200.00
01535               6.00    -3200.00
01536               6.00    -3000.00
01537               8.00    -2800.00
01538              14.00    -2600.00
01539              10.00    -2400.00
01540               8.00    -2200.00
01541               6.00    -2000.00
01542               4.00    -2000.00
01543               2.00    -1600.00
01544               0.00    -1600.00
01545               0.00    -1200.00
01546               2.00    -1000.00
01547               6.00     -800.00
01548               2.00     -600.00
01549               0.00     -600.00
01550              -2.00     -200.00
01551              -2.00        0.00
01552               2.00        0.00
01553               0.00      400.00
01554               6.00      400.00
01555              30.00      600.00
01556              18.00      800.00
01557              -8.00     1000.00
01558             -20.00     1200.00
01559              -2.00     1400.00
01560               8.00     1600.00
01561              66.00     1800.00
01562             246.00     2200.00
01563             148.00     2400.00
01564            -254.00     2400.00
01565            -254.00     2600.00
01566             -56.00     3000.00
01567             146.00     2800.00
01568             246.00     3400.00
01569             118.00     3400.00
01570            -254.00     3400.00
01571             118.00     3800.00
01572             162.00     4000.00
01573            -144.00     4000.00
01574             144.00     4400.00
01575            -162.00     4400.00
01576              30.00     4800.00
01577             112.00     4800.00
01578            -198.00     5200.00
01579             -30.00     5400.00
01580              14.00     5600.00
01581              58.00     5600.00
01582             -36.00     5600.00
01583             -46.00     6000.00
01584             -32.00     6000.00
01585             -80.00     6200.00
01586              94.00     6600.00
01587             -86.00     6600.00
01588             -50.00     6800.00
01589              14.00     6800.00
01590             -50.00     7200.00
01591             -10.00     7400.00
01592             -58.00     7600.00
01593             -38.00     7600.00
01594             -16.00     7800.00
01595               2.00     8000.00
01596             -72.00     8000.00
01597             -54.00     8200.00
01598             -26.00     8400.00
01599             -48.00     8400.00
01600             -24.00     9000.00
01601             -44.00     8800.00
01602             -58.00     9000.00
01603             -42.00     9200.00
01604             -26.00     9200.00
01605             -62.00     9200.00
01606             -38.00     9600.00
01607             -66.00     9600.00
01608             -70.00     9600.00
01609             -38.00     9800.00
01610             -50.00    10000.00
01611             -48.00    10200.00
01612             -62.00    10400.00
01613             -80.00    10400.00
01614             -80.00    10400.00
01615             -40.00    10400.00
01616             -54.00    10600.00
01617             -70.00    10600.00
01618             -74.00    10800.00
01619             -86.00    10800.00
01620             -74.00    11000.00
01621             -66.00    11000.00
01622             -78.00    11200.00
01623             -76.00    11200.00
01624             -74.00    11400.00
01625             -90.00    11600.00
01626             -88.00    11400.00
01627             -94.00    11400.00
01628             -96.00    11800.00
01629             -88.00    11800.00
01630             -84.00    11800.00
01631             -96.00    11800.00
01632            -100.00    12000.00
01633            -106.00    12000.00
01634            -110.00    12000.00
01635            -102.00    12200.00
01636             -98.00    12200.00
01637            -110.00    12200.00
01638            -112.00    12200.00
01639            -126.00    12200.00
01640            -128.00    12200.00
01641            -116.00    12200.00
01642            -114.00    12200.00
01643            -120.00    12200.00
01644            -126.00    12400.00
01645            -140.00    12400.00
01646            -144.00    12200.00
01647            -136.00    12400.00
01648            -138.00    12200.00
01649            -138.00    12200.00
01650            -138.00    12200.00
01651            -154.00    12200.00
01652            -154.00    12200.00
01653            -160.00    12400.00
01654            -160.00    12200.00
01655            -152.00    12200.00
01656            -148.00    12200.00
01657            -160.00    12000.00
01658            -162.00    12200.00
01659            -166.00    12000.00
01660            -162.00    12000.00
01661            -152.00    12000.00
01662            -148.00    12000.00
01663            -148.00    12000.00
01664            -144.00    12000.00
01665            -154.00    11800.00
01666            -154.00    11800.00
01667            -144.00    11600.00
01668            -136.00    11600.00
01669            -128.00    11400.00
01670            -126.00    11600.00
01671            -134.00    11400.00
01672            -128.00    11200.00
01673            -122.00    11200.00
01674            -120.00    11000.00
01675            -112.00    11200.00
01676            -104.00    11000.00
01677            -104.00    10800.00
01678            -102.00    10600.00
01679            -106.00    10800.00
01680            -104.00    10400.00
01681             -96.00    10400.00
01682             -90.00    10400.00
01683             -82.00    10400.00
01684             -82.00    10000.00
01685             -86.00    10000.00
01686             -86.00    10000.00
01687             -80.00    10000.00
01688             -74.00     9600.00
01689             -66.00     9400.00
01690             -64.00     9400.00
01691             -66.00     9400.00
01692             -70.00     9000.00
01693             -68.00     9200.00
01694             -64.00     9000.00
01695             -56.00     8800.00
01696             -50.00     8600.00
01697             -52.00     8400.00
01698             -56.00     8200.00
01699             -56.00     8200.00
01700             -54.00     8200.00
01701             -48.00     8000.00
01702             -42.00     7800.00
01703             -42.00     7400.00
01704             -42.00     7400.00
01705             -42.00     7400.00
01706             -42.00     7200.00
01707             -40.00     7200.00
01708             -38.00     6800.00
01709             -34.00     6600.00
01710             -32.00     6400.00
01711             -32.00     6400.00
01712             -34.00     6200.00
01713             -34.00     6000.00
01714             -30.00     5800.00
01715             -26.00     5600.00
01716             -30.00     5400.00
01717             -26.00     5200.00
01718             -22.00     5000.00
01719             -22.00     5000.00
01720             -32.00     4800.00
01721             -32.00     4400.00
01722             -22.00     4200.00
01723             -16.00     4200.00
01724             -14.00     4000.00
01725             -18.00     4000.00
01726             -16.00     3600.00
01727             -16.00     3400.00
01728             -22.00     3200.00
01729             -26.00     3200.00
01730             -22.00     2800.00
01731              -8.00     2600.00
01732               2.00     2600.00
01733              -4.00     2200.00
01734             -30.00     2000.00
01735             -34.00     1800.00
01736              -6.00     1600.00
01737              14.00     1400.00
01738               2.00     1200.00
01739             -22.00     1000.00
01740             -32.00      800.00
01741             -12.00      800.00
01742               2.00      400.00
01743               2.00      400.00
01744               6.00      200.00
01745              -4.00        0.00
01746               8.00     -400.00
01747              30.00     -400.00
01748               6.00     -600.00
01749             -16.00     -800.00
01750              -6.00     -800.00
01751               8.00    -1200.00
01752              10.00    -1200.00
01753              58.00    -1600.00
01754             226.00    -1600.00
01755             202.00    -2200.00
01756            -254.00    -2400.00
01757            -254.00    -2400.00
01758             -60.00    -2800.00
01759             140.00    -2800.00
01760             144.00    -2800.00
01761             246.00    -3200.00
01762            -162.00    -3400.00
01763            -234.00    -3200.00
01764             222.00    -4000.00
01765              -8.00    -3600.00
01766              26.00    -4000.00
01767              14.00    -4400.00
01768             -36.00    -4000.00
01769             120.00    -4800.00
01770             -30.00    -4800.00
01771             -44.00    -5200.00
01772             -24.00    -5200.00
01773              64.00    -5200.00
01774             112.00    -5600.00
01775             -50.00    -5400.00
01776              30.00    -6200.00
01777              -6.00    -6000.00
01778              32.00    -6200.00
01779              74.00    -6400.00
01780             -26.00    -6200.00
01781              22.00    -6800.00
01782              32.00    -6800.00
01783              52.00    -7000.00
01784              14.00    -7200.00
01785              18.00    -7200.00
01786              40.00    -7800.00
01787              22.00    -7400.00
01788              56.00    -7800.00
01789              16.00    -7800.00
01790              28.00    -8400.00
01791              62.00    -8400.00
01792              26.00    -8400.00
01793              26.00    -8800.00
01794              40.00    -8800.00
01795              40.00    -8800.00
01796              54.00    -9000.00
01797              54.00    -9200.00
01798              32.00    -9400.00
01799              36.00    -9400.00
01800              48.00    -9600.00
01801              44.00    -9600.00
01802              60.00    -9600.00
01803              64.00    -9800.00
01804              48.00   -10000.00
01805              54.00   -10000.00
01806              50.00   -10200.00
01807              48.00   -10200.00
01808              78.00   -10400.00
01809              70.00   -10400.00
01810              56.00   -10600.00
01811              56.00   -10800.00
01812              60.00   -10800.00
01813              70.00   -10800.00
01814              86.00   -11000.00
01815              78.00   -10800.00
01816              70.00   -11200.00
01817              78.00   -11200.00
01818              72.00   -11200.00
01819              80.00   -11200.00
01820              90.00   -11200.00
01821              82.00   -11200.00
01822              90.00   -11400.00
01823              94.00   -11600.00
01824              86.00   -11600.00
01825              94.00   -11600.00
01826             102.00   -11600.00
01827             102.00   -11600.00
01828             106.00   -11600.00
01829             108.00   -11800.00
01830             110.00   -11800.00
01831             108.00   -11800.00
01832             110.00   -11800.00
01833             112.00   -12000.00
01834             128.00   -11800.00
01835             128.00   -11800.00
01836             128.00   -11800.00
01837             128.00   -12000.00
01838             126.00   -12000.00
01839             126.00   -11800.00
01840             140.00   -12000.00
01841             146.00   -12000.00
01842             148.00   -11800.00
01843             148.00   -11800.00
01844             142.00   -11800.00
01845             142.00   -11800.00
01846             150.00   -12000.00
01847             158.00   -11800.00
01848             160.00   -11600.00
01849             162.00   -11800.00
01850             152.00   -11800.00
01851             146.00   -11800.00
01852             148.00   -11800.00
01853             150.00   -11600.00
01854             154.00   -11600.00
01855             150.00   -11600.00
01856             144.00   -11600.00
01857             136.00   -11600.00
01858             130.00   -11400.00
01859             130.00   -11400.00
01860             134.00   -11200.00
01861             130.00   -11200.00
01862             128.00   -11200.00
01863             120.00   -11000.00
01864             112.00   -11000.00
01865             102.00   -11000.00
01866             104.00   -10800.00
01867             106.00   -10800.00
01868             110.00   -10600.00
01869              98.00   -10400.00
01870              86.00   -10400.00
01871              82.00   -10200.00
01872              88.00   -10200.00
01873              90.00   -10200.00
01874              80.00   -10000.00
01875              74.00   -10000.00
01876              74.00    -9800.00
01877              72.00    -9600.00
01878              70.00    -9600.00
01879              64.00    -9600.00
01880              62.00    -9400.00
01881              58.00    -9200.00
01882              58.00    -9000.00
01883              64.00    -9000.00
01884              64.00    -8800.00
01885              54.00    -8800.00
01886              42.00    -8600.00
01887              40.00    -8400.00
01888              48.00    -8400.00
01889              56.00    -8200.00
01890              54.00    -8000.00
01891              42.00    -7800.00
01892              34.00    -7800.00
01893              32.00    -7400.00
01894              38.00    -7400.00
01895              42.00    -7200.00
01896              42.00    -7200.00
01897              34.00    -7000.00
01898              30.00    -6800.00
01899              24.00    -6800.00
01900              30.00    -6600.00
01901              32.00    -6400.00
01902              32.00    -6200.00
01903              26.00    -6000.00
01904              24.00    -5800.00
01905              24.00    -5600.00
01906              24.00    -5400.00
01907              24.00    -5200.00
01908              16.00    -5000.00
01909              16.00    -4800.00
01910              22.00    -4600.00
01911              22.00    -4400.00
01912              22.00    -4400.00
01913              14.00    -4200.00
01914              10.00    -3800.00
01915              10.00    -3800.00
01916              16.00    -3600.00
01917              16.00    -3400.00
01918              14.00    -3200.00
01919              10.00    -2800.00
01920               8.00    -3000.00
01921              10.00    -2400.00
01922              10.00    -2400.00
01923               8.00    -2200.00
01924               6.00    -2200.00
01925               8.00    -2000.00
01926               8.00    -1600.00
01927               6.00    -1400.00
01928               2.00    -1400.00
01929               0.00    -1000.00
01930               4.00     -800.00
01931               2.00     -800.00
01932              -2.00     -400.00
01933               0.00     -400.00
01934               0.00        0.00
01935               0.00      200.00
01936               2.00      400.00
01937               2.00      400.00
01938              26.00      800.00
01939              26.00      800.00
01940              -8.00     1000.00
01941             -22.00     1200.00
01942              -2.00     1400.00
01943              12.00     1600.00
01944              50.00     1800.00
01945             246.00     2000.00
01946             210.00     2200.00
01947            -254.00     2400.00
01948            -254.00     2600.00
01949            -106.00     2800.00
01950             104.00     2800.00
01951             246.00     3200.00
01952             246.00     3400.00
01953            -254.00     3200.00
01954               0.00     3800.00
01955             240.00     4000.00
01956            -162.00     4000.00
01957             142.00     4400.00
01958            -120.00     4400.00
01959             -42.00     4600.00
01960             146.00     4800.00
01961            -184.00     5200.00
01962             -54.00     5200.00
01963              18.00     5400.00
01964              50.00     5600.00
01965             -24.00     5600.00
01966             -64.00     6000.00
01967             -14.00     6000.00
01968             -94.00     6200.00
01969              92.00     6600.00
01970             -58.00     6400.00
01971             -90.00     6800.00
01972              22.00     6800.00
01973             -48.00     7200.00
01974              -4.00     7200.00
01975             -56.00     7400.00
01976             -48.00     7600.00
01977             -22.00     7600.00
01978              10.00     8000.00
01979             -62.00     8000.00
01980             -66.00     8200.00
01981             -20.00     8400.00
01982             -50.00     8400.00
01983             -26.00     8800.00
01984             -40.00     8800.00
01985             -58.00     9000.00
01986             -50.00     9000.00
01987             -20.00     9400.00
01988             -64.00     9200.00
01989             -44.00     9600.00
01990             -54.00     9800.00
01991             -74.00     9600.00
01992             -34.00     9800.00
01993             -48.00    10000.00
01994             -52.00    10000.00
01995             -58.00    10200.00
01996             -74.00    10200.00
01997             -82.00    10400.00
01998             -46.00    10400.00
01999             -50.00    10600.00
02000             -66.00    10600.00
02001             -72.00    10800.00
02002             -88.00    10800.00
02003             -80.00    11000.00
02004             -58.00    11200.00
02005             -70.00    11200.00
02006             -78.00    11200.00
02007             -74.00    11400.00
02008             -94.00    11400.00
02009             -88.00    11400.00
02010             -88.00    11800.00
02011             -96.00    11600.00
02012             -86.00    11800.00
02013             -84.00    11800.00
02014             -98.00    11800.00
02015            -106.00    12000.00
02016            -104.00    12000.00
02017            -110.00    12000.00
02018            -100.00    12000.00
02019            -102.00    12200.00
02020            -112.00    12200.00
02021            -112.00    12200.00
02022            -118.00    12200.00
02023            -128.00    12200.00
02024            -120.00    12200.00
02025            -122.00    12200.00
02026            -122.00    12400.00
02027            -120.00    12200.00
02028            -134.00    12400.00
02029            -144.00    12200.00
02030            -144.00    12200.00
02031            -142.00    12400.00
02032            -138.00    12200.00
02033            -138.00    12400.00
02034            -148.00    12200.00
02035            -154.00    12400.00
02036            -160.00    12200.00
02037            -160.00    12200.00
02038            -154.00    12200.00
02039            -152.00    12200.00
02040            -158.00    12000.00
02041            -160.00    12200.00
02042            -162.00    12000.00
02043            -166.00    12000.00
02044            -156.00    12000.00
02045            -150.00    12000.00
02046            -146.00    12000.00
02047            -146.00    11800.00
02048            -148.00    12000.00
02049            -152.00    11800.00
02050            -146.00    11800.00
02051            -138.00    11800.00
02052            -128.00    11600.00
02053            -126.00    11400.00
02054            -128.00    11400.00
02055            -128.00    11400.00
02056            -126.00    11400.00
02057            -120.00    11000.00
02058            -112.00    11000.00
02059            -106.00    10800.00
02060            -104.00    10800.00
02061            -106.00    10800.00
02062            -104.00    10600.00
02063            -102.00    10600.00
02064             -96.00    10400.00
02065             -88.00    10400.00
02066             -82.00    10400.00
02067             -80.00    10000.00
02068             -82.00    10000.00
02069             -86.00    10000.00
02070             -80.00     9800.00
02071             -72.00     9800.00
02072             -70.00     9800.00
02073             -66.00     9400.00
02074             -64.00     9200.00
02075             -70.00     9200.00
02076             -66.00     9200.00
02077             -62.00     9000.00
02078             -58.00     8800.00
02079             -54.00     8600.00
02080             -54.00     8600.00
02081             -54.00     8400.00
02082             -54.00     8200.00
02083             -54.00     8000.00
02084             -54.00     8000.00
02085             -48.00     7800.00
02086             -42.00     7600.00
02087             -42.00     7600.00
02088             -38.00     7400.00
02089             -42.00     7200.00
02090             -42.00     7000.00
02091             -38.00     6800.00
02092             -34.00     6600.00
02093             -32.00     6600.00
02094             -34.00     6400.00
02095             -40.00     6200.00
02096             -36.00     6000.00
02097             -32.00     5800.00
02098             -26.00     5600.00
02099             -20.00     5400.00
02100             -20.00     5400.00
02101             -30.00     5200.00
02102             -34.00     4800.00
02103             -32.00     4600.00
02104             -24.00     4600.00
02105             -14.00     4400.00
02106             -16.00     4200.00
02107             -24.00     3800.00
02108             -26.00     4000.00
02109             -24.00     3600.00
02110             -16.00     3400.00
02111              -6.00     3200.00
02112             -10.00     3000.00
02113             -18.00     2800.00
02114             -20.00     2600.00
02115             -16.00     2400.00
02116             -10.00     2200.00
02117              -2.00     2000.00
02118             -10.00     2000.00
02119             -14.00     1600.00
02120             -14.00     1600.00
02121             -10.00     1200.00
02122              -6.00     1000.00
02123              -8.00      800.00
02124             -10.00      600.00
02125              -8.00      600.00
02126               0.00      400.00
02127               2.00        0.00
02128               4.00        0.00
02129              14.00     -200.00
02130              26.00     -400.00
02131               2.00     -600.00
02132             -16.00     -800.00
02133              -6.00    -1000.00
02134              12.00    -1200.00
02135              16.00    -1400.00
02136              44.00    -1400.00
02137             192.00    -1600.00
02138             240.00    -2200.00
02139            -216.00    -2600.00
02140            -254.00    -2400.00
02141            -118.00    -2600.00
02142             140.00    -2800.00
02143             118.00    -2800.00
02144             246.00    -3200.00
02145             -74.00    -3600.00
02146            -254.00    -3200.00
02147             200.00    -4000.00
02148              40.00    -3800.00
02149              -2.00    -3800.00
02150              38.00    -4400.00
02151             -56.00    -4200.00
02152             112.00    -4800.00
02153             -14.00    -4800.00
02154             -56.00    -5000.00
02155             -14.00    -5200.00
02156              46.00    -5200.00
02157             132.00    -5600.00
02158             -42.00    -5400.00
02159               4.00    -6000.00
02160               0.00    -6000.00
02161              16.00    -6000.00
02162              96.00    -6400.00
02163             -14.00    -6600.00
02164              16.00    -6800.00
02165              24.00    -6800.00
02166              38.00    -6800.00
02167              16.00    -7400.00
02168              14.00    -7200.00
02169              54.00    -7600.00
02170              30.00    -7400.00
02171              54.00    -7800.00
02172              18.00    -7800.00
02173              16.00    -8000.00
02174              62.00    -8400.00
02175              32.00    -8400.00
02176              26.00    -8800.00
02177              40.00    -8800.00
02178              38.00    -8800.00
02179              48.00    -9000.00
02180              56.00    -8800.00
02181              40.00    -9200.00
02182              38.00    -9400.00
02183              54.00    -9400.00
02184              48.00    -9600.00
02185              54.00    -9600.00
02186              62.00    -9600.00
02187              44.00    -9800.00
02188              54.00   -10000.00
02189              54.00   -10200.00
02190              48.00   -10200.00
02191              74.00   -10200.00
02192              74.00   -10400.00
02193              58.00   -10600.00
02194              56.00   -10800.00
02195              54.00   -10800.00
02196              64.00   -10800.00
02197              86.00   -11000.00
02198              78.00   -11000.00
02199              70.00   -11000.00
02200              78.00   -11200.00
02201              74.00   -11200.00
02202              76.00   -11200.00
02203              88.00   -11200.00
02204              86.00   -11200.00
02205              90.00   -11400.00
02206              96.00   -11600.00
02207              86.00   -11600.00
02208              88.00   -11600.00
02209              96.00   -11600.00
02210             102.00   -11800.00
02211             110.00   -11800.00
02212             112.00   -11800.00
02213             106.00   -11800.00
02214             106.00   -11800.00
02215             106.00   -11800.00
02216             112.00   -12000.00
02217             126.00   -12000.00
02218             130.00   -11800.00
02219             126.00   -12000.00
02220             126.00   -12000.00
02221             126.00   -12000.00
02222             128.00   -11800.00
02223             138.00   -12000.00
02224             142.00   -11800.00
02225             146.00   -12000.00
02226             150.00   -11800.00
02227             146.00   -11800.00
02228             144.00   -11800.00
02229             146.00   -11800.00
02230             150.00   -11800.00
02231             160.00   -11800.00
02232             166.00   -11800.00
02233             158.00   -11800.00
02234             144.00   -11600.00
02235             144.00   -11600.00
02236             144.00   -11600.00
02237             154.00   -11600.00
02238             160.00   -11600.00
02239             150.00   -11600.00
02240             136.00   -11600.00
02241             126.00   -11200.00
02242             126.00   -11200.00
02243             134.00   -11200.00
02244             134.00   -11200.00
02245             130.00   -11200.00
02246             120.00   -11000.00
02247             112.00   -11000.00
02248             104.00   -11000.00
02249             106.00   -10800.00
02250             110.00   -10800.00
02251             108.00   -10800.00
02252             102.00   -10800.00
02253              94.00   -10400.00
02254              86.00   -10400.00
02255              88.00   -10400.00
02256              86.00   -10200.00
02257              82.00   -10000.00
02258              78.00   -10000.00
02259              74.00   -10000.00
02260              74.00    -9600.00
02261              72.00    -9600.00
02262              64.00    -9600.00
02263              58.00    -9400.00
02264              58.00    -9200.00
02265              62.00    -9200.00
02266              72.00    -8800.00
02267              62.00    -8800.00
02268              46.00    -8800.00
02269              38.00    -8800.00
02270              48.00    -8400.00
02271              60.00    -8400.00
02272              54.00    -8200.00
02273              32.00    -8000.00
02274              32.00    -7800.00
02275              54.00    -7800.00
02276              54.00    -7400.00
02277              34.00    -7200.00
02278              22.00    -7200.00
02279              26.00    -7200.00
02280              46.00    -6800.00
02281              46.00    -6800.00
02282              30.00    -6800.00
02283              18.00    -6400.00
02284              18.00    -6400.00
02285              26.00    -6000.00
02286              38.00    -6000.00
02287              34.00    -5800.00
02288              30.00    -5400.00
02289              18.00    -5400.00
02290              14.00    -5200.00
02291              16.00    -5200.00
02292              18.00    -4800.00
02293              26.00    -4600.00
02294              28.00    -4600.00
02295              20.00    -4400.00
02296               8.00    -4000.00
02297              10.00    -4000.00
02298              18.00    -3600.00
02299              22.00    -3600.00
02300              10.00    -3400.00
02301               2.00    -3200.00
02302               6.00    -3000.00
02303              14.00    -2800.00
02304              18.00    -2600.00
02305              14.00    -2400.00
02306               8.00    -2200.00
02307               2.00    -2200.00
02308               0.00    -2000.00
02309               0.00    -1600.00
02310               8.00    -1600.00
02311              14.00    -1400.00
02312               8.00    -1000.00
02313               0.00     -800.00
02314              -8.00     -600.00
02315              -2.00     -600.00
02316               6.00     -400.00
02317               8.00     -200.00
02318               2.00        0.00
02319              -6.00      200.00
02320              -2.00      400.00
02321              24.00      400.00
02322              28.00      800.00
02323              -2.00     1000.00
02324             -18.00     1000.00
02325             -10.00     1200.00
02326              10.00     1600.00
02327              38.00     1600.00
02328             218.00     2000.00
02329             246.00     2400.00
02330            -254.00     2400.00
02331            -254.00     2400.00
02332            -164.00     2800.00
02333              82.00     2800.00
02334             246.00     3200.00
02335             246.00     3400.00
02336            -254.00     3200.00
02337            -134.00     3800.00
02338             246.00     4000.00
02339            -160.00     4000.00
02340             110.00     4400.00
02341             -68.00     4200.00
02342            -106.00     4400.00
02343             174.00     4800.00
02344            -154.00     5200.00
02345             -88.00     5400.00
02346              22.00     5400.00
02347              44.00     5600.00
02348               0.00     5600.00
02349             -80.00     6000.00
02350             -10.00     6000.00
02351            -104.00     6000.00
02352              78.00     6600.00
02353             -16.00     6400.00
02354            -112.00     6600.00
02355              22.00     7000.00
02356             -48.00     7000.00
02357             -10.00     7200.00
02358             -46.00     7400.00
02359             -56.00     7600.00
02360             -26.00     7600.00
02361              10.00     8000.00
02362             -46.00     8000.00
02363             -74.00     8200.00
02364             -18.00     8400.00
02365             -50.00     8400.00
02366             -32.00     8600.00
02367             -40.00     8800.00
02368             -54.00     9000.00
02369             -50.00     9000.00
02370             -18.00     9200.00
02371             -58.00     9200.00
02372             -56.00     9600.00
02373             -48.00     9600.00
02374             -74.00     9800.00
02375             -34.00    10000.00
02376             -46.00    10000.00
02377             -54.00    10000.00
02378             -58.00    10000.00
02379             -66.00    10400.00
02380             -82.00    10400.00
02381             -48.00    10400.00
02382             -46.00    10600.00
02383             -66.00    10600.00
02384             -66.00    10800.00
02385             -88.00    10800.00
02386             -86.00    10800.00
02387             -64.00    11000.00
02388             -66.00    11200.00
02389             -80.00    11200.00
02390             -76.00    11200.00
02391             -88.00    11400.00
02392             -86.00    11400.00
02393             -82.00    11800.00
02394            -100.00    11600.00
02395             -90.00    11800.00
02396             -80.00    11800.00
02397             -94.00    11800.00
02398            -102.00    12000.00
02399            -104.00    12000.00
02400            -106.00    12000.00
02401            -102.00    12000.00
02402            -100.00    12000.00
02403            -114.00    12000.00
02404            -118.00    12200.00
02405            -116.00    12200.00
02406            -126.00    12200.00
02407            -120.00    12200.00
02408            -122.00    12200.00
02409            -126.00    12200.00
02410            -122.00    12200.00
02411            -134.00    12200.00
02412            -144.00    12200.00
02413            -136.00    12200.00
02414            -138.00    12200.00
02415            -142.00    12200.00
02416            -138.00    12400.00
02417            -146.00    12200.00
02418            -154.00    12200.00
02419            -158.00    12200.00
02420            -160.00    12400.00
02421            -158.00    12200.00
02422            -152.00    12200.00
02423            -158.00    12200.00
02424            -158.00    12200.00
02425            -160.00    12200.00
02426            -162.00    12000.00
02427            -158.00    12000.00
02428            -154.00    12000.00
02429            -150.00    12000.00
02430            -144.00    12000.00
02431            -148.00    12000.00
02432            -146.00    11800.00
02433            -144.00    11800.00
02434            -138.00    11600.00
02435            -132.00    11800.00
02436            -128.00    11600.00
02437            -126.00    11400.00
02438            -126.00    11400.00
02439            -122.00    11200.00
02440            -122.00    11200.00
02441            -114.00    11200.00
02442            -106.00    11200.00
02443             -98.00    11000.00
02444             -98.00    10800.00
02445            -102.00    10800.00
02446            -104.00    10600.00
02447             -96.00    10600.00
02448             -90.00    10400.00
02449             -80.00    10400.00
02450             -78.00    10200.00
02451             -86.00    10000.00
02452             -90.00     9800.00
02453             -84.00     9800.00
02454             -74.00     9800.00
02455             -64.00     9600.00
02456             -66.00     9400.00
02457             -70.00     9400.00
02458             -70.00     9200.00
02459             -66.00     9000.00
02460             -58.00     9000.00
02461             -58.00     8800.00
02462             -56.00     8600.00
02463             -50.00     8400.00
02464             -54.00     8400.00
02465             -58.00     8200.00
02466             -54.00     8200.00
02467             -50.00     8000.00
02468             -42.00     7800.00
02469             -42.00     7600.00
02470             -42.00     7400.00
02471             -42.00     7400.00
02472             -42.00     7200.00
02473             -44.00     7200.00
02474             -40.00     6800.00
02475             -34.00     6600.00
02476             -32.00     6400.00
02477             -34.00     6400.00
02478             -40.00     6400.00
02479             -38.00     6000.00
02480             -26.00     5800.00
02481             -24.00     5600.00
02482             -26.00     5400.00
02483             -26.00     5400.00
02484             -32.00     5200.00
02485             -32.00     5000.00
02486             -30.00     4600.00
02487             -24.00     4600.00
02488             -18.00     4400.00
02489             -16.00     4200.00
02490             -22.00     4000.00
02491             -22.00     3800.00
02492             -18.00     3600.00
02493             -18.00     3600.00
02494             -18.00     3400.00
02495             -16.00     3200.00
02496             -16.00     2800.00
02497             -14.00     2800.00
02498             -14.00     2600.00
02499             -14.00     2400.00
02500             -14.00     2000.00
02501             -10.00     1800.00
02502             -10.00     1800.00
02503             -10.00     1400.00
02504             -10.00     1200.00
02505              -8.00     1200.00
02506              -8.00     1000.00
02507              -8.00      800.00
02508              -8.00      400.00
02509              -2.00      400.00
02510               4.00        0.00
02511               2.00      200.00
02512               8.00        0.00
02513              26.00     -400.00
02514              10.00     -600.00
02515             -14.00     -800.00
02516             -10.00     -800.00
02517               8.00    -1000.00
02518              16.00    -1200.00
02519              36.00    -1400.00
02520             162.00    -1600.00
02521             246.00    -2200.00
02522            -142.00    -2400.00
02523            -254.00    -2400.00
02524            -180.00    -2800.00
02525             132.00    -2800.00
02526             106.00    -2600.00
02527             246.00    -3000.00
02528              22.00    -3400.00
02529            -254.00    -3000.00
02530             154.00    -3800.00
02531              90.00    -3800.00
02532             -26.00    -3800.00
02533              58.00    -4400.00
02534             -66.00    -4000.00
02535              94.00    -4600.00
02536              16.00    -4800.00
02537             -64.00    -4800.00
02538             -14.00    -5200.00
02539              24.00    -5200.00
02540             138.00    -5600.00
02541             -26.00    -5400.00
02542             -14.00    -5800.00
02543              16.00    -6200.00
02544              -2.00    -6000.00
02545              96.00    -6400.00
02546              -2.00    -6200.00
02547               2.00    -6800.00
02548              26.00    -7000.00
02549              40.00    -6800.00
02550              28.00    -7400.00
02551               6.00    -7200.00
02552              48.00    -7600.00
02553              24.00    -7400.00
02554              50.00    -7800.00
02555              32.00    -8000.00
02556               6.00    -7800.00
02557              58.00    -8200.00
02558              38.00    -8400.00
02559              24.00    -8600.00
02560              40.00    -8600.00
02561              40.00    -8800.00
02562              48.00    -8800.00
02563              50.00    -9200.00
02564              38.00    -9200.00
02565              38.00    -9200.00
02566              54.00    -9400.00
02567              48.00    -9400.00
02568              50.00    -9600.00
02569              62.00    -9600.00
02570              48.00   -10000.00
02571              54.00   -10000.00
02572              58.00   -10000.00
02573              48.00   -10200.00
02574              70.00   -10400.00
02575              78.00   -10400.00
02576              62.00   -10400.00
02577              58.00   -10400.00
02578              58.00   -10800.00
02579              62.00   -10800.00
02580              82.00   -10800.00
02581              80.00   -11000.00
02582              70.00   -11000.00
02583              78.00   -11200.00
02584              78.00   -11200.00
02585              74.00   -11200.00
02586              90.00   -11400.00
02587              88.00   -11400.00
02588              86.00   -11600.00
02589              96.00   -11600.00
02590              86.00   -11600.00
02591              88.00   -11600.00
02592             100.00   -11600.00
02593              98.00   -11800.00
02594             104.00   -11600.00
02595             108.00   -11800.00
02596             104.00   -11800.00
02597             112.00   -11600.00
02598             112.00   -12000.00
02599             110.00   -12000.00
02600             118.00   -12000.00
02601             126.00   -11800.00
02602             128.00   -12000.00
02603             132.00   -12000.00
02604             128.00   -11800.00
02605             126.00   -12000.00
02606             134.00   -12000.00
02607             138.00   -12000.00
02608             150.00   -12000.00
02609             150.00   -11800.00
02610             146.00   -11800.00
02611             138.00   -11800.00
02612             142.00   -12000.00
02613             154.00   -11800.00
02614             166.00   -11800.00
02615             166.00   -11800.00
02616             154.00   -11800.00
02617             142.00   -11600.00
02618             142.00   -11600.00
02619             146.00   -11600.00
02620             154.00   -11600.00
02621             160.00   -11600.00
02622             150.00   -11600.00
02623             134.00   -11600.00
02624             130.00   -11400.00
02625             134.00   -11200.00
02626             130.00   -11200.00
02627             128.00   -11200.00
02628             126.00   -11200.00
02629             126.00   -11000.00
02630             122.00   -11000.00
02631             110.00   -11000.00
02632             104.00   -10800.00
02633             102.00   -10800.00
02634             106.00   -10600.00
02635             110.00   -10600.00
02636             102.00   -10400.00
02637              86.00   -10400.00
02638              80.00   -10200.00
02639              82.00   -10200.00
02640              88.00   -10000.00
02641              88.00   -10000.00
02642              82.00    -9800.00
02643              76.00    -9600.00
02644              64.00    -9600.00
02645              62.00    -9600.00
02646              62.00    -9400.00
02647              70.00    -9200.00
02648              70.00    -9200.00
02649              62.00    -8800.00
02650              54.00    -8800.00
02651              48.00    -8800.00
02652              48.00    -8800.00
02653              48.00    -8600.00
02654              50.00    -8400.00
02655              50.00    -8000.00
02656              48.00    -8000.00
02657              44.00    -8000.00
02658              38.00    -7800.00
02659              30.00    -7400.00
02660              30.00    -7600.00
02661              36.00    -7200.00
02662              40.00    -7200.00
02663              46.00    -7000.00
02664              38.00    -6800.00
02665              30.00    -6800.00
02666              16.00    -6400.00
02667              18.00    -6200.00
02668              30.00    -6200.00
02669              38.00    -6000.00
02670              32.00    -5800.00
02671              22.00    -5600.00
02672              16.00    -5400.00
02673              16.00    -5400.00
02674              22.00    -5200.00
02675              22.00    -5000.00
02676              16.00    -4800.00
02677              14.00    -4600.00
02678              16.00    -4400.00
02679              24.00    -4000.00
02680              24.00    -4000.00
02681              14.00    -3600.00
02682               2.00    -3600.00
02683               6.00    -3400.00
02684              14.00    -3200.00
02685              20.00    -3200.00
02686              18.00    -2800.00
02687              10.00    -2800.00
02688               2.00    -2400.00
02689               0.00    -2400.00
02690               6.00    -2200.00
02691              10.00    -2000.00
02692              10.00    -1600.00
02693               6.00    -1600.00
02694              -2.00    -1200.00
02695              -2.00    -1000.00
02696               8.00     -800.00
02697              10.00     -800.00
02698               6.00     -600.00
02699              -2.00     -400.00
02700              -6.00        0.00
02701               0.00        0.00
02702               8.00      200.00
02703               0.00      400.00
02704              16.00      600.00
02705              24.00      800.00
02706               2.00     1000.00
02707             -14.00     1200.00
02708              -4.00     1200.00
02709              14.00     1600.00
02710              26.00     1800.00
02711             176.00     2000.00
02712             246.00     2400.00
02713            -198.00     2400.00
02714            -254.00     2600.00
02715            -230.00     2800.00
02716              62.00     2800.00
02717             246.00     3200.00
02718             246.00     3400.00
02719            -254.00     3200.00
02720            -254.00     3600.00
02721             246.00     4000.00
02722            -128.00     4000.00
02723              78.00     4400.00
02724              -2.00     4400.00
02725            -160.00     4400.00
02726             168.00     4800.00
02727            -120.00     5000.00
02728            -118.00     5400.00
02729              34.00     5200.00
02730              34.00     5600.00
02731              18.00     5600.00
02732             -90.00     6000.00
02733              -6.00     6000.00
02734             -98.00     6000.00
02735              50.00     6600.00
02736              16.00     6400.00
02737            -130.00     6600.00
02738              10.00     6800.00
02739             -48.00     7000.00
02740              -8.00     7400.00
02741             -16.00     7400.00
02742             -50.00     7600.00
02743             -44.00     7600.00
02744             -16.00     8000.00
02745             -34.00     8200.00
02746             -72.00     8000.00
02747              -6.00     8400.00
02748             -50.00     8400.00
02749             -48.00     8400.00
02750             -44.00     8800.00
02751             -50.00     9000.00
02752             -48.00     9000.00
02753             -22.00     9200.00
02754             -50.00     9400.00
02755             -58.00     9400.00
02756             -40.00     9600.00
02757             -80.00     9600.00
02758             -42.00     9800.00
02759             -42.00     9800.00
02760             -48.00    10000.00
02761             -54.00    10200.00
02762             -64.00    10400.00
02763             -82.00    10400.00
02764             -56.00    10600.00
02765             -42.00    10600.00
02766             -58.00    10600.00
02767             -64.00    10800.00
02768             -88.00    10800.00
02769             -96.00    10800.00
02770             -68.00    11200.00
02771             -54.00    11200.00
02772             -66.00    11200.00
02773             -72.00    11200.00
02774             -94.00    11400.00
02775             -96.00    11600.00
02776             -80.00    11800.00
02777             -88.00    11600.00
02778             -90.00    11800.00
02779             -86.00    11800.00
02780             -98.00    11800.00
02781            -106.00    11800.00
02782            -102.00    12000.00
02783            -104.00    12000.00
02784            -106.00    12000.00
02785            -102.00    12000.00
02786            -110.00    12000.00
02787            -114.00    12000.00
02788            -114.00    12200.00
02789            -122.00    12000.00
02790            -120.00    12200.00
02791            -120.00    12400.00
02792            -126.00    12000.00
02793            -126.00    12200.00
02794            -130.00    12200.00
02795            -142.00    12200.00
02796            -142.00    12200.00
02797            -138.00    12200.00
02798            -144.00    12200.00
02799            -138.00    12200.00
02800            -142.00    12200.00
02801            -152.00    12200.00
02802            -160.00    12200.00
02803            -166.00    12200.00
02804            -160.00    12000.00
02805            -146.00    12200.00
02806            -152.00    12200.00
02807            -160.00    12000.00
02808            -166.00    12000.00
02809            -166.00    12000.00
02810            -158.00    12000.00
02811            -150.00    12000.00
02812            -146.00    12000.00
02813            -150.00    12000.00
02814            -152.00    11800.00
02815            -152.00    11800.00
02816            -144.00    11800.00
02817            -138.00    11600.00
02818            -132.00    11400.00
02819            -128.00    11400.00
02820            -128.00    11400.00
02821            -128.00    11400.00
02822            -126.00    11200.00
02823            -120.00    11200.00
02824            -106.00    11200.00
02825            -104.00    11200.00
02826            -104.00    10800.00
02827            -106.00    10800.00
02828            -108.00    10600.00
02829             -98.00    10600.00
02830             -94.00    10600.00
02831             -94.00    10400.00
02832             -86.00    10400.00
02833             -80.00    10400.00
02834             -80.00    10200.00
02835             -80.00    10000.00
02836             -86.00    10000.00
02837             -80.00     9800.00
02838             -70.00     9600.00
02839             -62.00     9600.00
02840             -64.00     9400.00
02841             -66.00     9200.00
02842             -70.00     9200.00
02843             -66.00     9000.00
02844             -58.00     8800.00
02845             -54.00     8800.00
02846             -50.00     8400.00
02847             -54.00     8400.00
02848             -58.00     8400.00
02849             -58.00     8200.00
02850             -50.00     8000.00
02851             -46.00     8000.00
02852             -40.00     7600.00
02853             -42.00     7600.00
02854             -44.00     7200.00
02855             -44.00     7200.00
02856             -42.00     7000.00
02857             -40.00     6800.00
02858             -34.00     6800.00
02859             -34.00     6600.00
02860             -34.00     6400.00
02861             -40.00     6200.00
02862             -34.00     6000.00
02863             -32.00     5800.00
02864             -30.00     5600.00
02865             -28.00     5600.00
02866             -30.00     5400.00
02867             -30.00     5000.00
02868             -26.00     4800.00
02869             -26.00     4800.00
02870             -30.00     4400.00
02871             -22.00     4400.00
02872             -18.00     4200.00
02873             -22.00     4000.00
02874             -22.00     4000.00
02875             -22.00     3600.00
02876             -22.00     3400.00
02877             -18.00     3200.00
02878             -18.00     3000.00
02879             -14.00     3000.00
02880             -16.00     2600.00
02881             -16.00     2600.00
02882             -16.00     2400.00
02883             -14.00     2000.00
02884             -12.00     2000.00
02885             -10.00     1800.00
02886              -8.00     1600.00
02887             -10.00     1200.00
02888             -12.00     1200.00
02889             -10.00     1000.00
02890              -8.00      800.00
02891              -2.00      600.00
02892               0.00      400.00
02893              -2.00      200.00
02894              -2.00        0.00
02895               4.00        0.00
02896              32.00     -400.00
02897              16.00     -400.00
02898             -12.00     -600.00
02899             -14.00     -800.00
02900               6.00    -1000.00
02901              16.00    -1200.00
02902              32.00    -1400.00
02903             138.00    -1600.00
02904             246.00    -2000.00
02905             -68.00    -2400.00
02906            -254.00    -2400.00
02907            -244.00    -2600.00
02908             118.00    -2800.00
02909             106.00    -2800.00
02910             246.00    -2800.00
02911             114.00    -3600.00
02912            -254.00    -3200.00
02913              88.00    -3800.00
02914             142.00    -4000.00
02915             -46.00    -3600.00
02916              72.00    -4400.00
02917             -64.00    -4200.00
02918              72.00    -4600.00
02919              42.00    -4600.00
02920             -70.00    -4800.00
02921             -10.00    -5200.00
02922               8.00    -5000.00
02923             142.00    -5600.00
02924               0.00    -5400.00
02925             -32.00    -6000.00
02926              24.00    -6200.00
02927             -14.00    -6000.00
02928              96.00    -6400.00
02929              16.00    -6400.00
02930             -10.00    -6400.00
02931              30.00    -7000.00
02932              32.00    -6800.00
02933              36.00    -7200.00
02934              -2.00    -7200.00
02935              42.00    -7600.00
02936              32.00    -7600.00
02937              54.00    -7800.00
02938              40.00    -8000.00
02939              -6.00    -8000.00
02940              48.00    -8200.00
02941              48.00    -8400.00
02942              30.00    -8400.00
02943              38.00    -8600.00
02944              36.00    -8800.00
02945              48.00    -9000.00
02946              58.00    -9200.00
02947              42.00    -9200.00
02948              30.00    -9200.00
02949              44.00    -9400.00
02950              50.00    -9600.00
02951              64.00    -9600.00
02952              72.00    -9600.00
02953              46.00   -10000.00
02954              34.00   -10000.00
02955              48.00   -10000.00
02956              54.00   -10200.00
02957              82.00   -10200.00
02958              86.00   -10400.00
02959              54.00   -10400.00
02960              54.00   -10600.00
02961              58.00   -10800.00
02962              64.00   -10800.00
02963              78.00   -11000.00
02964              80.00   -10800.00
02965              76.00   -11000.00
02966              82.00   -11200.00
02967              78.00   -11200.00
02968              70.00   -11200.00
02969              82.00   -11400.00
02970              86.00   -11200.00
02971              88.00   -11600.00
02972              98.00   -11600.00
02973              90.00   -11600.00
02974              86.00   -11600.00
02975              96.00   -11600.00
02976              96.00   -11800.00
02977             102.00   -11600.00
02978             110.00   -11600.00
02979             110.00   -11800.00
02980             112.00   -11800.00
02981             110.00   -11800.00
02982             108.00   -12000.00
02983             112.00   -11800.00
02984             124.00   -11800.00
02985             126.00   -12000.00
02986             128.00   -11800.00
02987             128.00   -12000.00
02988             126.00   -11800.00
02989             136.00   -12000.00
02990             146.00   -11800.00
02991             138.00   -12000.00
02992             134.00   -12000.00
02993             138.00   -11800.00
02994             152.00   -12000.00
02995             162.00   -11800.00
02996             154.00   -11800.00
02997             144.00   -11800.00
02998             146.00   -11600.00
02999             156.00   -11800.00
03000             160.00   -11800.00
03001             158.00   -11600.00
03002             146.00   -11600.00
03003             144.00   -11600.00
03004             146.00   -11600.00
03005             150.00   -11400.00
03006             142.00   -11600.00
03007             134.00   -11600.00
03008             136.00   -11400.00
03009             138.00   -11200.00
03010             130.00   -11200.00
03011             118.00   -11200.00
03012             112.00   -11000.00
03013             120.00   -11000.00
03014             120.00   -11000.00
03015             112.00   -10800.00
03016             102.00   -10800.00
03017              98.00   -10800.00
03018             102.00   -10400.00
03019             102.00   -10400.00
03020              94.00   -10400.00
03021              86.00   -10200.00
03022              82.00   -10200.00
03023              82.00   -10200.00
03024              82.00   -10000.00
03025              80.00   -10000.00
03026              74.00    -9800.00
03027              72.00    -9600.00
03028              66.00    -9400.00
03029              64.00    -9400.00
03030              64.00    -9200.00
03031              66.00    -9200.00
03032              64.00    -9200.00
03033              56.00    -8800.00
03034              50.00    -8800.00
03035              48.00    -8600.00
03036              50.00    -8400.00
03037              54.00    -8400.00
03038              54.00    -8000.00
03039              46.00    -8000.00
03040              38.00    -7800.00
03041              38.00    -7600.00
03042              38.00    -7400.00
03043              38.00    -7400.00
03044              42.00    -7200.00
03045              38.00    -7200.00
03046              34.00    -7000.00
03047              30.00    -6800.00
03048              26.00    -6600.00
03049              30.00    -6600.00
03050              32.00    -6200.00
03051              32.00    -6200.00
03052              30.00    -6000.00
03053              22.00    -5800.00
03054              22.00    -5600.00
03055              18.00    -5600.00
03056              24.00    -5200.00
03057              24.00    -5200.00
03058              22.00    -4800.00
03059              18.00    -4800.00
03060              14.00    -4600.00
03061              14.00    -4400.00
03062              16.00    -4200.00
03063              16.00    -4000.00
03064              14.00    -3800.00
03065              16.00    -3800.00
03066              16.00    -3600.00
03067              10.00    -3200.00
03068               8.00    -3000.00
03069               8.00    -2800.00
03070              10.00    -2800.00
03071              10.00    -2400.00
03072              10.00    -2400.00
03073               6.00    -2200.00
03074               6.00    -2000.00
03075               2.00    -1600.00
03076               2.00    -1400.00
03077               4.00    -1400.00
03078               6.00    -1000.00
03079               2.00     -800.00
03080               0.00     -800.00
03081              -2.00     -600.00
03082               0.00     -400.00
03083               0.00        0.00
03084               0.00        0.00
03085               4.00      200.00
03086               6.00      400.00
03087              14.00      600.00
03088              28.00      800.00
03089               6.00     1000.00
03090             -18.00     1200.00
03091             -10.00     1200.00
03092               6.00     1600.00
03093              18.00     1600.00
03094             150.00     1800.00
03095             246.00     2400.00
03096            -102.00     2400.00
03097            -254.00     2600.00
03098            -254.00     2800.00
03099              34.00     2800.00
03100             246.00     3000.00
03101             246.00     3400.00
03102            -254.00     3200.00
03103            -254.00     3600.00
03104             246.00     4000.00
03105             -80.00     3800.00
03106              10.00     4400.00
03107              56.00     4400.00
03108            -180.00     4400.00
03109             170.00     4800.00
03110             -64.00     4800.00
03111            -166.00     5200.00
03112              16.00     5400.00
03113              24.00     5600.00
03114              50.00     5600.00
03115             -80.00     5600.00
03116              -8.00     6200.00
03117             -96.00     6000.00
03118              14.00     6400.00
03119              50.00     6600.00
03120            -132.00     6600.00
03121               8.00     7000.00
03122             -30.00     6800.00
03123             -26.00     7200.00
03124             -26.00     7200.00
03125             -70.00     7600.00
03126             -32.00     7600.00
03127               0.00     8000.00
03128             -16.00     8000.00
03129             -86.00     8000.00
03130             -26.00     8400.00
03131             -40.00     8400.00
03132             -34.00     8800.00
03133             -32.00     8800.00
03134             -58.00     9000.00
03135             -62.00     9000.00
03136             -26.00     9200.00
03137             -38.00     9200.00
03138             -56.00     9200.00
03139             -40.00     9600.00
03140             -80.00     9600.00
03141             -48.00     9800.00
03142             -40.00     9800.00
03143             -52.00     9800.00
03144             -54.00    10000.00
03145             -64.00    10200.00
03146             -82.00    10400.00
03147             -62.00    10400.00
03148             -40.00    10600.00
03149             -64.00    10400.00
03150             -64.00    10800.00
03151             -78.00    10800.00
03152             -82.00    10800.00
03153             -66.00    11200.00
03154             -64.00    11200.00
03155             -78.00    11000.00
03156             -72.00    11200.00
03157             -82.00    11400.00
03158             -88.00    11600.00
03159             -80.00    11800.00
03160             -92.00    11600.00
03161             -90.00    11600.00
03162             -82.00    11800.00
03163             -90.00    11800.00
03164             -98.00    11800.00
03165            -102.00    12000.00
03166            -106.00    12000.00
03167            -106.00    12000.00
03168             -98.00    12000.00
03169            -102.00    12000.00
03170            -106.00    12000.00
03171            -114.00    12200.00
03172            -128.00    12000.00
03173            -122.00    12200.00
03174            -120.00    12200.00
03175            -120.00    12200.00
03176            -122.00    12000.00
03177            -130.00    12200.00
03178            -140.00    12200.00
03179            -142.00    12200.00
03180            -138.00    12200.00
03181            -140.00    12400.00
03182            -138.00    12200.00
03183            -144.00    12200.00
03184            -152.00    12200.00
03185            -158.00    12200.00
03186            -160.00    12200.00
03187            -160.00    12200.00
03188            -152.00    12000.00
03189            -154.00    12000.00
03190            -160.00    12200.00
03191            -162.00    12200.00
03192            -168.00    12000.00
03193            -162.00    12000.00
03194            -152.00    12000.00
03195            -146.00    11800.00
03196            -144.00    12000.00
03197            -150.00    11800.00
03198            -154.00    11800.00
03199            -150.00    11600.00
03200            -138.00    11800.00
03201            -130.00    11600.00
03202            -128.00    11400.00
03203            -130.00    11600.00
03204            -130.00    11400.00
03205            -128.00    11200.00
03206            -122.00    11200.00
03207            -112.00    11000.00
03208            -106.00    11200.00
03209            -102.00    10800.00
03210            -102.00    10800.00
03211            -104.00    10800.00
03212            -106.00    10600.00
03213             -98.00    10600.00
03214             -88.00    10400.00
03215             -80.00    10400.00
03216             -82.00    10200.00
03217             -82.00    10000.00
03218             -90.00    10000.00
03219             -80.00     9800.00
03220             -70.00     9800.00
03221             -68.00     9600.00
03222             -66.00     9600.00
03223             -64.00     9400.00
03224             -70.00     9200.00
03225             -70.00     9000.00
03226             -64.00     9000.00
03227             -58.00     9000.00
03228             -54.00     8800.00
03229             -50.00     8400.00
03230             -54.00     8400.00
03231             -54.00     8200.00
03232             -54.00     8200.00
03233             -54.00     8000.00
03234             -46.00     7600.00
03235             -42.00     7600.00
03236             -42.00     7600.00
03237             -46.00     7400.00
03238             -46.00     7200.00
03239             -42.00     7000.00
03240             -38.00     6800.00
03241             -38.00     6600.00
03242             -34.00     6600.00
03243             -34.00     6400.00
03244             -32.00     6400.00
03245             -36.00     6000.00
03246             -32.00     5800.00
03247             -30.00     5800.00
03248             -26.00     5600.00
03249             -28.00     5400.00
03250             -26.00     5200.00
03251             -32.00     5200.00
03252             -28.00     4800.00
03253             -26.00     4800.00
03254             -24.00     4400.00
03255             -18.00     4200.00
03256             -20.00     4000.00
03257             -18.00     4000.00
03258             -24.00     3600.00
03259             -26.00     3400.00
03260             -22.00     3200.00
03261             -16.00     3000.00
03262             -14.00     2800.00
03263             -16.00     2800.00
03264             -16.00     2600.00
03265             -18.00     2400.00
03266             -14.00     2200.00
03267             -12.00     2000.00
03268             -12.00     1800.00
03269             -10.00     1600.00
03270              -8.00     1400.00
03271             -10.00     1200.00
03272             -10.00     1000.00
03273             -10.00      800.00
03274              -8.00      600.00
03275              -2.00      400.00
03276               0.00      200.00
03277               0.00      200.00
03278               6.00        0.00
03279              26.00     -400.00
03280              18.00     -400.00
03281              -6.00     -600.00
03282             -14.00     -800.00
03283               6.00    -1000.00
03284              16.00    -1200.00
03285              30.00    -1200.00
03286             114.00    -1600.00
03287             246.00    -2000.00
03288               6.00    -2400.00
03289            -254.00    -2400.00
03290            -254.00    -2400.00
03291              90.00    -2800.00
03292             118.00    -2800.00
03293             246.00    -2800.00
03294             200.00    -3200.00
03295            -254.00    -3200.00
03296              12.00    -3600.00
03297             190.00    -4000.00
03298             -56.00    -3600.00
03299              76.00    -4200.00
03300             -54.00    -4400.00
03301              42.00    -4600.00
03302              74.00    -4800.00
03303             -74.00    -4800.00
03304             -18.00    -5200.00
03305              -8.00    -5200.00
03306             130.00    -5400.00
03307              32.00    -5600.00
03308             -40.00    -5600.00
03309              34.00    -6200.00
03310             -16.00    -6000.00
03311              90.00    -6400.00
03312              32.00    -6400.00
03313             -22.00    -6600.00
03314              22.00    -7000.00
03315              18.00    -6800.00
03316              32.00    -7200.00
03317               0.00    -7200.00
03318              52.00    -7400.00
03319              42.00    -7600.00
03320              46.00    -7800.00
03321              50.00    -8000.00
03322               0.00    -8000.00
03323              48.00    -8400.00
03324              42.00    -8400.00
03325              12.00    -8600.00
03326              30.00    -8600.00
03327              34.00    -8800.00
03328              46.00    -8800.00
03329              64.00    -9000.00
03330              56.00    -9200.00
03331              42.00    -9200.00
03332              46.00    -9400.00
03333              42.00    -9400.00
03334              38.00    -9600.00
03335              50.00   -10000.00
03336              52.00    -9800.00
03337              52.00   -10000.00
03338              70.00   -10000.00
03339              56.00   -10200.00
03340              64.00   -10400.00
03341              74.00   -10200.00
03342              62.00   -10400.00
03343              58.00   -10400.00
03344              64.00   -10600.00
03345              64.00   -10800.00
03346              74.00   -11000.00
03347              80.00   -10800.00
03348              74.00   -11200.00
03349              78.00   -11200.00
03350              80.00   -11200.00
03351              78.00   -11200.00
03352              80.00   -11200.00
03353              88.00   -11200.00
03354              90.00   -11400.00
03355              98.00   -11600.00
03356              90.00   -11600.00
03357              80.00   -11600.00
03358              88.00   -11600.00
03359             102.00   -11600.00
03360             110.00   -11600.00
03361             118.00   -11600.00
03362             114.00   -11800.00
03363             104.00   -11800.00
03364             102.00   -11600.00
03365             102.00   -11800.00
03366             112.00   -12000.00
03367             130.00   -11800.00
03368             134.00   -11800.00
03369             134.00   -11800.00
03370             128.00   -12000.00
03371             124.00   -12000.00
03372             124.00   -12000.00
03373             134.00   -11800.00
03374             144.00   -12000.00
03375             152.00   -12000.00
03376             154.00   -11800.00
03377             144.00   -11800.00
03378             144.00   -12000.00
03379             150.00   -12000.00
03380             152.00   -11800.00
03381             152.00   -12000.00
03382             150.00   -11600.00
03383             150.00   -11800.00
03384             158.00   -11800.00
03385             154.00   -11600.00
03386             150.00   -11600.00
03387             138.00   -11600.00
03388             138.00   -11600.00
03389             138.00   -11600.00
03390             140.00   -11600.00
03391             136.00   -11400.00
03392             134.00   -11200.00
03393             128.00   -11200.00
03394             130.00   -11000.00
03395             120.00   -11000.00
03396             114.00   -11000.00
03397             110.00   -11000.00
03398             104.00   -10800.00
03399             102.00   -10800.00
03400             112.00   -10800.00
03401             104.00   -10800.00
03402              96.00   -10400.00
03403              86.00   -10400.00
03404              78.00   -10200.00
03405              88.00   -10200.00
03406              94.00   -10000.00
03407              84.00   -10000.00
03408              78.00    -9800.00
03409              72.00    -9600.00
03410              70.00    -9600.00
03411              68.00    -9400.00
03412              62.00    -9400.00
03413              64.00    -9400.00
03414              78.00    -9200.00
03415              66.00    -9000.00
03416              48.00    -9200.00
03417              46.00    -8800.00
03418              54.00    -8800.00
03419              54.00    -8600.00
03420              58.00    -8400.00
03421              50.00    -8400.00
03422              44.00    -8000.00
03423              42.00    -8000.00
03424              38.00    -7800.00
03425              38.00    -7600.00
03426              42.00    -7400.00
03427              40.00    -7200.00
03428              40.00    -7200.00
03429              40.00    -7000.00
03430              32.00    -6800.00
03431              24.00    -6800.00
03432              22.00    -6600.00
03433              26.00    -6400.00
03434              38.00    -6200.00
03435              38.00    -6000.00
03436              24.00    -5800.00
03437              22.00    -5800.00
03438              16.00    -5400.00
03439              14.00    -5400.00
03440              22.00    -5200.00
03441              26.00    -5000.00
03442              24.00    -4800.00
03443              22.00    -4600.00
03444              14.00    -4400.00
03445               8.00    -4400.00
03446              12.00    -4000.00
03447              14.00    -3800.00
03448              16.00    -3800.00
03449              16.00    -3600.00
03450              10.00    -3200.00
03451               8.00    -3200.00
03452               8.00    -3000.00
03453               6.00    -2600.00
03454               8.00    -2600.00
03455              12.00    -2400.00
03456               8.00    -2200.00
03457               6.00    -2000.00
03458               0.00    -2000.00
03459               4.00    -1600.00
03460               6.00    -1400.00
03461               6.00    -1000.00
03462               2.00    -1000.00
03463               0.00     -800.00
03464               0.00     -400.00
03465              -2.00     -400.00
03466               2.00     -200.00
03467               0.00        0.00
03468               0.00      200.00
03469               0.00      400.00
03470              10.00      600.00
03471              32.00      800.00
03472              12.00      800.00
03473             -14.00     1200.00
03474             -12.00     1200.00
03475               6.00     1400.00
03476              14.00     1600.00
03477             114.00     1800.00
03478             246.00     2400.00
03479             -14.00     2400.00
03480            -254.00     2400.00
03481            -254.00     2600.00
03482              10.00     2800.00
03483             246.00     3200.00
03484             246.00     3400.00
03485            -210.00     3400.00
03486            -254.00     3600.00
03487             246.00     4000.00
03488              -2.00     3800.00
03489             -46.00     4200.00
03490             102.00     4400.00
03491            -198.00     4600.00
03492             136.00     4400.00
03493              -2.00     5000.00
03494            -186.00     5000.00
03495               6.00     5200.00
03496              18.00     5600.00
03497              54.00     5600.00
03498             -74.00     5800.00
03499             -22.00     6000.00
03500             -72.00     6000.00
03501             -18.00     6400.00
03502              78.00     6600.00
03503            -130.00     6600.00
03504             -12.00     6800.00
03505             -16.00     6800.00
03506             -34.00     7200.00
03507             -14.00     7400.00
03508             -66.00     7600.00
03509             -38.00     7600.00
03510              -6.00     7600.00
03511              -8.00     8000.00
03512             -88.00     8000.00
03513             -34.00     8200.00
03514             -34.00     8400.00
03515             -40.00     8400.00
03516             -30.00     8800.00
03517             -56.00     9000.00
03518             -64.00     9000.00
03519             -32.00     9200.00
03520             -30.00     9200.00
03521             -62.00     9400.00
03522             -34.00     9400.00
03523             -80.00     9600.00
03524             -56.00     9800.00
03525             -36.00     9800.00
03526             -50.00    10000.00
03527             -54.00    10000.00
03528             -62.00    10400.00
03529             -80.00    10400.00
03530             -70.00    10400.00
03531             -38.00    10400.00
03532             -60.00    10800.00
03533             -66.00    10800.00
03534             -78.00    10800.00
03535             -88.00    10800.00
03536             -70.00    11000.00
03537             -64.00    11200.00
03538             -76.00    11200.00
03539             -74.00    11400.00
03540             -80.00    11400.00
03541             -90.00    11400.00
03542             -82.00    11400.00
03543             -88.00    11600.00
03544             -90.00    11800.00
03545             -82.00    11600.00
03546             -90.00    11800.00
03547            -102.00    11800.00
03548            -102.00    12000.00
03549            -106.00    12000.00
03550            -106.00    11800.00
03551             -96.00    12000.00
03552            -104.00    12000.00
03553            -110.00    12200.00
03554            -114.00    12200.00
03555            -126.00    12000.00
03556            -122.00    12200.00
03557            -118.00    12200.00
03558            -120.00    12200.00
03559            -120.00    12200.00
03560            -128.00    12400.00
03561            -138.00    12200.00
03562            -142.00    12200.00
03563            -138.00    12200.00
03564            -144.00    12200.00
03565            -142.00    12200.00
03566            -144.00    12200.00
03567            -152.00    12400.00
03568            -154.00    12200.00
03569            -160.00    12200.00
03570            -160.00    12000.00
03571            -158.00    12200.00
03572            -152.00    12200.00
03573            -158.00    12000.00
03574            -162.00    12000.00
03575            -168.00    12000.00
03576            -164.00    12000.00
03577            -154.00    11800.00
03578            -146.00    12000.00
03579            -150.00    12000.00
03580            -150.00    11800.00
03581            -154.00    11800.00
03582            -152.00    11800.00
03583            -142.00    11600.00
03584            -134.00    11400.00
03585            -130.00    11600.00
03586            -128.00    11400.00
03587            -130.00    11400.00
03588            -128.00    11400.00
03589            -122.00    11200.00
03590            -118.00    11000.00
03591            -110.00    11000.00
03592            -104.00    10800.00
03593            -102.00    10800.00
03594            -104.00    10800.00
03595            -104.00    10600.00
03596             -98.00    10600.00
03597             -90.00    10400.00
03598             -86.00    10400.00
03599             -82.00    10200.00
03600             -86.00    10000.00
03601             -86.00    10000.00
03602             -84.00     9800.00
03603             -74.00     9800.00
03604             -70.00     9600.00
03605             -64.00     9600.00
03606             -64.00     9400.00
03607             -66.00     9200.00
03608             -66.00     9200.00
03609             -64.00     9000.00
03610             -60.00     9000.00
03611             -54.00     8800.00
03612             -50.00     8600.00
03613             -54.00     8400.00
03614             -56.00     8200.00
03615             -54.00     8200.00
03616             -50.00     8000.00
03617             -46.00     8000.00
03618             -42.00     7600.00
03619             -42.00     7600.00
03620             -42.00     7400.00
03621             -42.00     7400.00
03622             -46.00     7200.00
03623             -42.00     6800.00
03624             -38.00     6800.00
03625             -32.00     6600.00
03626             -32.00     6400.00
03627             -32.00     6000.00
03628             -38.00     6000.00
03629             -34.00     5800.00
03630             -32.00     5600.00
03631             -26.00     5600.00
03632             -26.00     5200.00
03633             -26.00     5200.00
03634             -30.00     5000.00
03635             -26.00     4600.00
03636             -26.00     4600.00
03637             -26.00     4400.00
03638             -18.00     4200.00
03639             -18.00     4000.00
03640             -22.00     3800.00
03641             -22.00     3600.00
03642             -24.00     3400.00
03643             -18.00     3400.00
03644             -16.00     3200.00
03645             -14.00     2800.00
03646             -16.00     2800.00
03647             -16.00     2600.00
03648             -18.00     2200.00
03649             -16.00     2000.00
03650             -14.00     2000.00
03651             -10.00     1800.00
03652             -10.00     1600.00
03653             -10.00     1600.00
03654             -10.00     1200.00
03655              -6.00     1200.00
03656             -10.00      800.00
03657             -12.00      600.00
03658             -10.00      400.00
03659              -2.00      200.00
03660               0.00      200.00
03661               6.00        0.00
03662              30.00     -400.00
03663              30.00     -600.00
03664              -8.00     -600.00
03665             -28.00     -800.00
03666             -10.00    -1000.00
03667              16.00    -1200.00
03668              38.00    -1400.00
03669             112.00    -1400.00
03670             246.00    -1800.00
03671              54.00    -2400.00
03672            -254.00    -2400.00
03673            -254.00    -2800.00
03674              74.00    -2800.00
03675             126.00    -2800.00
03676             194.00    -2800.00
03677             246.00    -3200.00
03678            -254.00    -3200.00
03679             -66.00    -3400.00
03680             226.00    -4000.00
03681             -50.00    -3600.00
03682              64.00    -4200.00
03683             -38.00    -4200.00
03684              12.00    -4400.00
03685             102.00    -4800.00
03686             -62.00    -4800.00
03687             -22.00    -5200.00
03688             -16.00    -5200.00
03689             112.00    -5400.00
03690              58.00    -5400.00
03691             -54.00    -5600.00
03692              40.00    -6200.00
03693             -26.00    -6000.00
03694              66.00    -6400.00
03695              48.00    -6400.00
03696             -20.00    -6400.00
03697              32.00    -7000.00
03698              30.00    -6800.00
03699              48.00    -7200.00
03700               0.00    -7200.00
03701              30.00    -7400.00
03702              32.00    -7600.00
03703              32.00    -7400.00
03704              50.00    -7800.00
03705               4.00    -8000.00
03706              48.00    -8200.00
03707              56.00    -8400.00
03708              16.00    -8600.00
03709              24.00    -8800.00
03710              38.00    -8800.00
03711              40.00    -8800.00
03712              62.00    -9200.00
03713              54.00    -9200.00
03714              32.00    -9400.00
03715              40.00    -9400.00
03716              46.00    -9400.00
03717              42.00    -9600.00
03718              64.00    -9600.00
03719              62.00    -9800.00
03720              50.00   -10000.00
03721              58.00   -10000.00
03722              40.00   -10200.00
03723              48.00   -10200.00
03724              78.00   -10200.00
03725              72.00   -10400.00
03726              66.00   -10800.00
03727              64.00   -10600.00
03728              54.00   -10800.00
03729              64.00   -10800.00
03730              82.00   -10800.00
03731              80.00   -11000.00
03732              80.00   -11200.00
03733              80.00   -11200.00
03734              70.00   -11200.00
03735              78.00   -11200.00
03736              88.00   -11200.00
03737              88.00   -11400.00
03738              98.00   -11400.00
03739              88.00   -11600.00
03740              80.00   -11800.00
03741              94.00   -11600.00
03742             102.00   -11600.00
03743             108.00   -11800.00
03744             112.00   -11600.00
03745             110.00   -11800.00
03746             102.00   -11800.00
03747             106.00   -11800.00
03748             112.00   -12000.00
03749             120.00   -11800.00
03750             132.00   -11800.00
03751             126.00   -12000.00
03752             120.00   -12000.00
03753             126.00   -12000.00
03754             126.00   -12000.00
03755             134.00   -11800.00
03756             142.00   -11800.00
03757             144.00   -12000.00
03758             146.00   -12000.00
03759             146.00   -12000.00
03760             140.00   -12000.00
03761             142.00   -12000.00
03762             146.00   -11800.00
03763             154.00   -12000.00
03764             164.00   -11800.00
03765             160.00   -11800.00
03766             146.00   -11800.00
03767             142.00   -11800.00
03768             142.00   -11800.00
03769             150.00   -11600.00
03770             150.00   -11600.00
03771             152.00   -11600.00
03772             146.00   -11600.00
03773             134.00   -11200.00
03774             128.00   -11400.00
03775             126.00   -11200.00
03776             128.00   -11200.00
03777             130.00   -11200.00
03778             128.00   -11200.00
03779             122.00   -11000.00
03780             108.00   -11000.00
03781             102.00   -11000.00
03782             100.00   -10800.00
03783             104.00   -10800.00
03784             110.00   -10800.00
03785             104.00   -10400.00
03786              94.00   -10400.00
03787              82.00   -10400.00
03788              78.00   -10200.00
03789              80.00   -10000.00
03790              82.00   -10000.00
03791              84.00   -10000.00
03792              74.00    -9600.00
03793              70.00    -9600.00
03794              64.00    -9400.00
03795              66.00    -9400.00
03796              66.00    -9400.00
03797              66.00    -9200.00
03798              62.00    -9200.00
03799              56.00    -8800.00
03800              50.00    -8800.00
03801              50.00    -8800.00
03802              54.00    -8600.00
03803              54.00    -8400.00
03804              50.00    -8200.00
03805              48.00    -8400.00
03806              42.00    -8000.00
03807              40.00    -7800.00
03808              38.00    -7600.00
03809              40.00    -7400.00
03810              40.00    -7200.00
03811              38.00    -7200.00
03812              36.00    -7000.00
03813              30.00    -7000.00
03814              32.00    -6800.00
03815              32.00    -6600.00
03816              34.00    -6400.00
03817              32.00    -6200.00
03818              30.00    -6200.00
03819              22.00    -5800.00
03820              22.00    -5600.00
03821              22.00    -5400.00
03822              24.00    -5400.00
03823              22.00    -5200.00
03824              22.00    -5200.00
03825              18.00    -4800.00
03826              16.00    -4600.00
03827              14.00    -4400.00
03828              14.00    -4200.00
03829              16.00    -4000.00
03830              16.00    -4000.00
03831              14.00    -3800.00
03832              10.00    -3600.00
03833               8.00    -3200.00
03834               8.00    -3000.00
03835               8.00    -3000.00
03836              14.00    -2800.00
03837              14.00    -2400.00
03838               8.00    -2400.00
03839               6.00    -2200.00
03840               0.00    -2000.00
03841               2.00    -1800.00
03842               6.00    -1600.00
03843               6.00    -1400.00
03844               6.00    -1200.00
03845               0.00    -1000.00
03846               0.00     -800.00
03847              -2.00     -600.00
03848              -2.00     -400.00
03849               0.00     -200.00
03850               0.00        0.00
03851               2.00        0.00
03852               2.00      200.00
03853               8.00      400.00
03854              32.00      800.00
03855              16.00     1000.00
03856             -12.00     1200.00
03857             -16.00     1200.00
03858               0.00     1400.00
03859              16.00     1600.00
03860              88.00     1800.00
03861             246.00     2000.00
03862              72.00     2400.00
03863            -254.00     2600.00
03864            -254.00     2600.00
03865             -18.00     2800.00
03866             190.00     2800.00
03867             246.00     3400.00
03868             -40.00     3400.00
03869            -254.00     3200.00
03870             214.00     3800.00
03871              82.00     3800.00
03872            -104.00     4200.00
03873             136.00     4400.00
03874            -186.00     4400.00
03875              86.00     4800.00
03876              62.00     4800.00
03877            -202.00     5200.00
03878             -10.00     5400.00
03879              18.00     5600.00
03880              64.00     5600.00
03881             -56.00     5600.00
03882             -34.00     6200.00
03883             -54.00     6000.00
03884             -54.00     6200.00
03885              92.00     6600.00
03886            -112.00     6400.00
03887             -36.00     6800.00
03888               2.00     6800.00
03889             -40.00     7200.00
03890             -14.00     7200.00
03891             -70.00     7400.00
03892             -42.00     7600.00
03893              -8.00     7600.00
03894               4.00     8000.00
03895             -82.00     8000.00
03896             -50.00     8200.00
03897             -32.00     8400.00
03898             -46.00     8400.00
03899             -28.00     8600.00
03900             -48.00     9000.00
03901             -64.00     8800.00
03902             -38.00     9200.00
03903             -26.00     9200.00
03904             -64.00     9400.00
03905             -38.00     9600.00
03906             -72.00     9600.00
03907             -64.00     9800.00
03908             -38.00     9800.00
03909             -52.00     9800.00
03910             -52.00    10200.00
03911             -60.00    10000.00
03912             -78.00    10400.00
03913             -74.00    10400.00
03914             -40.00    10600.00
03915             -62.00    10600.00
03916             -66.00    10800.00
03917             -78.00    10800.00
03918             -88.00    10800.00
03919             -72.00    10800.00
03920             -64.00    11200.00
03921             -78.00    11200.00
03922             -74.00    11200.00
03923             -78.00    11400.00
03924             -90.00    11400.00
03925             -82.00    11400.00
03926             -90.00    11800.00
03927             -96.00    11600.00
03928             -80.00    11800.00
03929             -88.00    11800.00
03930             -98.00    12000.00
03931            -100.00    12000.00
03932            -104.00    12000.00
03933            -108.00    12000.00
03934             -96.00    12200.00
03935            -102.00    12000.00
03936            -110.00    12000.00
03937            -112.00    12200.00
03938            -122.00    12200.00
03939            -124.00    12200.00
03940            -118.00    12200.00
03941            -118.00    12200.00
03942            -122.00    12200.00
03943            -126.00    12200.00
03944            -136.00    12200.00
03945            -142.00    12200.00
03946            -138.00    12200.00
03947            -138.00    12200.00
03948            -138.00    12400.00
03949            -140.00    12400.00
03950            -152.00    12200.00
03951            -156.00    12200.00
03952            -160.00    12200.00
03953            -162.00    12200.00
03954            -154.00    12000.00
03955            -152.00    12200.00
03956            -154.00    12200.00
03957            -162.00    12000.00
03958            -166.00    12000.00
03959            -164.00    12000.00
03960            -154.00    12000.00
03961            -150.00    12000.00
03962            -150.00    12000.00
03963            -148.00    11800.00
03964            -152.00    11800.00
03965            -150.00    11600.00
03966            -144.00    11800.00
03967            -136.00    11400.00
03968            -130.00    11600.00
03969            -126.00    11400.00
03970            -128.00    11400.00
03971            -128.00    11200.00
03972            -126.00    11400.00
03973            -118.00    11200.00
03974            -110.00    11200.00
03975            -102.00    11000.00
03976            -104.00    10800.00
03977            -106.00    10800.00
03978            -104.00    10600.00
03979            -100.00    10600.00
03980             -92.00    10400.00
03981             -88.00    10400.00
03982             -82.00    10000.00
03983             -82.00    10200.00
03984             -82.00    10000.00
03985             -82.00     9800.00
03986             -76.00     9800.00
03987             -74.00     9600.00
03988             -70.00     9600.00
03989             -66.00     9600.00
03990             -64.00     9200.00
03991             -64.00     9200.00
03992             -64.00     9000.00
03993             -64.00     9000.00
03994             -56.00     8800.00
03995             -50.00     8600.00
03996             -50.00     8400.00
03997             -54.00     8400.00
03998             -58.00     8200.00
03999             -52.00     8000.00
04000             -42.00     7800.00
04001             -38.00     7600.00
04002             -40.00     7600.00
04003             -46.00     7400.00
04004             -46.00     7200.00
04005             -44.00     7200.00
04006             -42.00     6800.00
04007             -34.00     6800.00
04008             -28.00     6600.00
04009             -28.00     6400.00
04010             -32.00     6400.00
04011             -42.00     6000.00
04012             -38.00     6000.00
04013             -30.00     5800.00
04014             -24.00     5600.00
04015             -24.00     5400.00
04016             -28.00     5200.00
04017             -34.00     5200.00
04018             -30.00     4800.00
04019             -22.00     4600.00
04020             -16.00     4400.00
04021             -18.00     4200.00
04022             -26.00     4000.00
04023             -32.00     4000.00
04024             -24.00     3600.00
04025             -16.00     3400.00
04026             -14.00     3400.00
04027             -16.00     3000.00
04028             -24.00     2800.00
04029             -18.00     2800.00
04030             -14.00     2600.00
04031             -10.00     2400.00
04032             -12.00     2000.00
04033             -18.00     2000.00
04034             -16.00     1800.00
04035              -8.00     1600.00
04036              -6.00     1400.00
04037             -10.00     1200.00
04038             -16.00     1200.00
04039             -14.00      800.00
04040             -10.00      800.00
04041               0.00      400.00
04042               2.00      200.00
04043              -2.00      200.00
04044               0.00        0.00
04045              22.00     -400.00
04046              24.00     -400.00
04047               0.00     -600.00
04048             -16.00     -800.00
04049              -4.00    -1200.00
04050              12.00    -1000.00
04051              18.00    -1400.00
04052              72.00    -1400.00
04053             246.00    -1800.00
04054             144.00    -2200.00
04055            -254.00    -2400.00
04056            -254.00    -2400.00
04057               0.00    -2800.00
04058             134.00    -2400.00
04059             170.00    -2800.00
04060             246.00    -3200.00
04061            -248.00    -3200.00
04062            -160.00    -3200.00
04063             234.00    -4000.00
04064             -38.00    -3600.00
04065              48.00    -4200.00
04066             -10.00    -4400.00
04067             -14.00    -4200.00
04068             112.00    -4800.00
04069             -56.00    -4600.00
04070             -34.00    -5200.00
04071             -16.00    -5000.00
04072              96.00    -5200.00
04073              94.00    -5600.00
04074             -56.00    -5400.00
04075              26.00    -6200.00
04076             -18.00    -5800.00
04077              56.00    -6200.00
04078              74.00    -6400.00
04079             -24.00    -6400.00
04080              26.00    -6800.00
04081              24.00    -6800.00
04082              42.00    -7000.00
04083               6.00    -7200.00
04084              30.00    -7200.00
04085              48.00    -7600.00
04086              30.00    -7600.00
04087              54.00    -8000.00
04088               2.00    -7800.00
04089              32.00    -8200.00
04090              62.00    -8400.00
04091              24.00    -8400.00
04092              30.00    -8800.00
04093              40.00    -8600.00
04094              38.00    -9000.00
04095              50.00    -9000.00
04096              46.00    -9200.00
04097              32.00    -9400.00
04098              46.00    -9200.00
04099              54.00    -9400.00
04100              48.00    -9600.00
04101              58.00    -9600.00
04102              58.00   -10000.00
04103              42.00   -10000.00
04104              56.00   -10000.00
04105              48.00   -10000.00
04106              54.00   -10200.00
04107              78.00   -10200.00
04108              64.00   -10400.00
04109              54.00   -10600.00
04110              62.00   -10600.00
04111              60.00   -10800.00
04112              68.00   -10800.00
04113              82.00   -11000.00
04114              78.00   -11200.00
04115              74.00   -11200.00
04116              78.00   -11200.00
04117              70.00   -11200.00
04118              80.00   -11200.00
04119              90.00   -11200.00
04120              88.00   -11400.00
04121              96.00   -11600.00
04122              94.00   -11600.00
04123              86.00   -11600.00
04124              94.00   -11600.00
04125              98.00   -11800.00
04126             102.00   -11600.00
04127             110.00   -11600.00
04128             112.00   -11800.00
04129             106.00   -11800.00
04130             112.00   -11800.00
04131             110.00   -11800.00
04132             114.00   -11800.00
04133             126.00   -11800.00
04134             126.00   -11800.00
04135             128.00   -11800.00
04136             130.00   -12000.00
04137             126.00   -11800.00
04138             128.00   -12000.00
04139             142.00   -11800.00
04140             144.00   -11800.00
04141             148.00   -12000.00
04142             146.00   -11800.00
04143             142.00   -11800.00
04144             144.00   -11800.00
04145             150.00   -12000.00
04146             154.00   -11800.00
04147             160.00   -11800.00
04148             154.00   -11600.00
04149             150.00   -11600.00
04150             146.00   -11600.00
04151             148.00   -11600.00
04152             146.00   -11600.00
04153             150.00   -11600.00
04154             148.00   -11400.00
04155             144.00   -11400.00
04156             136.00   -11600.00
04157             130.00   -11400.00
04158             128.00   -11400.00
04159             130.00   -11200.00
04160             130.00   -11200.00
04161             126.00   -11000.00
04162             118.00   -11000.00
04163             110.00   -11200.00
04164             110.00   -11000.00
04165             106.00   -10800.00
04166             106.00   -10800.00
04167             104.00   -10800.00
04168              98.00   -10400.00
04169              94.00   -10400.00
04170              88.00   -10200.00
04171              86.00   -10200.00
04172              82.00   -10200.00
04173              82.00   -10000.00
04174              80.00   -10000.00
04175              78.00    -9800.00
04176              72.00    -9600.00
04177              66.00    -9400.00
04178              66.00    -9400.00
04179              66.00    -9200.00
04180              66.00    -9200.00
04181              64.00    -9200.00
04182              56.00    -8800.00
04183              50.00    -8800.00
04184              50.00    -8600.00
04185              54.00    -8600.00
04186              56.00    -8400.00
04187              54.00    -8000.00
04188              42.00    -8200.00
04189              36.00    -8000.00
04190              38.00    -7800.00
04191              48.00    -7600.00
04192              54.00    -7400.00
04193              42.00    -7400.00
04194              30.00    -7200.00
04195              22.00    -7200.00
04196              36.00    -6800.00
04197              42.00    -6600.00
04198              32.00    -6600.00
04199              22.00    -6400.00
04200              26.00    -6200.00
04201              46.00    -6000.00
04202              38.00    -5800.00
04203              12.00    -5600.00
04204               2.00    -5600.00
04205              22.00    -5400.00
04206              40.00    -5200.00
04207              36.00    -5000.00
04208              18.00    -4800.00
04209               8.00    -4600.00
04210               6.00    -4600.00
04211              14.00    -4400.00
04212              24.00    -4200.00
04213              26.00    -3800.00
04214              18.00    -3600.00
04215              14.00    -3600.00
04216               2.00    -3400.00
04217              -2.00    -3200.00
04218               2.00    -3000.00
04219              16.00    -3000.00
04220              24.00    -2600.00
04221              16.00    -2400.00
04222               0.00    -2400.00
04223             -10.00    -2000.00
04224               2.00    -2000.00
04225              10.00    -1600.00
04226               8.00    -1400.00
04227               2.00    -1000.00
04228               0.00    -1000.00
04229               0.00     -800.00
04230              -2.00     -800.00
04231              -2.00     -600.00
04232               2.00     -400.00
04233               0.00        0.00
04234              -2.00      200.00
04235              -2.00      400.00
04236               6.00      400.00
04237              34.00      600.00
04238              22.00      800.00
04239             -14.00     1000.00
04240             -26.00     1200.00
04241              -4.00     1400.00
04242              16.00     1600.00
04243              70.00     1800.00
04244             246.00     2200.00
04245             146.00     2400.00
04246            -254.00     2400.00
04247            -254.00     2600.00
04248             -58.00     2800.00
04249             138.00     3000.00
04250             246.00     3200.00
04251             128.00     3400.00
04252            -254.00     3400.00
04253             112.00     4000.00
04254             168.00     4000.00
04255            -150.00     4000.00
04256             146.00     4400.00
04257            -156.00     4400.00
04258              26.00     4800.00
04259             118.00     4800.00
04260            -202.00     5200.00
04261             -34.00     5400.00
04262              16.00     5400.00
04263              62.00     5800.00
04264             -34.00     5600.00
04265             -50.00     6000.00
04266             -34.00     6000.00
04267             -78.00     6200.00
04268              98.00     6600.00
04269             -84.00     6400.00
04270             -62.00     6800.00
04271              16.00     6800.00
04272             -46.00     7200.00
04273              -6.00     7400.00
04274             -62.00     7600.00
04275             -48.00     7600.00
04276             -24.00     7600.00
04277               8.00     8000.00
04278             -72.00     8000.00
04279             -58.00     8200.00
04280             -24.00     8400.00
04281             -50.00     8200.00
04282             -26.00     8800.00
04283             -48.00     8800.00
04284             -58.00     9000.00
04285             -48.00     9000.00
04286             -26.00     9200.00
04287             -66.00     9200.00
04288             -40.00     9400.00
04289             -58.00     9600.00
04290             -66.00     9800.00
04291             -34.00     9800.00
04292             -50.00    10000.00
04293             -56.00    10000.00
04294             -64.00    10000.00
04295             -80.00    10400.00
04296             -80.00    10400.00
04297             -38.00    10400.00
04298             -48.00    10600.00
04299             -66.00    10600.00
04300             -78.00    10800.00
04301             -96.00    10800.00
04302             -80.00    11000.00
04303             -60.00    11200.00
04304             -72.00    11200.00
04305             -74.00    11400.00
04306             -72.00    11400.00
04307             -88.00    11600.00
04308             -88.00    11400.00
04309             -90.00    11800.00
04310             -96.00    11800.00
04311             -88.00    11600.00
04312             -80.00    11800.00
04313             -98.00    11800.00
04314            -104.00    12000.00
04315            -108.00    11800.00
04316            -112.00    11800.00
04317            -106.00    12000.00
04318             -98.00    12000.00
04319            -104.00    12200.00
04320            -106.00    12200.00
04321            -122.00    12000.00
04322            -126.00    12200.00
04323            -120.00    12200.00
04324            -122.00    12200.00
04325            -122.00    12000.00
04326            -122.00    12200.00
04327            -130.00    12200.00
04328            -144.00    12200.00
04329            -144.00    12200.00
04330            -138.00    12200.00
04331            -134.00    12400.00
04332            -140.00    12200.00
04333            -154.00    12200.00
04334            -162.00    12200.00
04335            -160.00    12200.00
04336            -152.00    12200.00
04337            -146.00    12200.00
04338            -152.00    12000.00
04339            -160.00    12000.00
04340            -164.00    12000.00
04341            -162.00    12200.00
04342            -160.00    12000.00
04343            -154.00    12000.00
04344            -150.00    11800.00
04345            -150.00    11800.00
04346            -152.00    12000.00
04347            -152.00    12000.00
04348            -150.00    11800.00
04349            -144.00    11600.00
04350            -136.00    11800.00
04351            -134.00    11400.00
04352            -130.00    11400.00
04353            -128.00    11400.00
04354            -128.00    11400.00
04355            -122.00    11200.00
04356            -120.00    11200.00
04357            -112.00    11000.00
04358            -106.00    10800.00
04359            -106.00    10800.00
04360            -102.00    10600.00
04361             -98.00    10800.00
04362            -102.00    10400.00
04363             -96.00    10400.00
04364             -90.00    10400.00
04365             -80.00    10200.00
04366             -82.00    10000.00
04367             -86.00    10200.00
04368             -86.00     9800.00
04369             -80.00     9800.00
04370             -74.00     9600.00
04371             -68.00     9600.00
04372             -68.00     9200.00
04373             -66.00     9400.00
04374             -70.00     9200.00
04375             -64.00     9200.00
04376             -64.00     8800.00
04377             -58.00     8800.00
04378             -50.00     8600.00
04379             -52.00     8400.00
04380             -54.00     8400.00
04381             -56.00     8400.00
04382             -54.00     8000.00
04383             -48.00     8000.00
04384             -44.00     7800.00
04385             -40.00     7600.00
04386             -40.00     7600.00
04387             -42.00     7200.00
04388             -42.00     7000.00
04389             -42.00     6800.00
04390             -34.00     6800.00
04391             -34.00     6600.00
04392             -32.00     6600.00
04393             -34.00     6400.00
04394             -38.00     6000.00
04395             -34.00     6000.00
04396             -32.00     5800.00
04397             -26.00     5600.00
04398             -26.00     5400.00
04399             -26.00     5400.00
04400             -30.00     5000.00
04401             -26.00     4800.00
04402             -28.00     4800.00
04403             -24.00     4400.00
04404             -20.00     4400.00
04405             -16.00     4000.00
04406             -20.00     4000.00
04407             -22.00     3800.00
04408             -24.00     3400.00
04409             -22.00     3400.00
04410             -16.00     3200.00
04411             -16.00     3000.00
04412             -16.00     2800.00
04413             -16.00     2600.00
04414             -18.00     2400.00
04415             -18.00     2200.00
04416             -12.00     2000.00
04417             -12.00     1800.00
04418             -10.00     1800.00
04419             -10.00     1600.00
04420             -10.00     1200.00
04421             -14.00     1200.00
04422             -10.00      800.00
04423             -10.00      800.00
04424              -6.00      400.00
04425              -6.00      400.00
04426               0.00        0.00
04427               0.00        0.00
04428              16.00     -400.00
04429              26.00     -400.00
04430               2.00     -800.00
04431             -20.00     -800.00
04432              -8.00     -800.00
04433              10.00    -1000.00
04434              16.00    -1200.00
04435              60.00    -1600.00
04436             224.00    -1600.00
04437             198.00    -2200.00
04438            -254.00    -2400.00
04439            -254.00    -2600.00
04440             -58.00    -2800.00
04441             144.00    -2800.00
04442             140.00    -2800.00
04443             246.00    -3200.00
04444            -166.00    -3400.00
04445            -240.00    -3200.00
04446             224.00    -4000.00
04447               0.00    -3600.00
04448              26.00    -3800.00
04449              14.00    -4400.00
04450             -42.00    -4200.00
04451             114.00    -4800.00
04452             -34.00    -4800.00
04453             -42.00    -5200.00
04454             -16.00    -5200.00
04455              70.00    -5200.00
04456             114.00    -5600.00
04457             -56.00    -5400.00
04458              16.00    -6000.00
04459              -6.00    -6000.00
04460              34.00    -6000.00
04461              86.00    -6400.00
04462             -22.00    -6400.00
04463              20.00    -6800.00
04464              24.00    -6800.00
04465              42.00    -7000.00
04466              14.00    -7200.00
04467              22.00    -7200.00
04468              48.00    -7600.00
04469              30.00    -7400.00
04470              54.00    -8000.00
04471              10.00    -8000.00
04472              22.00    -8200.00
04473              62.00    -8400.00
04474              32.00    -8400.00
04475              28.00    -8800.00
04476              42.00    -8600.00
04477              40.00    -8800.00
04478              50.00    -9000.00
04479              46.00    -9200.00
04480              32.00    -9200.00
04481              42.00    -9400.00
04482              54.00    -9400.00
04483              44.00    -9600.00
04484              54.00    -9800.00
04485              58.00    -9600.00
04486              42.00   -10000.00
04487              56.00   -10200.00
04488              50.00   -10200.00
04489              48.00   -10200.00
04490              74.00   -10400.00
04491              70.00   -10400.00
04492              56.00   -10600.00
04493              58.00   -10600.00
04494              56.00   -10800.00
04495              66.00   -10800.00
04496              82.00   -11000.00
04497              78.00   -11000.00
04498              70.00   -11200.00
04499              80.00   -11200.00
04500              72.00   -11200.00
04501              76.00   -11200.00
04502              86.00   -11400.00
04503              88.00   -11600.00
04504              90.00   -11600.00
04505              96.00   -11400.00
04506              86.00   -11600.00
04507              90.00   -11600.00
04508              96.00   -11600.00
04509              96.00   -11600.00
04510             106.00   -11800.00
04511             112.00   -11600.00
04512             106.00   -11800.00
04513             112.00   -11800.00
04514             110.00   -11800.00
04515             110.00   -11800.00
04516             126.00   -11800.00
04517             130.00   -11800.00
04518             130.00   -12000.00
04519             128.00   -12000.00
04520             122.00   -11800.00
04521             130.00   -12000.00
04522             142.00   -11800.00
04523             144.00   -11800.00
04524             148.00   -11800.00
04525             144.00   -11800.00
04526             138.00   -12000.00
04527             146.00   -11800.00
04528             150.00   -11800.00
04529             158.00   -11800.00
04530             166.00   -11800.00
04531             162.00   -11800.00
04532             146.00   -11800.00
04533             144.00   -11800.00
04534             146.00   -11600.00
04535             146.00   -11600.00
04536             150.00   -11600.00
04537             152.00   -11600.00
04538             154.00   -11600.00
04539             144.00   -11400.00
04540             122.00   -11400.00
04541             112.00   -11200.00
04542             122.00   -11200.00
04543             142.00   -11200.00
04544             138.00   -11200.00
04545             120.00   -11000.00
04546             106.00   -11000.00
04547              98.00   -10800.00
04548             106.00   -10800.00
04549             118.00   -10800.00
04550             110.00   -10800.00
04551              96.00   -10400.00
04552              78.00   -10400.00
04553              78.00   -10400.00
04554              96.00   -10200.00
04555             110.00   -10200.00
04556              90.00   -10000.00
04557              62.00   -10000.00
04558              52.00    -9800.00
04559              70.00    -9600.00
04560              86.00    -9600.00
04561              78.00    -9400.00
04562              56.00    -9400.00
04563              48.00    -9200.00
04564              64.00    -9200.00
04565              72.00    -8800.00
04566              64.00    -8800.00
04567              46.00    -8800.00
04568              38.00    -8600.00
04569              46.00    -8400.00
04570              54.00    -8400.00
04571              56.00    -8200.00
04572              46.00    -8000.00
04573              38.00    -7800.00
04574              38.00    -7600.00
04575              42.00    -7400.00
04576              40.00    -7200.00
04577              38.00    -7200.00
04578              38.00    -7000.00
04579              38.00    -6800.00
04580              36.00    -6800.00
04581              26.00    -6600.00
04582              24.00    -6400.00
04583              26.00    -6200.00
04584              32.00    -6200.00
04585              38.00    -6000.00
04586              30.00    -5800.00
04587              18.00    -5600.00
04588              14.00    -5400.00
04589              18.00    -5200.00
04590              30.00    -5000.00
04591              26.00    -4800.00
04592              18.00    -4600.00
04593              14.00    -4600.00
04594              14.00    -4400.00
04595              14.00    -4000.00
04596              14.00    -3800.00
04597              22.00    -3800.00
04598              18.00    -3600.00
04599              10.00    -3200.00
04600               6.00    -3200.00
04601               6.00    -3000.00
04602              14.00    -2800.00
04603              18.00    -2800.00
04604              16.00    -2400.00
04605               2.00    -2400.00
04606              -8.00    -2200.00
04607              -8.00    -2000.00
04608               8.00    -1600.00
04609              20.00    -1400.00
04610              16.00    -1400.00
04611               0.00    -1000.00
04612             -10.00    -1000.00
04613             -14.00     -800.00
04614              -6.00     -400.00
04615              10.00     -200.00
04616              16.00        0.00
04617               6.00        0.00
04618              -6.00      200.00
04619              -8.00      400.00
04620              22.00      600.00
04621              30.00      800.00
04622              -2.00     1000.00
04623             -22.00     1200.00
04624              -8.00     1200.00
04625              16.00     1600.00
04626              56.00     1600.00
04627             246.00     2000.00
04628             210.00     2400.00
04629            -254.00     2400.00
04630            -254.00     2600.00
04631            -102.00     2600.00
04632             112.00     3000.00
04633             246.00     3200.00
04634             246.00     3400.00
04635            -254.00     3200.00
04636              -8.00     3800.00
04637             246.00     4000.00
04638            -160.00     4000.00
04639             136.00     4400.00
04640            -120.00     4200.00
04641             -46.00     4600.00
04642             156.00     4800.00
04643            -184.00     5000.00
04644             -64.00     5200.00
04645              18.00     5400.00
04646              54.00     5600.00
04647              -8.00     5600.00
04648             -64.00     6000.00
04649             -22.00     6000.00
04650            -104.00     6200.00
04651              84.00     6800.00
04652             -50.00     6400.00
04653             -82.00     6800.00
04654              26.00     7000.00
04655             -48.00     7200.00
04656              -8.00     7200.00
04657             -56.00     7200.00
04658             -50.00     7800.00
04659             -22.00     7600.00
04660               8.00     8000.00
04661             -58.00     8000.00
04662             -64.00     8200.00
04663             -16.00     8400.00
04664             -50.00     8400.00
04665             -32.00     8800.00
04666             -48.00     8800.00
04667             -58.00     9000.00
04668             -42.00     9000.00
04669             -14.00     9200.00
04670             -58.00     9400.00
04671             -50.00     9400.00
04672             -62.00     9600.00
04673             -78.00     9600.00
04674             -36.00     9800.00
04675             -48.00     9800.00
04676             -52.00    10000.00
04677             -58.00    10000.00
04678             -72.00    10400.00
04679             -86.00    10400.00
04680             -46.00    10400.00
04681             -50.00    10600.00
04682             -66.00    10600.00
04683             -66.00    10800.00
04684             -88.00    10800.00
04685             -82.00    10800.00
04686             -66.00    11000.00
04687             -72.00    11200.00
04688             -78.00    11200.00
04689             -72.00    11400.00
04690             -90.00    11400.00
04691             -86.00    11600.00
04692             -88.00    11600.00
04693             -96.00    11400.00
04694             -90.00    11800.00
04695             -84.00    11800.00
04696             -96.00    11800.00
04697            -102.00    12000.00
04698            -102.00    11800.00
04699            -110.00    12000.00
04700            -102.00    12000.00
04701             -98.00    12000.00
04702            -106.00    12000.00
04703            -112.00    12000.00
04704            -122.00    12200.00
04705            -130.00    12000.00
04706            -120.00    12200.00
04707            -118.00    12000.00
04708            -120.00    12200.00
04709            -122.00    12200.00
04710            -134.00    12200.00
04711            -144.00    12200.00
04712            -136.00    12200.00
04713            -138.00    12200.00
04714            -138.00    12200.00
04715            -140.00    12200.00
04716            -152.00    12200.00
04717            -154.00    12200.00
04718            -158.00    12200.00
04719            -158.00    12200.00
04720            -154.00    12200.00
04721            -154.00    12200.00
04722            -156.00    12200.00
04723            -160.00    12000.00
04724            -160.00    12200.00
04725            -164.00    12000.00
04726            -158.00    12000.00
04727            -150.00    12000.00
04728            -144.00    12000.00
04729            -144.00    12000.00
04730            -150.00    11800.00
04731            -152.00    11800.00
04732            -146.00    11800.00
04733            -136.00    11600.00
04734            -128.00    11600.00
04735            -124.00    11600.00
04736            -128.00    11400.00
04737            -128.00    11200.00
04738            -126.00    11200.00
04739            -122.00    11200.00
04740            -112.00    11000.00
04741            -104.00    10800.00
04742            -104.00    10800.00
04743            -104.00    10800.00
04744            -106.00    10600.00
04745            -102.00    10600.00
04746             -92.00    10400.00
04747             -88.00    10400.00
04748             -86.00    10200.00
04749             -82.00    10200.00
04750             -86.00    10000.00
04751             -82.00     9800.00
04752             -80.00    10000.00
04753             -72.00     9600.00
04754             -70.00     9600.00
04755             -66.00     9600.00
04756             -66.00     9400.00
04757             -70.00     9200.00
04758             -70.00     9000.00
04759             -64.00     9000.00
04760             -58.00     8800.00
04761             -54.00     8600.00
04762             -50.00     8400.00
04763             -54.00     8200.00
04764             -54.00     8200.00
04765             -54.00     8000.00
04766             -50.00     8000.00
04767             -42.00     7600.00
04768             -40.00     7600.00
04769             -42.00     7400.00
04770             -42.00     7200.00
04771             -42.00     7200.00
04772             -42.00     6800.00
04773             -40.00     6800.00
04774             -34.00     6800.00
04775             -34.00     6400.00
04776             -32.00     6400.00
04777             -34.00     6000.00
04778             -34.00     6000.00
04779             -32.00     5800.00
04780             -26.00     5600.00
04781             -24.00     5600.00
04782             -26.00     5400.00
04783             -28.00     5000.00
04784             -28.00     4800.00
04785             -26.00     4800.00
04786             -26.00     4400.00
04787             -22.00     4200.00
04788             -18.00     4200.00
04789             -22.00     4000.00
04790             -22.00     4000.00
04791             -22.00     3600.00
04792             -18.00     3400.00
04793             -16.00     3200.00
04794             -16.00     3000.00
04795             -14.00     2800.00
04796             -14.00     2800.00
04797             -16.00     2400.00
04798             -18.00     2200.00
04799             -16.00     2000.00
04800             -10.00     1800.00
04801              -8.00     1600.00
04802             -10.00     1600.00
04803             -14.00     1200.00
04804             -10.00     1200.00
04805             -10.00     1000.00
04806             -14.00      800.00
04807             -10.00      400.00
04808               2.00      400.00
04809               8.00      200.00
04810              -2.00        0.00
04811               6.00        0.00
04812              24.00     -400.00
04813              10.00     -800.00
04814             -12.00     -800.00
04815             -12.00     -800.00
04816               8.00    -1200.00
04817              18.00    -1000.00
04818              48.00    -1400.00
04819             190.00    -1800.00
04820             232.00    -2200.00
04821            -218.00    -2400.00
04822            -254.00    -2400.00
04823            -112.00    -2800.00
04824             150.00    -2800.00
04825             112.00    -2800.00
04826             246.00    -3000.00
04827             -74.00    -3600.00
04828            -254.00    -3200.00
04829             206.00    -4000.00
04830              48.00    -3800.00
04831              -8.00    -3600.00
04832              38.00    -4600.00
04833             -62.00    -4200.00
04834             106.00    -4800.00
04835             -10.00    -4600.00
04836             -54.00    -5000.00
04837             -10.00    -5200.00
04838              46.00    -5000.00
04839             132.00    -5600.00
04840             -46.00    -5400.00
04841               0.00    -6000.00
04842               2.00    -6000.00
04843              14.00    -6000.00
04844              96.00    -6400.00
04845             -10.00    -6200.00
04846              14.00    -6800.00
04847              26.00    -6800.00
04848              38.00    -7000.00
04849              16.00    -7400.00
04850              12.00    -7200.00
04851              54.00    -7400.00
04852              34.00    -7400.00
04853              56.00    -7800.00
04854              18.00    -8000.00
04855               8.00    -8000.00
04856              62.00    -8400.00
04857              38.00    -8400.00
04858              32.00    -8400.00
04859              46.00    -8600.00
04860              38.00    -8800.00
04861              46.00    -8800.00
04862              50.00    -9000.00
04863              38.00    -9200.00
04864              40.00    -9200.00
04865              54.00    -9400.00
04866              50.00    -9400.00
04867              54.00    -9600.00
04868              58.00    -9800.00
04869              42.00   -10000.00
04870              48.00   -10000.00
04871              54.00   -10000.00
04872              54.00   -10200.00
04873              78.00   -10200.00
04874              74.00   -10400.00
04875              54.00   -10400.00
04876              54.00   -10400.00
04877              58.00   -10800.00
04878              70.00   -10800.00
04879              86.00   -11000.00
04880              80.00   -11000.00
04881              70.00   -11000.00
04882              74.00   -11200.00
04883              72.00   -11200.00
04884              78.00   -11200.00
04885              88.00   -11200.00
04886              86.00   -11400.00
04887              90.00   -11400.00
04888              96.00   -11400.00
04889              86.00   -11600.00
04890              90.00   -11600.00
04891              96.00   -11600.00
04892              96.00   -11600.00
04893             110.00   -11600.00
04894             112.00   -11600.00
04895             110.00   -11800.00
04896             106.00   -11800.00
04897             106.00   -11800.00
04898             110.00   -11800.00
04899             126.00   -12000.00
04900             128.00   -12000.00
04901             126.00   -11800.00
04902             128.00   -11800.00
04903             126.00   -12000.00
04904             126.00   -12000.00
04905             136.00   -11800.00
04906             144.00   -11800.00
04907             150.00   -11800.00
04908             150.00   -12000.00
04909             144.00   -11800.00
04910             144.00   -11800.00
04911             150.00   -12000.00
04912             154.00   -11600.00
04913             160.00   -11800.00
04914             160.00   -11600.00
04915             150.00   -11800.00
04916             148.00   -11600.00
04917             150.00   -11600.00
04918             150.00   -11600.00
04919             152.00   -11600.00
04920             150.00   -11600.00
04921             144.00   -11400.00
04922             142.00   -11400.00
04923             134.00   -11200.00
04924             134.00   -11200.00
04925             130.00   -11200.00
04926             130.00   -11200.00
04927             128.00   -11200.00
04928             120.00   -11000.00
04929             112.00   -11000.00
04930             110.00   -11000.00
04931             106.00   -10800.00
04932             104.00   -10800.00
04933             104.00   -10600.00
04934             102.00   -10600.00
04935              94.00   -10400.00
04936              88.00   -10200.00
04937              82.00   -10000.00
04938              82.00   -10000.00
04939              80.00   -10000.00
04940              80.00   -10000.00
04941              78.00    -9600.00
04942              72.00    -9800.00
04943              66.00    -9600.00
04944              64.00    -9400.00
04945              64.00    -9200.00
04946              64.00    -9200.00
04947              62.00    -9200.00
04948              58.00    -8800.00
04949              54.00    -8800.00
04950              54.00    -8800.00
04951              50.00    -8600.00
04952              48.00    -8400.00
04953              48.00    -8400.00
04954              48.00    -8200.00
04955              46.00    -8000.00
04956              40.00    -7800.00
04957              38.00    -7800.00
04958              38.00    -7400.00
04959              44.00    -7400.00
04960              40.00    -7200.00
04961              38.00    -7000.00
04962              32.00    -7000.00
04963              26.00    -6800.00
04964              26.00    -6800.00
04965              30.00    -6400.00
04966              32.00    -6200.00
04967              32.00    -6200.00
04968              30.00    -5800.00
04969              24.00    -5800.00
04970              22.00    -5600.00
04971              22.00    -5400.00
04972              22.00    -5200.00
04973              22.00    -5200.00
04974              26.00    -4800.00
04975              22.00    -4600.00
04976              14.00    -4600.00
04977              14.00    -4400.00
04978              14.00    -4000.00
04979              18.00    -4000.00
04980              18.00    -3800.00
04981              16.00    -3600.00
04982               8.00    -3200.00
04983              10.00    -3200.00
04984              10.00    -3000.00
04985              10.00    -2800.00
04986              14.00    -2600.00
04987              10.00    -2400.00
04988              10.00    -2200.00
04989               6.00    -2200.00
04990               4.00    -2000.00
04991               6.00    -1600.00
04992               6.00    -1400.00
04993               4.00    -1400.00
04994               2.00    -1000.00
04995               2.00    -1000.00
04996               0.00     -600.00
04997              -2.00     -600.00
04998               0.00     -200.00
04999               0.00        0.00
05000               0.00      200.00
