Unit:(mV)
                     CH1         CH2
Frequency              ? 260.771 kHz
00001              12.00    -3000.00
00002               8.00    -2800.00
00003               6.00    -2800.00
00004               6.00    -2400.00
00005               8.00    -2400.00
00006               8.00    -2000.00
00007               0.00    -2000.00
00008               0.00    -1600.00
00009               2.00    -1400.00
00010               4.00    -1400.00
00011               4.00    -1000.00
00012               2.00     -800.00
00013              -2.00     -800.00
00014              -2.00     -600.00
00015               0.00     -400.00
00016               0.00        0.00
00017               0.00      200.00
00018              -2.00      200.00
00019               0.00      600.00
00020              24.00      600.00
00021              30.00     1000.00
00022               0.00     1000.00
00023             -20.00     1200.00
00024             -10.00     1400.00
00025              10.00     1600.00
00026              44.00     1800.00
00027             246.00     2000.00
00028             232.00     2400.00
00029            -254.00     2400.00
00030            -254.00     2600.00
00031            -138.00     2800.00
00032              96.00     3000.00
00033             246.00     3200.00
00034             226.00     3400.00
00035            -254.00     3400.00
00036              76.00     3800.00
00037             208.00     3800.00
00038            -194.00     4000.00
00039             142.00     4400.00
00040            -114.00     4400.00
00041               2.00     4400.00
00042             134.00     4800.00
00043            -210.00     5000.00
00044             -40.00     5200.00
00045              26.00     5600.00
00046              52.00     5600.00
00047             -16.00     5600.00
00048             -62.00     6000.00
00049             -22.00     6000.00
00050             -78.00     6000.00
00051             104.00     6600.00
00052             -78.00     6400.00
00053             -74.00     6800.00
00054              16.00     6800.00
00055             -56.00     6800.00
00056               6.00     7400.00
00057            -104.00     7200.00
00058              -2.00     7600.00
00059               6.00     7800.00
00060              42.00     8000.00
00061             -64.00     8200.00
00062             -58.00     8000.00
00063             -38.00     8600.00
00064             -80.00     8400.00
00065             -56.00     8800.00
00066             -50.00     8800.00
00067              -8.00     8800.00
00068             -26.00     9200.00
00069             -14.00     9200.00
00070             -66.00     9600.00
00071             -26.00     9400.00
00072             -62.00     9600.00
00073             -74.00     9600.00
00074             -38.00     9800.00
00075             -70.00    10000.00
00076             -56.00     9800.00
00077             -62.00    10200.00
00078             -52.00    10400.00
00079             -50.00    10400.00
00080             -34.00    10400.00
00081             -58.00    10600.00
00082             -54.00    10600.00
00083             -70.00    10800.00
00084            -100.00    10800.00
00085             -90.00    10800.00
00086             -66.00    11200.00
00087             -66.00    11000.00
00088             -64.00    11200.00
00089             -64.00    11400.00
00090             -70.00    11400.00
00091             -62.00    11600.00
00092             -94.00    11800.00
00093            -108.00    11600.00
00094             -94.00    11800.00
00095             -86.00    11800.00
00096             -90.00    12000.00
00097             -90.00    12000.00
00098             -96.00    12000.00
00099             -96.00    12000.00
00100             -90.00    12200.00
00101            -104.00    12000.00
00102            -104.00    12000.00
00103            -110.00    12200.00
00104            -120.00    12200.00
00105            -128.00    12200.00
00106            -120.00    12200.00
00107            -116.00    12400.00
00108            -104.00    12200.00
00109            -104.00    12400.00
00110            -128.00    12200.00
00111            -138.00    12400.00
00112            -144.00    12200.00
00113            -144.00    12200.00
00114            -138.00    12200.00
00115            -136.00    12400.00
00116            -138.00    12200.00
00117            -136.00    12200.00
00118            -150.00    12200.00
00119            -158.00    12200.00
00120            -154.00    12200.00
00121            -154.00    12200.00
00122            -148.00    12200.00
00123            -150.00    12200.00
00124            -160.00    12000.00
00125            -162.00    12000.00
00126            -154.00    12000.00
00127            -142.00    11800.00
00128            -140.00    12000.00
00129            -142.00    12000.00
00130            -154.00    12000.00
00131            -150.00    11800.00
00132            -138.00    12000.00
00133            -130.00    11600.00
00134            -128.00    11600.00
00135            -128.00    11600.00
00136            -128.00    11400.00
00137            -122.00    11400.00
00138            -118.00    11200.00
00139            -114.00    11200.00
00140            -110.00    11000.00
00141            -106.00    11000.00
00142            -102.00    10800.00
00143            -104.00    10800.00
00144            -106.00    10800.00
00145             -98.00    10600.00
00146             -88.00    10600.00
00147             -86.00    10400.00
00148             -82.00    10200.00
00149             -80.00    10000.00
00150             -80.00    10200.00
00151             -80.00    10000.00
00152             -82.00    10000.00
00153             -74.00     9800.00
00154             -66.00     9600.00
00155             -62.00     9600.00
00156             -64.00     9400.00
00157             -64.00     9200.00
00158             -64.00     9200.00
00159             -64.00     9000.00
00160             -58.00     8800.00
00161             -48.00     8800.00
00162             -46.00     8400.00
00163             -48.00     8400.00
00164             -54.00     8200.00
00165             -56.00     8000.00
00166             -46.00     8000.00
00167             -40.00     8000.00
00168             -38.00     7600.00
00169             -38.00     7600.00
00170             -46.00     7400.00
00171             -42.00     7200.00
00172             -42.00     7000.00
00173             -34.00     6800.00
00174             -34.00     6800.00
00175             -30.00     6400.00
00176             -30.00     6400.00
00177             -32.00     6200.00
00178             -38.00     6000.00
00179             -34.00     5800.00
00180             -30.00     5600.00
00181             -22.00     5600.00
00182             -18.00     5400.00
00183             -16.00     5200.00
00184             -26.00     5000.00
00185             -34.00     4800.00
00186             -28.00     4400.00
00187             -16.00     4400.00
00188              -8.00     4200.00
00189             -14.00     4200.00
00190             -26.00     3800.00
00191             -24.00     3600.00
00192             -16.00     3400.00
00193             -16.00     3400.00
00194             -14.00     3200.00
00195             -16.00     3000.00
00196             -16.00     2800.00
00197             -12.00     2600.00
00198             -12.00     2400.00
00199             -10.00     2200.00
00200             -10.00     2000.00
00201             -14.00     1600.00
00202             -10.00     1600.00
00203              -8.00     1400.00
00204              -8.00     1200.00
00205              -8.00     1000.00
00206             -12.00      800.00
00207             -14.00      400.00
00208              -2.00      400.00
00209               2.00      200.00
00210               0.00        0.00
00211               6.00        0.00
00212              24.00     -400.00
00213              14.00     -400.00
00214             -12.00     -800.00
00215             -16.00     -800.00
00216               6.00    -1000.00
00217              16.00    -1200.00
00218              32.00    -1400.00
00219             154.00    -1400.00
00220             246.00    -2000.00
00221            -114.00    -2400.00
00222            -254.00    -2400.00
00223            -202.00    -2600.00
00224              92.00    -2800.00
00225             120.00    -2600.00
00226             246.00    -3000.00
00227             -32.00    -3200.00
00228            -254.00    -3200.00
00229             184.00    -3800.00
00230              64.00    -3800.00
00231             -28.00    -3800.00
00232              42.00    -4400.00
00233             -48.00    -4000.00
00234             118.00    -4600.00
00235              -6.00    -4600.00
00236             -74.00    -4800.00
00237             -22.00    -5200.00
00238              32.00    -5000.00
00239             148.00    -5400.00
00240             -42.00    -5400.00
00241             -18.00    -5600.00
00242              14.00    -6000.00
00243              10.00    -6000.00
00244             102.00    -6400.00
00245             -16.00    -6200.00
00246               2.00    -6800.00
00247              26.00    -6800.00
00248              40.00    -6800.00
00249              18.00    -7200.00
00250               0.00    -7000.00
00251              50.00    -7400.00
00252              26.00    -7400.00
00253              46.00    -7800.00
00254              16.00    -7800.00
00255               2.00    -8000.00
00256              60.00    -8400.00
00257              38.00    -8200.00
00258              22.00    -8400.00
00259              32.00    -8600.00
00260              34.00    -8800.00
00261              46.00    -9000.00
00262              50.00    -8800.00
00263              38.00    -9200.00
00264              32.00    -9200.00
00265              46.00    -9400.00
00266              44.00    -9400.00
00267              42.00    -9600.00
00268              56.00    -9600.00
00269              46.00    -9800.00
00270              46.00   -10000.00
00271              48.00   -10000.00
00272              40.00   -10000.00
00273              64.00   -10200.00
00274              72.00   -10400.00
00275              56.00   -10400.00
00276              50.00   -10400.00
00277              52.00   -10600.00
00278              56.00   -10800.00
00279              74.00   -10800.00
00280              78.00   -11000.00
00281              66.00   -11000.00
00282              70.00   -11000.00
00283              70.00   -11200.00
00284              66.00   -11200.00
00285              78.00   -11200.00
00286              80.00   -11200.00
00287              82.00   -11400.00
00288              90.00   -11400.00
00289              82.00   -11600.00
00290              82.00   -11600.00
00291              94.00   -11600.00
00292              90.00   -11800.00
00293             102.00   -11800.00
00294             106.00   -11800.00
00295             104.00   -11800.00
00296             104.00   -11800.00
00297             102.00   -11800.00
00298             102.00   -11800.00
00299             112.00   -11800.00
00300             126.00   -11800.00
00301             120.00   -11800.00
00302             122.00   -11800.00
00303             122.00   -12000.00
00304             120.00   -12000.00
00305             130.00   -12000.00
00306             134.00   -11800.00
00307             136.00   -11800.00
00308             144.00   -12000.00
00309             138.00   -11800.00
00310             136.00   -12000.00
00311             142.00   -11800.00
00312             150.00   -11600.00
00313             152.00   -11800.00
00314             152.00   -11800.00
00315             146.00   -11800.00
00316             146.00   -11600.00
00317             146.00   -11800.00
00318             144.00   -11600.00
00319             148.00   -11600.00
00320             146.00   -11600.00
00321             142.00   -11600.00
00322             138.00   -11200.00
00323             130.00   -11400.00
00324             126.00   -11200.00
00325             126.00   -11200.00
00326             128.00   -11000.00
00327             126.00   -11200.00
00328             118.00   -11200.00
00329             110.00   -11000.00
00330             102.00   -11000.00
00331             102.00   -10800.00
00332             104.00   -10800.00
00333             102.00   -10800.00
00334              98.00   -10400.00
00335              90.00   -10400.00
00336              86.00   -10400.00
00337              82.00   -10200.00
00338              82.00   -10200.00
00339              80.00   -10200.00
00340              80.00   -10000.00
00341              74.00    -9800.00
00342              68.00    -9600.00
00343              64.00    -9600.00
00344              62.00    -9600.00
00345              60.00    -9200.00
00346              62.00    -9200.00
00347              62.00    -9200.00
00348              56.00    -9000.00
00349              52.00    -8800.00
00350              48.00    -8800.00
00351              46.00    -8400.00
00352              48.00    -8400.00
00353              50.00    -8400.00
00354              48.00    -8000.00
00355              42.00    -8000.00
00356              38.00    -8000.00
00357              38.00    -7800.00
00358              40.00    -7600.00
00359              36.00    -7400.00
00360              38.00    -7200.00
00361              32.00    -7200.00
00362              32.00    -7000.00
00363              32.00    -6800.00
00364              24.00    -6800.00
00365              26.00    -6400.00
00366              30.00    -6200.00
00367              30.00    -6200.00
00368              26.00    -6000.00
00369              22.00    -5800.00
00370              22.00    -5600.00
00371              18.00    -5400.00
00372              22.00    -5400.00
00373              18.00    -5200.00
00374              22.00    -4800.00
00375              18.00    -4800.00
00376              12.00    -4800.00
00377              14.00    -4400.00
00378              16.00    -4200.00
00379              16.00    -4000.00
00380              16.00    -3800.00
00381              14.00    -3600.00
00382              10.00    -3400.00
00383              14.00    -3200.00
00384               8.00    -3200.00
00385               6.00    -2800.00
00386              10.00    -2800.00
00387               8.00    -2400.00
00388              10.00    -2400.00
00389               8.00    -2200.00
00390               0.00    -2000.00
00391               2.00    -1800.00
00392               2.00    -1600.00
00393               2.00    -1200.00
00394               4.00    -1200.00
00395               2.00    -1000.00
00396               0.00     -800.00
00397              -4.00     -800.00
00398              -6.00     -400.00
00399              -2.00     -200.00
00400               2.00        0.00
00401               2.00      400.00
00402              -2.00      400.00
00403               8.00      600.00
00404              30.00      800.00
00405              12.00      800.00
00406             -14.00     1000.00
00407             -16.00     1200.00
00408               0.00     1400.00
00409              16.00     1600.00
00410             126.00     2000.00
00411             246.00     2200.00
00412             -46.00     2400.00
00413            -254.00     2400.00
00414            -254.00     2600.00
00415              -6.00     2800.00
00416             246.00     3200.00
00417             246.00     3400.00
00418            -254.00     3200.00
00419            -254.00     3600.00
00420             246.00     4000.00
00421            -112.00     3800.00
00422             -10.00     4400.00
00423              70.00     4400.00
00424            -158.00     4400.00
00425             182.00     4800.00
00426             -78.00     5000.00
00427            -166.00     5200.00
00428              26.00     5400.00
00429              22.00     5600.00
00430              48.00     5600.00
00431             -74.00     5800.00
00432              -6.00     6200.00
00433             -88.00     6000.00
00434               8.00     6400.00
00435              54.00     6600.00
00436            -118.00     6600.00
00437              14.00     6800.00
00438             -42.00     6800.00
00439             -16.00     7200.00
00440              -8.00     7400.00
00441             -66.00     7600.00
00442             -32.00     7600.00
00443             -10.00     7800.00
00444             -10.00     8000.00
00445             -64.00     8000.00
00446             -20.00     8400.00
00447             -48.00     8400.00
00448             -40.00     8400.00
00449             -42.00     8800.00
00450             -50.00     9000.00
00451             -38.00     9000.00
00452             -18.00     9200.00
00453             -42.00     9200.00
00454             -58.00     9400.00
00455             -42.00     9800.00
00456             -72.00     9600.00
00457             -42.00     9800.00
00458             -42.00    10000.00
00459             -40.00    10000.00
00460             -50.00    10000.00
00461             -74.00    10200.00
00462             -78.00    10400.00
00463             -50.00    10400.00
00464             -34.00    10600.00
00465             -62.00    10600.00
00466             -66.00    10600.00
00467             -80.00    10800.00
00468             -78.00    10800.00
00469             -64.00    11200.00
00470             -62.00    11200.00
00471             -70.00    11200.00
00472             -74.00    11400.00
00473             -88.00    11400.00
00474             -82.00    11600.00
00475             -74.00    11600.00
00476             -88.00    11800.00
00477             -88.00    11800.00
00478             -86.00    11800.00
00479             -90.00    11800.00
00480             -92.00    11800.00
00481             -90.00    12000.00
00482            -106.00    12000.00
00483            -106.00    12000.00
00484            -102.00    12000.00
00485             -96.00    12000.00
00486             -96.00    12200.00
00487            -110.00    12000.00
00488            -122.00    12200.00
00489            -118.00    12200.00
00490            -114.00    12200.00
00491            -112.00    12200.00
00492            -114.00    12200.00
00493            -126.00    12200.00
00494            -134.00    12200.00
00495            -136.00    12400.00
00496            -134.00    12200.00
00497            -134.00    12200.00
00498            -134.00    12200.00
00499            -136.00    12000.00
00500            -144.00    12000.00
00501            -152.00    12200.00
00502            -154.00    12200.00
00503            -152.00    12200.00
00504            -150.00    12200.00
00505            -146.00    12200.00
00506            -152.00    12000.00
00507            -158.00    12200.00
00508            -158.00    12200.00
00509            -160.00    12000.00
00510            -152.00    12000.00
00511            -142.00    12000.00
00512            -138.00    12000.00
00513            -146.00    12000.00
00514            -152.00    11800.00
00515            -150.00    12000.00
00516            -136.00    11800.00
00517            -128.00    11600.00
00518            -126.00    11600.00
00519            -122.00    11400.00
00520            -124.00    11400.00
00521            -122.00    11200.00
00522            -120.00    11400.00
00523            -114.00    11200.00
00524            -104.00    11200.00
00525            -102.00    11000.00
00526            -102.00    11000.00
00527            -104.00    10800.00
00528             -98.00    10600.00
00529             -96.00    10600.00
00530             -90.00    10400.00
00531             -82.00    10200.00
00532             -80.00    10200.00
00533             -80.00    10200.00
00534             -86.00    10000.00
00535             -80.00    10000.00
00536             -74.00     9800.00
00537             -68.00     9800.00
00538             -64.00     9600.00
00539             -64.00     9600.00
00540             -64.00     9200.00
00541             -64.00     9200.00
00542             -62.00     9200.00
00543             -58.00     9000.00
00544             -54.00     8800.00
00545             -50.00     8600.00
00546             -50.00     8400.00
00547             -54.00     8400.00
00548             -54.00     8200.00
00549             -50.00     8000.00
00550             -46.00     8000.00
00551             -42.00     7800.00
00552             -40.00     7600.00
00553             -40.00     7400.00
00554             -38.00     7200.00
00555             -42.00     7200.00
00556             -40.00     7000.00
00557             -34.00     6800.00
00558             -28.00     6800.00
00559             -32.00     6400.00
00560             -34.00     6400.00
00561             -32.00     6200.00
00562             -28.00     6000.00
00563             -28.00     5800.00
00564             -26.00     5600.00
00565             -30.00     5600.00
00566             -24.00     5200.00
00567             -24.00     5200.00
00568             -30.00     5000.00
00569             -26.00     4800.00
00570             -22.00     4400.00
00571             -16.00     4200.00
00572             -16.00     4200.00
00573             -18.00     4000.00
00574             -16.00     3800.00
00575             -18.00     3600.00
00576             -24.00     3400.00
00577             -16.00     3200.00
00578             -16.00     3000.00
00579             -14.00     2800.00
00580             -14.00     2800.00
00581             -18.00     2400.00
00582             -16.00     2400.00
00583             -10.00     2000.00
00584             -10.00     1800.00
00585             -10.00     1600.00
00586             -10.00     1600.00
00587              -8.00     1200.00
00588             -10.00     1200.00
00589             -14.00      800.00
00590             -10.00      600.00
00591              -6.00      400.00
00592              -2.00      400.00
00593              -2.00        0.00
00594               0.00     -200.00
00595              16.00     -400.00
00596              26.00     -400.00
00597               0.00     -600.00
00598             -16.00     -800.00
00599              -8.00    -1000.00
00600              12.00    -1000.00
00601              20.00    -1200.00
00602              76.00    -1400.00
00603             246.00    -1600.00
00604             120.00    -2400.00
00605            -254.00    -2600.00
00606            -254.00    -2400.00
00607               0.00    -2800.00
00608             106.00    -2800.00
00609             242.00    -2800.00
00610             246.00    -3200.00
00611            -254.00    -3200.00
00612             -60.00    -3400.00
00613             226.00    -4000.00
00614             -64.00    -3600.00
00615              58.00    -4400.00
00616             -40.00    -4400.00
00617              32.00    -4400.00
00618              96.00    -4800.00
00619             -78.00    -4600.00
00620             -32.00    -5200.00
00621             -18.00    -4800.00
00622             120.00    -5200.00
00623              58.00    -5600.00
00624             -66.00    -5400.00
00625              30.00    -6000.00
00626             -22.00    -5800.00
00627              78.00    -6200.00
00628              48.00    -6400.00
00629             -24.00    -6400.00
00630              26.00    -6800.00
00631              26.00    -6800.00
00632              42.00    -7000.00
00633              -8.00    -7000.00
00634              32.00    -7400.00
00635              40.00    -7600.00
00636              30.00    -7600.00
00637              48.00    -7800.00
00638              -2.00    -8000.00
00639              38.00    -8400.00
00640              50.00    -8400.00
00641              22.00    -8400.00
00642              26.00    -8800.00
00643              38.00    -8600.00
00644              42.00    -8800.00
00645              50.00    -9000.00
00646              40.00    -9200.00
00647              26.00    -9400.00
00648              38.00    -9200.00
00649              52.00    -9400.00
00650              46.00    -9600.00
00651              54.00    -9600.00
00652              48.00    -9600.00
00653              38.00   -10000.00
00654              52.00   -10000.00
00655              48.00   -10000.00
00656              58.00   -10200.00
00657              70.00   -10200.00
00658              58.00   -10400.00
00659              48.00   -10600.00
00660              56.00   -10600.00
00661              58.00   -10800.00
00662              66.00   -10800.00
00663              74.00   -10800.00
00664              66.00   -10800.00
00665              66.00   -11000.00
00666              78.00   -11000.00
00667              70.00   -11200.00
00668              74.00   -11200.00
00669              78.00   -11200.00
00670              78.00   -11400.00
00671              90.00   -11600.00
00672              88.00   -11600.00
00673              80.00   -11600.00
00674              88.00   -11600.00
00675              92.00   -11600.00
00676              96.00   -11600.00
00677             102.00   -11800.00
00678             104.00   -11600.00
00679             102.00   -11800.00
00680             104.00   -12000.00
00681             102.00   -11800.00
00682             104.00   -11800.00
00683             118.00   -11800.00
00684             122.00   -11800.00
00685             122.00   -12000.00
00686             128.00   -11800.00
00687             118.00   -12000.00
00688             118.00   -11800.00
00689             130.00   -11800.00
00690             138.00   -11800.00
00691             146.00   -11800.00
00692             142.00   -11800.00
00693             134.00   -11800.00
00694             134.00   -12000.00
00695             146.00   -11800.00
00696             152.00   -11800.00
00697             158.00   -11600.00
00698             152.00   -11600.00
00699             146.00   -11800.00
00700             142.00   -11600.00
00701             138.00   -11600.00
00702             146.00   -11600.00
00703             150.00   -11600.00
00704             144.00   -11600.00
00705             138.00   -11600.00
00706             130.00   -11400.00
00707             130.00   -11200.00
00708             128.00   -11200.00
00709             126.00   -11200.00
00710             126.00   -11200.00
00711             122.00   -11000.00
00712             118.00   -11000.00
00713             110.00   -11000.00
00714             102.00   -10800.00
00715             102.00   -10800.00
00716             106.00   -10800.00
00717             102.00   -10600.00
00718              96.00   -10800.00
00719              86.00   -10400.00
00720              80.00   -10400.00
00721              82.00   -10200.00
00722              80.00   -10000.00
00723              78.00   -10000.00
00724              80.00   -10000.00
00725              72.00    -9800.00
00726              66.00    -9600.00
00727              62.00    -9600.00
00728              62.00    -9400.00
00729              64.00    -9200.00
00730              62.00    -9200.00
00731              56.00    -9200.00
00732              54.00    -8800.00
00733              48.00    -8800.00
00734              46.00    -8800.00
00735              50.00    -8400.00
00736              50.00    -8400.00
00737              48.00    -8400.00
00738              44.00    -8000.00
00739              38.00    -8000.00
00740              34.00    -7800.00
00741              34.00    -7800.00
00742              32.00    -7400.00
00743              38.00    -7200.00
00744              38.00    -7200.00
00745              34.00    -7000.00
00746              30.00    -7000.00
00747              24.00    -6800.00
00748              20.00    -6600.00
00749              26.00    -6400.00
00750              30.00    -6200.00
00751              26.00    -6000.00
00752              28.00    -6000.00
00753              22.00    -5600.00
00754              14.00    -5600.00
00755              14.00    -5400.00
00756              18.00    -5200.00
00757              26.00    -4800.00
00758              24.00    -4800.00
00759              14.00    -4800.00
00760               6.00    -4400.00
00761               8.00    -4400.00
00762              16.00    -4000.00
00763              18.00    -4000.00
00764              16.00    -3600.00
00765              12.00    -3600.00
00766               8.00    -3200.00
00767               6.00    -3200.00
00768               6.00    -3000.00
00769              10.00    -2800.00
00770               8.00    -2600.00
00771               8.00    -2400.00
00772               4.00    -2200.00
00773               2.00    -2000.00
00774               6.00    -2000.00
00775               6.00    -1600.00
00776               0.00    -1400.00
00777               4.00    -1400.00
00778               0.00    -1000.00
00779               2.00     -800.00
00780               2.00     -600.00
00781              -6.00     -400.00
00782              -2.00     -200.00
00783               2.00        0.00
00784               2.00      200.00
00785               2.00      400.00
00786               0.00      400.00
00787              18.00      800.00
00788              24.00      800.00
00789              -2.00     1000.00
00790             -18.00     1200.00
00791              -6.00     1400.00
00792               8.00     1600.00
00793              46.00     1800.00
00794             246.00     2000.00
00795             216.00     2600.00
00796            -254.00     2400.00
00797            -254.00     2600.00
00798            -124.00     2800.00
00799             110.00     2800.00
00800             246.00     3200.00
00801             176.00     3400.00
00802            -254.00     3200.00
00803             110.00     4000.00
00804             178.00     4000.00
00805            -192.00     4000.00
00806             146.00     4400.00
00807            -126.00     4400.00
00808              22.00     4600.00
00809             114.00     4800.00
00810            -214.00     5200.00
00811             -28.00     5200.00
00812              22.00     5400.00
00813              54.00     5600.00
00814             -30.00     5600.00
00815             -56.00     6000.00
00816             -22.00     6000.00
00817             -80.00     6400.00
00818              94.00     6800.00
00819             -78.00     6600.00
00820             -62.00     6800.00
00821              18.00     6800.00
00822             -54.00     7200.00
00823               0.00     7400.00
00824             -64.00     7400.00
00825             -40.00     7600.00
00826             -10.00     7600.00
00827               4.00     8000.00
00828             -62.00     8000.00
00829             -50.00     8200.00
00830             -24.00     8400.00
00831             -48.00     8400.00
00832             -20.00     8800.00
00833             -48.00     8800.00
00834             -56.00     8800.00
00835             -40.00     9200.00
00836             -22.00     9200.00
00837             -50.00     9400.00
00838             -38.00     9400.00
00839             -62.00     9600.00
00840             -64.00     9600.00
00841             -32.00     9800.00
00842             -50.00    10000.00
00843             -42.00    10000.00
00844             -56.00    10000.00
00845             -72.00    10200.00
00846             -70.00    10400.00
00847             -42.00    10400.00
00848             -50.00    10800.00
00849             -56.00    10600.00
00850             -68.00    10800.00
00851             -88.00    10800.00
00852             -74.00    11000.00
00853             -64.00    11000.00
00854             -66.00    11200.00
00855             -70.00    11400.00
00856             -74.00    11400.00
00857             -82.00    11200.00
00858             -76.00    11400.00
00859             -88.00    11600.00
00860             -90.00    11400.00
00861             -82.00    11800.00
00862             -88.00    11800.00
00863             -90.00    11800.00
00864             -94.00    11800.00
00865            -104.00    12000.00
00866            -106.00    12000.00
00867            -100.00    12000.00
00868             -94.00    12000.00
00869             -96.00    12000.00
00870            -112.00    12200.00
00871            -120.00    12200.00
00872            -122.00    12200.00
00873            -114.00    12200.00
00874            -112.00    12200.00
00875            -120.00    12200.00
00876            -122.00    12400.00
00877            -122.00    12200.00
00878            -138.00    12200.00
00879            -144.00    12200.00
00880            -134.00    12200.00
00881            -134.00    12200.00
00882            -132.00    12400.00
00883            -144.00    12200.00
00884            -154.00    12200.00
00885            -154.00    12200.00
00886            -154.00    12200.00
00887            -152.00    12200.00
00888            -150.00    12200.00
00889            -152.00    12200.00
00890            -158.00    12200.00
00891            -154.00    12200.00
00892            -156.00    12000.00
00893            -154.00    12200.00
00894            -152.00    12000.00
00895            -146.00    12000.00
00896            -144.00    11800.00
00897            -144.00    12000.00
00898            -150.00    11800.00
00899            -140.00    11600.00
00900            -134.00    11800.00
00901            -128.00    11600.00
00902            -122.00    11600.00
00903            -122.00    11400.00
00904            -122.00    11400.00
00905            -122.00    11400.00
00906            -118.00    11200.00
00907            -110.00    11200.00
00908            -102.00    11000.00
00909            -102.00    10800.00
00910             -98.00    10800.00
00911             -98.00    10800.00
00912             -98.00    10600.00
00913             -96.00    10600.00
00914             -88.00    10400.00
00915             -78.00    10400.00
00916             -74.00    10400.00
00917             -80.00    10000.00
00918             -86.00     9800.00
00919             -82.00     9600.00
00920             -78.00     9800.00
00921             -64.00     9600.00
00922             -56.00     9600.00
00923             -60.00     9600.00
00924             -66.00     9200.00
00925             -70.00     9200.00
00926             -64.00     9000.00
00927             -52.00     9000.00
00928             -50.00     8600.00
00929             -48.00     8400.00
00930             -54.00     8400.00
00931             -56.00     8200.00
00932             -54.00     8200.00
00933             -46.00     8000.00
00934             -40.00     7600.00
00935             -42.00     7600.00
00936             -48.00     7400.00
00937             -42.00     7400.00
00938             -42.00     7200.00
00939             -38.00     7000.00
00940             -34.00     6800.00
00941             -38.00     6600.00
00942             -34.00     6600.00
00943             -30.00     6400.00
00944             -32.00     6400.00
00945             -32.00     6000.00
00946             -34.00     6000.00
00947             -34.00     5600.00
00948             -26.00     5600.00
00949             -18.00     5400.00
00950             -24.00     5000.00
00951             -26.00     5000.00
00952             -30.00     4800.00
00953             -32.00     4600.00
00954             -22.00     4400.00
00955             -16.00     4400.00
00956             -10.00     4000.00
00957             -16.00     3800.00
00958             -26.00     3600.00
00959             -28.00     3600.00
00960             -18.00     3400.00
00961             -10.00     3200.00
00962             -10.00     2800.00
00963             -14.00     2600.00
00964             -18.00     2400.00
00965             -16.00     2400.00
00966             -14.00     2000.00
00967             -16.00     2000.00
00968             -10.00     1800.00
00969              -6.00     1600.00
00970              -8.00     1400.00
00971             -10.00     1200.00
00972             -14.00     1000.00
00973             -12.00      800.00
00974              -4.00      400.00
00975              -2.00      400.00
00976              -2.00      200.00
00977               0.00        0.00
00978               6.00        0.00
00979              26.00     -400.00
00980              14.00     -600.00
00981             -14.00     -800.00
00982             -16.00     -800.00
00983               2.00     -800.00
00984              14.00    -1200.00
00985              38.00    -1400.00
00986             166.00    -1600.00
00987             246.00    -2000.00
00988            -138.00    -2400.00
00989            -254.00    -2400.00
00990            -178.00    -2400.00
00991             102.00    -2800.00
00992             126.00    -2600.00
00993             246.00    -3000.00
00994             -68.00    -3400.00
00995            -254.00    -3000.00
00996             202.00    -3800.00
00997              50.00    -3600.00
00998             -16.00    -3600.00
00999              38.00    -4400.00
01000             -48.00    -4000.00
01001             118.00    -4800.00
01002             -10.00    -4800.00
01003             -66.00    -4800.00
01004             -24.00    -5200.00
01005              36.00    -5000.00
01006             138.00    -5600.00
01007             -46.00    -5400.00
01008             -10.00    -5800.00
01009               8.00    -6000.00
01010              16.00    -6000.00
01011              94.00    -6400.00
01012             -22.00    -6200.00
01013               8.00    -6800.00
01014              24.00    -6800.00
01015              42.00    -6800.00
01016              10.00    -7200.00
01017               0.00    -7200.00
01018              52.00    -7400.00
01019              26.00    -7400.00
01020              48.00    -7800.00
01021              22.00    -8000.00
01022               0.00    -8000.00
01023              58.00    -8400.00
01024              38.00    -8200.00
01025              18.00    -8600.00
01026              32.00    -8600.00
01027              36.00    -8800.00
01028              42.00    -8800.00
01029              50.00    -9000.00
01030              32.00    -9200.00
01031              32.00    -9200.00
01032              48.00    -9400.00
01033              42.00    -9400.00
01034              42.00    -9600.00
01035              62.00    -9600.00
01036              46.00    -9800.00
01037              46.00   -10000.00
01038              48.00   -10000.00
01039              38.00   -10000.00
01040              70.00   -10200.00
01041              70.00   -10400.00
01042              54.00   -10400.00
01043              58.00   -10600.00
01044              62.00   -10800.00
01045              58.00   -10800.00
01046              70.00   -10800.00
01047              66.00   -11000.00
01048              66.00   -11000.00
01049              80.00   -11200.00
01050              76.00   -11000.00
01051              70.00   -11200.00
01052              78.00   -11200.00
01053              80.00   -11400.00
01054              80.00   -11400.00
01055              86.00   -11200.00
01056              88.00   -11600.00
01057              94.00   -11600.00
01058              90.00   -11600.00
01059              80.00   -11600.00
01060              94.00   -11600.00
01061             112.00   -11800.00
01062             114.00   -12000.00
01063             106.00   -11800.00
01064              94.00   -12000.00
01065              90.00   -11800.00
01066             114.00   -11800.00
01067             130.00   -12000.00
01068             126.00   -11800.00
01069             118.00   -12000.00
01070             110.00   -11800.00
01071             118.00   -12000.00
01072             134.00   -12000.00
01073             144.00   -12000.00
01074             140.00   -11800.00
01075             136.00   -12000.00
01076             128.00   -12000.00
01077             134.00   -11800.00
01078             148.00   -11800.00
01079             158.00   -11800.00
01080             154.00   -11800.00
01081             150.00   -11800.00
01082             142.00   -11800.00
01083             142.00   -11800.00
01084             144.00   -11600.00
01085             150.00   -11600.00
01086             150.00   -11600.00
01087             146.00   -11600.00
01088             134.00   -11600.00
01089             130.00   -11600.00
01090             130.00   -11400.00
01091             134.00   -11200.00
01092             124.00   -11200.00
01093             126.00   -11200.00
01094             120.00   -11200.00
01095             122.00   -11000.00
01096             114.00   -11000.00
01097             104.00   -10800.00
01098             104.00   -10800.00
01099             104.00   -10800.00
01100              98.00   -10600.00
01101              94.00   -10600.00
01102              92.00   -10400.00
01103              92.00   -10400.00
01104              88.00   -10200.00
01105              78.00   -10000.00
01106              74.00   -10000.00
01107              78.00   -10000.00
01108              78.00    -9800.00
01109              72.00    -9600.00
01110              66.00    -9600.00
01111              62.00    -9600.00
01112              58.00    -9400.00
01113              58.00    -9200.00
01114              56.00    -9200.00
01115              58.00    -9000.00
01116              56.00    -8800.00
01117              48.00    -8800.00
01118              44.00    -8800.00
01119              48.00    -8400.00
01120              48.00    -8400.00
01121              46.00    -8400.00
01122              38.00    -8000.00
01123              34.00    -7800.00
01124              38.00    -7800.00
01125              34.00    -7400.00
01126              32.00    -7600.00
01127              34.00    -7200.00
01128              30.00    -7200.00
01129              32.00    -7000.00
01130              26.00    -7000.00
01131              28.00    -6800.00
01132              26.00    -6400.00
01133              24.00    -6400.00
01134              22.00    -6200.00
01135              26.00    -6200.00
01136              26.00    -5800.00
01137              18.00    -5600.00
01138              16.00    -5600.00
01139              16.00    -5400.00
01140              22.00    -5000.00
01141              24.00    -4800.00
01142              20.00    -4800.00
01143              14.00    -4600.00
01144               8.00    -4400.00
01145              10.00    -4200.00
01146              14.00    -4000.00
01147              16.00    -3800.00
01148              14.00    -3600.00
01149              10.00    -3600.00
01150               6.00    -3200.00
01151               6.00    -3000.00
01152               8.00    -3000.00
01153              10.00    -2800.00
01154              10.00    -2400.00
01155               8.00    -2400.00
01156               4.00    -2200.00
01157               2.00    -2000.00
01158               0.00    -1600.00
01159               4.00    -1400.00
01160               6.00    -1200.00
01161               6.00    -1200.00
01162               4.00    -1000.00
01163              -2.00     -800.00
01164              -2.00     -600.00
01165               0.00     -400.00
01166               4.00     -200.00
01167               0.00        0.00
01168               2.00        0.00
01169               2.00      400.00
01170              12.00      800.00
01171              34.00      800.00
01172              10.00     1000.00
01173             -14.00     1000.00
01174             -10.00     1200.00
01175               0.00     1400.00
01176              18.00     1600.00
01177             140.00     2000.00
01178             246.00     2200.00
01179             -74.00     2400.00
01180            -254.00     2400.00
01181            -254.00     2600.00
01182               2.00     2800.00
01183             246.00     3200.00
01184             246.00     3400.00
01185            -254.00     3200.00
01186            -254.00     3600.00
01187             246.00     4000.00
01188            -130.00     4000.00
01189               8.00     4200.00
01190              54.00     4400.00
01191            -150.00     4400.00
01192             182.00     4800.00
01193             -96.00     4800.00
01194            -152.00     5400.00
01195              32.00     5200.00
01196              22.00     5600.00
01197              38.00     5600.00
01198             -82.00     5800.00
01199              -2.00     6000.00
01200             -86.00     6000.00
01201              24.00     6600.00
01202              34.00     6400.00
01203            -128.00     6600.00
01204              24.00     6800.00
01205             -34.00     7000.00
01206             -18.00     7200.00
01207             -30.00     7400.00
01208             -70.00     7600.00
01209             -18.00     7600.00
01210               6.00     7800.00
01211             -24.00     8000.00
01212             -78.00     8000.00
01213             -24.00     8400.00
01214             -46.00     8400.00
01215             -26.00     8400.00
01216             -32.00     8800.00
01217             -54.00     9000.00
01218             -48.00     9000.00
01219             -26.00     9200.00
01220             -40.00     9400.00
01221             -50.00     9200.00
01222             -42.00     9600.00
01223             -72.00     9600.00
01224             -34.00     9800.00
01225             -48.00     9800.00
01226             -48.00    10000.00
01227             -46.00    10200.00
01228             -64.00    10200.00
01229             -74.00    10400.00
01230             -56.00    10400.00
01231             -42.00    10600.00
01232             -50.00    10600.00
01233             -58.00    10800.00
01234             -80.00    10800.00
01235             -78.00    10800.00
01236             -66.00    11200.00
01237             -64.00    11000.00
01238             -66.00    11200.00
01239             -72.00    11400.00
01240             -80.00    11400.00
01241             -82.00    11400.00
01242             -82.00    11400.00
01243             -90.00    11800.00
01244             -82.00    11800.00
01245             -80.00    11600.00
01246             -88.00    12000.00
01247             -96.00    11800.00
01248             -96.00    12000.00
01249            -104.00    12000.00
01250            -102.00    12000.00
01251             -98.00    12000.00
01252            -102.00    12200.00
01253            -104.00    12200.00
01254            -112.00    12200.00
01255            -122.00    12200.00
01256            -122.00    12200.00
01257            -116.00    12200.00
01258            -118.00    12200.00
01259            -118.00    12400.00
01260            -124.00    12200.00
01261            -136.00    12200.00
01262            -138.00    12400.00
01263            -138.00    12400.00
01264            -136.00    12200.00
01265            -136.00    12400.00
01266            -138.00    12400.00
01267            -146.00    12400.00
01268            -154.00    12200.00
01269            -154.00    12400.00
01270            -154.00    12000.00
01271            -148.00    12200.00
01272            -150.00    12200.00
01273            -152.00    12200.00
01274            -160.00    12000.00
01275            -162.00    12000.00
01276            -160.00    12000.00
01277            -150.00    12000.00
01278            -144.00    12000.00
01279            -144.00    11800.00
01280            -148.00    12000.00
01281            -150.00    12000.00
01282            -142.00    11800.00
01283            -138.00    11800.00
01284            -130.00    11600.00
01285            -124.00    11600.00
01286            -126.00    11400.00
01287            -122.00    11400.00
01288            -126.00    11400.00
01289            -122.00    11200.00
01290            -110.00    11200.00
01291            -104.00    11200.00
01292            -102.00    11000.00
01293            -102.00    10800.00
01294             -98.00    10800.00
01295            -100.00    10800.00
01296             -96.00    10600.00
01297             -90.00    10400.00
01298             -82.00    10400.00
01299             -78.00    10400.00
01300             -80.00    10200.00
01301             -80.00    10000.00
01302             -78.00     9800.00
01303             -78.00     9600.00
01304             -64.00     9600.00
01305             -62.00     9600.00
01306             -66.00     9600.00
01307             -66.00     9400.00
01308             -64.00     9200.00
01309             -62.00     9200.00
01310             -64.00     9000.00
01311             -54.00     8800.00
01312             -48.00     8600.00
01313             -50.00     8400.00
01314             -58.00     8400.00
01315             -54.00     8200.00
01316             -50.00     8000.00
01317             -48.00     8000.00
01318             -36.00     7800.00
01319             -32.00     7600.00
01320             -42.00     7400.00
01321             -48.00     7200.00
01322             -54.00     7200.00
01323             -40.00     7000.00
01324             -26.00     6800.00
01325             -22.00     6600.00
01326             -34.00     6600.00
01327             -42.00     6400.00
01328             -44.00     6200.00
01329             -34.00     6000.00
01330             -22.00     5800.00
01331             -16.00     5600.00
01332             -26.00     5400.00
01333             -34.00     5200.00
01334             -40.00     5000.00
01335             -26.00     5000.00
01336              -8.00     4800.00
01337              -8.00     4400.00
01338             -26.00     4200.00
01339             -40.00     4000.00
01340             -30.00     4000.00
01341             -14.00     3600.00
01342              -8.00     3400.00
01343             -14.00     3400.00
01344             -20.00     3200.00
01345             -18.00     3000.00
01346             -14.00     2800.00
01347             -14.00     2600.00
01348             -16.00     2400.00
01349             -16.00     2400.00
01350             -14.00     2000.00
01351             -10.00     2000.00
01352              -8.00     1600.00
01353              -8.00     1600.00
01354             -10.00     1400.00
01355             -14.00     1200.00
01356             -14.00      800.00
01357              -4.00      800.00
01358               0.00      600.00
01359              -2.00      400.00
01360               0.00      200.00
01361               0.00        0.00
01362              22.00     -200.00
01363              26.00     -400.00
01364              -2.00     -600.00
01365             -16.00     -800.00
01366               0.00    -1000.00
01367              12.00    -1000.00
01368              22.00    -1200.00
01369              82.00    -1400.00
01370             246.00    -1800.00
01371             104.00    -2200.00
01372            -254.00    -2400.00
01373            -254.00    -2600.00
01374              14.00    -2600.00
01375             102.00    -2600.00
01376             246.00    -2800.00
01377             242.00    -3200.00
01378            -254.00    -3000.00
01379             -32.00    -3400.00
01380             210.00    -3800.00
01381             -64.00    -3600.00
01382              66.00    -4200.00
01383             -46.00    -4000.00
01384              38.00    -4400.00
01385              90.00    -4600.00
01386             -80.00    -4600.00
01387             -30.00    -5200.00
01388             -22.00    -4800.00
01389             128.00    -5400.00
01390              54.00    -5400.00
01391             -66.00    -5600.00
01392              22.00    -6200.00
01393             -22.00    -5800.00
01394              82.00    -6200.00
01395              42.00    -6200.00
01396             -22.00    -6400.00
01397              26.00    -6800.00
01398              24.00    -6800.00
01399              38.00    -7200.00
01400             -12.00    -7200.00
01401              38.00    -7200.00
01402              42.00    -7600.00
01403              30.00    -7600.00
01404              42.00    -8000.00
01405              -6.00    -8000.00
01406              42.00    -8400.00
01407              54.00    -8200.00
01408              18.00    -8600.00
01409              24.00    -8800.00
01410              38.00    -8800.00
01411              40.00    -8800.00
01412              46.00    -8800.00
01413              40.00    -9000.00
01414              30.00    -9200.00
01415              46.00    -9200.00
01416              50.00    -9600.00
01417              38.00    -9600.00
01418              54.00    -9600.00
01419              58.00    -9600.00
01420              46.00    -9800.00
01421              50.00   -10000.00
01422              38.00   -10000.00
01423              54.00   -10200.00
01424              78.00   -10200.00
01425              62.00   -10400.00
01426              54.00   -10400.00
01427              56.00   -10400.00
01428              54.00   -10800.00
01429              66.00   -10800.00
01430              78.00   -10800.00
01431              72.00   -11000.00
01432              74.00   -11000.00
01433              74.00   -11000.00
01434              66.00   -11200.00
01435              78.00   -11200.00
01436              86.00   -11200.00
01437              84.00   -11200.00
01438              88.00   -11600.00
01439              82.00   -11600.00
01440              80.00   -11600.00
01441              88.00   -11600.00
01442              90.00   -11600.00
01443              96.00   -11800.00
01444             104.00   -11600.00
01445             102.00   -11800.00
01446              96.00   -11800.00
01447              98.00   -11800.00
01448             104.00   -11800.00
01449             112.00   -11800.00
01450             120.00   -11800.00
01451             122.00   -12000.00
01452             118.00   -12000.00
01453             118.00   -12000.00
01454             114.00   -11800.00
01455             126.00   -12000.00
01456             136.00   -12000.00
01457             138.00   -12000.00
01458             136.00   -11800.00
01459             134.00   -12000.00
01460             134.00   -11800.00
01461             140.00   -11800.00
01462             146.00   -11600.00
01463             150.00   -11800.00
01464             152.00   -11800.00
01465             150.00   -11800.00
01466             146.00   -11800.00
01467             142.00   -11600.00
01468             144.00   -11600.00
01469             144.00   -11600.00
01470             146.00   -11600.00
01471             144.00   -11600.00
01472             138.00   -11600.00
01473             134.00   -11400.00
01474             126.00   -11200.00
01475             120.00   -11400.00
01476             128.00   -11200.00
01477             128.00   -11200.00
01478             122.00   -11000.00
01479             112.00   -11000.00
01480             104.00   -11000.00
01481             102.00   -11000.00
01482             108.00   -10800.00
01483             104.00   -10600.00
01484             100.00   -10800.00
01485              94.00   -10600.00
01486              86.00   -10400.00
01487              80.00   -10400.00
01488              80.00   -10200.00
01489              82.00   -10200.00
01490              80.00    -9800.00
01491              78.00   -10000.00
01492              70.00    -9800.00
01493              70.00    -9600.00
01494              70.00    -9600.00
01495              64.00    -9400.00
01496              58.00    -9200.00
01497              56.00    -9200.00
01498              58.00    -9000.00
01499              56.00    -8800.00
01500              50.00    -9000.00
01501              48.00    -8800.00
01502              48.00    -8600.00
01503              48.00    -8400.00
01504              46.00    -8400.00
01505              40.00    -8000.00
01506              38.00    -8000.00
01507              40.00    -8000.00
01508              34.00    -7600.00
01509              34.00    -7400.00
01510              34.00    -7200.00
01511              36.00    -7200.00
01512              32.00    -7200.00
01513              24.00    -6800.00
01514              26.00    -6800.00
01515              30.00    -6600.00
01516              28.00    -6400.00
01517              24.00    -6400.00
01518              24.00    -6000.00
01519              24.00    -6000.00
01520              24.00    -5600.00
01521              18.00    -5600.00
01522              14.00    -5400.00
01523              18.00    -5200.00
01524              22.00    -5000.00
01525              22.00    -5000.00
01526              14.00    -4600.00
01527              10.00    -4600.00
01528              10.00    -4400.00
01529              16.00    -4000.00
01530              18.00    -4000.00
01531              16.00    -3800.00
01532              12.00    -3600.00
01533               6.00    -3400.00
01534               8.00    -3200.00
01535               8.00    -3000.00
01536               6.00    -2800.00
01537               8.00    -2600.00
01538              10.00    -2400.00
01539               8.00    -2200.00
01540               6.00    -2000.00
01541               0.00    -2000.00
01542               2.00    -1600.00
01543               8.00    -1600.00
01544               8.00    -1000.00
01545               6.00    -1000.00
01546               0.00     -800.00
01547              -4.00     -600.00
01548               0.00     -600.00
01549               0.00     -200.00
01550               0.00        0.00
01551               0.00      200.00
01552               4.00      400.00
01553               2.00      400.00
01554              24.00      800.00
01555              22.00     1000.00
01556              -2.00     1000.00
01557             -16.00     1200.00
01558              -6.00     1400.00
01559              10.00     1600.00
01560              54.00     1800.00
01561             246.00     2000.00
01562             198.00     2400.00
01563            -254.00     2400.00
01564            -254.00     2600.00
01565            -104.00     2800.00
01566             126.00     3000.00
01567             246.00     3400.00
01568             128.00     3200.00
01569            -254.00     3200.00
01570             150.00     3800.00
01571             146.00     4000.00
01572            -184.00     4200.00
01573             150.00     4400.00
01574            -128.00     4200.00
01575              42.00     4400.00
01576              96.00     4800.00
01577            -218.00     5000.00
01578             -22.00     5200.00
01579              22.00     5400.00
01580              56.00     5600.00
01581             -34.00     5600.00
01582             -48.00     6000.00
01583             -32.00     6000.00
01584             -74.00     6400.00
01585              96.00     6600.00
01586             -86.00     6400.00
01587             -48.00     6600.00
01588              16.00     6800.00
01589             -56.00     7200.00
01590              -2.00     7400.00
01591             -68.00     7400.00
01592             -38.00     7600.00
01593              -6.00     7600.00
01594               2.00     8000.00
01595             -68.00     8000.00
01596             -50.00     8200.00
01597             -26.00     8400.00
01598             -42.00     8600.00
01599             -22.00     8800.00
01600             -50.00     8800.00
01601             -54.00     9000.00
01602             -42.00     9200.00
01603             -26.00     9400.00
01604             -56.00     9400.00
01605             -34.00     9600.00
01606             -62.00     9600.00
01607             -58.00     9600.00
01608             -40.00     9800.00
01609             -54.00    10000.00
01610             -40.00    10000.00
01611             -56.00    10200.00
01612             -70.00    10400.00
01613             -74.00    10400.00
01614             -42.00    10400.00
01615             -48.00    10600.00
01616             -56.00    10600.00
01617             -70.00    10800.00
01618             -86.00    10800.00
01619             -72.00    11200.00
01620             -62.00    11000.00
01621             -70.00    11200.00
01622             -70.00    11200.00
01623             -72.00    11400.00
01624             -84.00    11400.00
01625             -80.00    11600.00
01626             -86.00    11800.00
01627             -88.00    11600.00
01628             -78.00    11800.00
01629             -82.00    11800.00
01630             -94.00    12000.00
01631             -96.00    12000.00
01632             -98.00    12000.00
01633            -106.00    12000.00
01634             -98.00    12000.00
01635             -96.00    12000.00
01636            -104.00    12000.00
01637            -106.00    12200.00
01638            -120.00    12200.00
01639            -122.00    12200.00
01640            -114.00    12400.00
01641            -118.00    12200.00
01642            -120.00    12200.00
01643            -120.00    12200.00
01644            -130.00    12400.00
01645            -136.00    12400.00
01646            -138.00    12200.00
01647            -138.00    12200.00
01648            -136.00    12200.00
01649            -136.00    12200.00
01650            -144.00    12400.00
01651            -152.00    12400.00
01652            -156.00    12200.00
01653            -156.00    12200.00
01654            -152.00    12200.00
01655            -150.00    12200.00
01656            -152.00    12200.00
01657            -158.00    12200.00
01658            -160.00    12000.00
01659            -160.00    12000.00
01660            -152.00    12200.00
01661            -146.00    12000.00
01662            -144.00    12000.00
01663            -144.00    12000.00
01664            -146.00    12000.00
01665            -146.00    12000.00
01666            -142.00    11800.00
01667            -136.00    11600.00
01668            -128.00    11800.00
01669            -126.00    11400.00
01670            -126.00    11400.00
01671            -122.00    11400.00
01672            -120.00    11400.00
01673            -118.00    11200.00
01674            -108.00    11200.00
01675            -102.00    11000.00
01676            -102.00    11000.00
01677             -98.00    10800.00
01678             -96.00    10800.00
01679             -98.00    10600.00
01680             -96.00    10600.00
01681             -82.00    10400.00
01682             -78.00    10400.00
01683             -80.00    10400.00
01684             -80.00    10000.00
01685             -80.00    10000.00
01686             -74.00     9800.00
01687             -74.00     9800.00
01688             -66.00     9600.00
01689             -62.00     9600.00
01690             -62.00     9400.00
01691             -64.00     9400.00
01692             -66.00     9200.00
01693             -58.00     9000.00
01694             -52.00     9000.00
01695             -50.00     8600.00
01696             -48.00     8400.00
01697             -50.00     8400.00
01698             -52.00     8200.00
01699             -54.00     8000.00
01700             -48.00     8000.00
01701             -38.00     7800.00
01702             -32.00     7600.00
01703             -42.00     7600.00
01704             -48.00     7400.00
01705             -48.00     7200.00
01706             -36.00     6800.00
01707             -30.00     7000.00
01708             -34.00     6600.00
01709             -38.00     6600.00
01710             -32.00     6400.00
01711             -34.00     6000.00
01712             -32.00     6000.00
01713             -30.00     6000.00
01714             -26.00     5600.00
01715             -24.00     5600.00
01716             -26.00     5400.00
01717             -30.00     5200.00
01718             -24.00     5000.00
01719             -26.00     4800.00
01720             -24.00     4400.00
01721             -18.00     4400.00
01722             -22.00     4200.00
01723             -24.00     4000.00
01724             -22.00     4000.00
01725             -20.00     3600.00
01726             -16.00     3400.00
01727             -16.00     3400.00
01728             -18.00     3200.00
01729             -18.00     3200.00
01730             -10.00     2800.00
01731             -10.00     2600.00
01732             -10.00     2600.00
01733             -18.00     2200.00
01734             -22.00     1800.00
01735             -14.00     1800.00
01736              -2.00     1600.00
01737               2.00     1400.00
01738              -4.00     1200.00
01739             -18.00     1000.00
01740             -22.00      800.00
01741             -12.00      600.00
01742               0.00      400.00
01743              14.00      200.00
01744              14.00        0.00
01745               2.00     -200.00
01746              10.00     -400.00
01747               4.00     -400.00
01748              -6.00     -800.00
01749              -6.00     -800.00
01750              10.00    -1000.00
01751              18.00    -1200.00
01752              40.00    -1400.00
01753             174.00    -1600.00
01754             246.00    -2000.00
01755            -168.00    -2400.00
01756            -254.00    -2400.00
01757            -146.00    -2600.00
01758             112.00    -2800.00
01759             130.00    -2400.00
01760             246.00    -3200.00
01761            -106.00    -3200.00
01762            -254.00    -3200.00
01763             228.00    -4000.00
01764              26.00    -3800.00
01765             -22.00    -3800.00
01766              26.00    -4400.00
01767             -40.00    -4000.00
01768             130.00    -4600.00
01769             -16.00    -4600.00
01770             -66.00    -4800.00
01771             -32.00    -5200.00
01772              42.00    -5200.00
01773             142.00    -5600.00
01774             -48.00    -5400.00
01775              -8.00    -6000.00
01776               0.00    -6000.00
01777              16.00    -6000.00
01778              88.00    -6600.00
01779             -22.00    -6200.00
01780              16.00    -7000.00
01781              30.00    -6800.00
01782              38.00    -6800.00
01783               2.00    -7200.00
01784               0.00    -7200.00
01785              54.00    -7600.00
01786              26.00    -7400.00
01787              48.00    -7800.00
01788              14.00    -7800.00
01789               8.00    -8000.00
01790              62.00    -8400.00
01791              30.00    -8400.00
01792              14.00    -8600.00
01793              32.00    -8600.00
01794              46.00    -8800.00
01795              56.00    -8800.00
01796              44.00    -8800.00
01797              18.00    -9200.00
01798              26.00    -9200.00
01799              54.00    -9400.00
01800              50.00    -9600.00
01801              48.00    -9600.00
01802              54.00    -9800.00
01803              38.00    -9600.00
01804              46.00   -10000.00
01805              50.00   -10000.00
01806              48.00   -10200.00
01807              70.00   -10200.00
01808              68.00   -10400.00
01809              56.00   -10600.00
01810              54.00   -10600.00
01811              54.00   -10800.00
01812              56.00   -10800.00
01813              72.00   -10800.00
01814              78.00   -11000.00
01815              74.00   -11000.00
01816              76.00   -11200.00
01817              64.00   -11000.00
01818              64.00   -11200.00
01819              84.00   -11200.00
01820              86.00   -11200.00
01821              88.00   -11400.00
01822              90.00   -11400.00
01823              78.00   -11600.00
01824              80.00   -11600.00
01825              94.00   -11600.00
01826              98.00   -11600.00
01827              96.00   -11800.00
01828             104.00   -11800.00
01829             102.00   -11800.00
01830             106.00   -11800.00
01831             104.00   -11800.00
01832              98.00   -11800.00
01833             110.00   -12000.00
01834             128.00   -12000.00
01835             120.00   -12000.00
01836             120.00   -11800.00
01837             122.00   -11800.00
01838             120.00   -11800.00
01839             128.00   -12000.00
01840             136.00   -11800.00
01841             130.00   -11800.00
01842             136.00   -11800.00
01843             144.00   -12000.00
01844             144.00   -11800.00
01845             146.00   -11800.00
01846             136.00   -12000.00
01847             136.00   -11800.00
01848             156.00   -11800.00
01849             160.00   -11800.00
01850             146.00   -11800.00
01851             142.00   -11600.00
01852             140.00   -11600.00
01853             144.00   -11600.00
01854             146.00   -11600.00
01855             134.00   -11400.00
01856             134.00   -11600.00
01857             136.00   -11400.00
01858             130.00   -11200.00
01859             126.00   -11200.00
01860             126.00   -11200.00
01861             120.00   -11200.00
01862             118.00   -11000.00
01863             114.00   -11200.00
01864             104.00   -11000.00
01865             102.00   -10800.00
01866             102.00   -10800.00
01867             102.00   -10800.00
01868             106.00   -10400.00
01869              94.00   -10400.00
01870              80.00   -10400.00
01871              78.00   -10200.00
01872              82.00   -10000.00
01873              90.00   -10000.00
01874              82.00   -10000.00
01875              70.00   -10000.00
01876              64.00    -9600.00
01877              62.00    -9600.00
01878              66.00    -9400.00
01879              64.00    -9400.00
01880              64.00    -9400.00
01881              58.00    -9000.00
01882              60.00    -9200.00
01883              50.00    -8800.00
01884              48.00    -8600.00
01885              48.00    -8600.00
01886              50.00    -8400.00
01887              52.00    -8400.00
01888              46.00    -8000.00
01889              42.00    -8000.00
01890              38.00    -7800.00
01891              32.00    -7800.00
01892              36.00    -7400.00
01893              42.00    -7400.00
01894              38.00    -7200.00
01895              34.00    -7000.00
01896              26.00    -7000.00
01897              22.00    -6800.00
01898              30.00    -6800.00
01899              30.00    -6400.00
01900              26.00    -6400.00
01901              26.00    -6200.00
01902              24.00    -6200.00
01903              22.00    -5800.00
01904              20.00    -5600.00
01905              14.00    -5600.00
01906              18.00    -5200.00
01907              22.00    -5200.00
01908              18.00    -4800.00
01909              18.00    -4800.00
01910              16.00    -4400.00
01911              10.00    -4400.00
01912              10.00    -4200.00
01913              12.00    -4000.00
01914              14.00    -3800.00
01915              18.00    -3600.00
01916               6.00    -3600.00
01917               6.00    -3400.00
01918               6.00    -3000.00
01919               8.00    -2800.00
01920               8.00    -2800.00
01921               8.00    -2600.00
01922               6.00    -2200.00
01923               8.00    -2200.00
01924               6.00    -2000.00
01925               2.00    -1600.00
01926               2.00    -1600.00
01927               2.00    -1000.00
01928               2.00    -1000.00
01929               0.00    -1000.00
01930               0.00     -800.00
01931              -2.00     -600.00
01932               0.00     -400.00
01933              -2.00     -400.00
01934               0.00        0.00
01935               6.00      400.00
01936               2.00      400.00
01937              10.00      400.00
01938              30.00      800.00
01939              12.00     1000.00
01940             -14.00     1200.00
01941             -16.00     1200.00
01942               2.00     1600.00
01943              20.00     1600.00
01944             152.00     2000.00
01945             246.00     2400.00
01946            -104.00     2400.00
01947            -254.00     2600.00
01948            -254.00     2800.00
01949              14.00     2800.00
01950             246.00     3200.00
01951             246.00     3400.00
01952            -254.00     3200.00
01953            -254.00     3600.00
01954             246.00     4000.00
01955            -154.00     4000.00
01956              36.00     4400.00
01957              40.00     4400.00
01958            -138.00     4400.00
01959             182.00     4800.00
01960            -118.00     5000.00
01961            -140.00     5200.00
01962              34.00     5400.00
01963              26.00     5600.00
01964              34.00     5600.00
01965             -84.00     5800.00
01966              -8.00     6200.00
01967             -90.00     6000.00
01968              40.00     6600.00
01969              24.00     6400.00
01970            -128.00     6600.00
01971              24.00     7200.00
01972             -40.00     6800.00
01973             -10.00     7200.00
01974             -34.00     7400.00
01975             -70.00     7600.00
01976             -16.00     7600.00
01977               2.00     7600.00
01978             -26.00     8000.00
01979             -80.00     8000.00
01980             -26.00     8400.00
01981             -42.00     8400.00
01982             -22.00     8800.00
01983             -42.00     8800.00
01984             -62.00     9000.00
01985             -50.00     9200.00
01986             -22.00     9200.00
01987             -34.00     9200.00
01988             -50.00     9400.00
01989             -46.00     9600.00
01990             -78.00     9600.00
01991             -38.00     9800.00
01992             -46.00    10000.00
01993             -40.00    10000.00
01994             -50.00    10400.00
01995             -72.00    10200.00
01996             -78.00    10400.00
01997             -56.00    10400.00
01998             -40.00    10600.00
01999             -56.00    10600.00
02000             -64.00    10800.00
02001             -78.00    10800.00
02002             -78.00    11000.00
02003             -68.00    11000.00
02004             -66.00    11200.00
02005             -70.00    11200.00
02006             -70.00    11400.00
02007             -80.00    11600.00
02008             -80.00    11400.00
02009             -78.00    11600.00
02010             -88.00    11800.00
02011             -90.00    11800.00
02012             -86.00    11800.00
02013             -88.00    11800.00
02014             -88.00    12000.00
02015             -90.00    12000.00
02016            -106.00    12000.00
02017            -106.00    12000.00
02018             -98.00    12000.00
02019             -94.00    12200.00
02020             -98.00    12200.00
02021            -110.00    12200.00
02022            -122.00    12200.00
02023            -120.00    12200.00
02024            -120.00    12200.00
02025            -116.00    12200.00
02026            -116.00    12200.00
02027            -122.00    12200.00
02028            -130.00    12200.00
02029            -138.00    12400.00
02030            -144.00    12400.00
02031            -136.00    12200.00
02032            -134.00    12400.00
02033            -138.00    12200.00
02034            -146.00    12200.00
02035            -154.00    12400.00
02036            -158.00    12400.00
02037            -150.00    12200.00
02038            -150.00    12000.00
02039            -154.00    12200.00
02040            -158.00    12200.00
02041            -162.00    12200.00
02042            -160.00    12000.00
02043            -150.00    12000.00
02044            -146.00    12000.00
02045            -152.00    12000.00
02046            -154.00    12000.00
02047            -152.00    12000.00
02048            -142.00    11800.00
02049            -142.00    11600.00
02050            -138.00    11800.00
02051            -134.00    11600.00
02052            -128.00    11400.00
02053            -122.00    11600.00
02054            -122.00    11400.00
02055            -122.00    11400.00
02056            -116.00    11200.00
02057            -114.00    11200.00
02058            -106.00    11200.00
02059            -102.00    11000.00
02060            -100.00    10800.00
02061            -102.00    10600.00
02062             -98.00    10800.00
02063             -94.00    10600.00
02064             -90.00    10400.00
02065             -80.00    10400.00
02066             -78.00    10200.00
02067             -80.00    10200.00
02068             -80.00    10000.00
02069             -80.00    10000.00
02070             -78.00     9800.00
02071             -66.00     9800.00
02072             -64.00     9600.00
02073             -58.00     9600.00
02074             -62.00     9400.00
02075             -64.00     9200.00
02076             -64.00     9000.00
02077             -58.00     9000.00
02078             -52.00     8800.00
02079             -50.00     8600.00
02080             -50.00     8600.00
02081             -48.00     8400.00
02082             -54.00     8200.00
02083             -50.00     8000.00
02084             -46.00     8000.00
02085             -38.00     7800.00
02086             -38.00     7600.00
02087             -40.00     7400.00
02088             -44.00     7200.00
02089             -42.00     7200.00
02090             -34.00     7000.00
02091             -38.00     6800.00
02092             -32.00     6600.00
02093             -30.00     6400.00
02094             -32.00     6400.00
02095             -36.00     6000.00
02096             -38.00     5800.00
02097             -26.00     5800.00
02098             -22.00     5600.00
02099             -24.00     5600.00
02100             -32.00     5200.00
02101             -32.00     5000.00
02102             -28.00     4800.00
02103             -22.00     4600.00
02104             -16.00     4400.00
02105             -18.00     4200.00
02106             -18.00     4200.00
02107             -26.00     3800.00
02108             -24.00     3800.00
02109             -16.00     3600.00
02110             -14.00     3200.00
02111             -16.00     3200.00
02112             -18.00     3000.00
02113             -16.00     2800.00
02114             -10.00     2600.00
02115             -12.00     2400.00
02116             -20.00     2200.00
02117             -18.00     2000.00
02118             -10.00     1800.00
02119              -2.00     1600.00
02120              -4.00     1600.00
02121             -14.00     1200.00
02122             -16.00     1000.00
02123             -10.00     1000.00
02124              -6.00      800.00
02125              -2.00      400.00
02126               2.00      200.00
02127               0.00      200.00
02128              -2.00        0.00
02129              20.00     -400.00
02130              30.00     -400.00
02131               2.00     -600.00
02132             -16.00     -800.00
02133              -6.00    -1000.00
02134              14.00    -1000.00
02135              22.00    -1200.00
02136              94.00    -1600.00
02137             246.00    -1800.00
02138              78.00    -2400.00
02139            -254.00    -2400.00
02140            -254.00    -2600.00
02141              30.00    -2600.00
02142             106.00    -2600.00
02143             246.00    -2800.00
02144             216.00    -3400.00
02145            -254.00    -3200.00
02146              -2.00    -3600.00
02147             202.00    -4000.00
02148             -56.00    -3600.00
02149              66.00    -4200.00
02150             -50.00    -4200.00
02151              48.00    -4400.00
02152              80.00    -4800.00
02153             -80.00    -4600.00
02154             -24.00    -5200.00
02155             -14.00    -5000.00
02156             136.00    -5400.00
02157              32.00    -5400.00
02158             -64.00    -5600.00
02159              30.00    -6000.00
02160             -14.00    -6000.00
02161              86.00    -6200.00
02162              28.00    -6400.00
02163             -30.00    -6400.00
02164              32.00    -6800.00
02165              34.00    -6800.00
02166              32.00    -7200.00
02167             -14.00    -7000.00
02168              38.00    -7400.00
02169              38.00    -7600.00
02170              34.00    -7600.00
02171              38.00    -7800.00
02172             -10.00    -8000.00
02173              46.00    -8200.00
02174              50.00    -8400.00
02175              16.00    -8400.00
02176              28.00    -8600.00
02177              38.00    -8800.00
02178              40.00    -8800.00
02179              46.00    -8800.00
02180              34.00    -9200.00
02181              30.00    -9200.00
02182              46.00    -9200.00
02183              50.00    -9400.00
02184              42.00    -9600.00
02185              54.00    -9800.00
02186              48.00    -9600.00
02187              40.00    -9800.00
02188              50.00   -10000.00
02189              46.00   -10200.00
02190              56.00   -10200.00
02191              72.00   -10400.00
02192              62.00   -10400.00
02193              54.00   -10400.00
02194              54.00   -10600.00
02195              56.00   -10800.00
02196              70.00   -10800.00
02197              78.00   -10800.00
02198              72.00   -10800.00
02199              70.00   -11000.00
02200              70.00   -11000.00
02201              66.00   -11200.00
02202              76.00   -11200.00
02203              88.00   -11200.00
02204              82.00   -11200.00
02205              88.00   -11600.00
02206              86.00   -11600.00
02207              80.00   -11600.00
02208              86.00   -11600.00
02209              92.00   -11600.00
02210             102.00   -11600.00
02211             106.00   -11800.00
02212             102.00   -11800.00
02213              98.00   -11800.00
02214             104.00   -11800.00
02215             106.00   -11800.00
02216             106.00   -11800.00
02217             122.00   -11800.00
02218             126.00   -12000.00
02219             122.00   -12000.00
02220             120.00   -12000.00
02221             112.00   -11800.00
02222             126.00   -12000.00
02223             136.00   -12000.00
02224             138.00   -12000.00
02225             138.00   -11800.00
02226             142.00   -12000.00
02227             136.00   -11800.00
02228             136.00   -11800.00
02229             144.00   -11800.00
02230             150.00   -11800.00
02231             158.00   -12000.00
02232             152.00   -11600.00
02233             144.00   -11800.00
02234             142.00   -11600.00
02235             142.00   -11600.00
02236             144.00   -11600.00
02237             146.00   -11600.00
02238             142.00   -11600.00
02239             136.00   -11600.00
02240             134.00   -11400.00
02241             126.00   -11400.00
02242             126.00   -11400.00
02243             128.00   -11200.00
02244             126.00   -11200.00
02245             120.00   -11000.00
02246             112.00   -11200.00
02247             106.00   -11000.00
02248             106.00   -11000.00
02249             102.00   -10800.00
02250              98.00   -10800.00
02251             102.00   -10600.00
02252              96.00   -10400.00
02253              86.00   -10400.00
02254              82.00   -10200.00
02255              80.00   -10200.00
02256              80.00   -10000.00
02257              82.00   -10000.00
02258              76.00   -10000.00
02259              72.00    -9800.00
02260              66.00    -9800.00
02261              64.00    -9400.00
02262              62.00    -9400.00
02263              64.00    -9400.00
02264              62.00    -9200.00
02265              58.00    -9200.00
02266              54.00    -8800.00
02267              54.00    -8800.00
02268              48.00    -8800.00
02269              48.00    -8600.00
02270              46.00    -8400.00
02271              48.00    -8400.00
02272              48.00    -8000.00
02273              42.00    -8000.00
02274              36.00    -7800.00
02275              36.00    -7400.00
02276              38.00    -7600.00
02277              40.00    -7200.00
02278              38.00    -7200.00
02279              32.00    -7000.00
02280              28.00    -6800.00
02281              30.00    -6800.00
02282              26.00    -6400.00
02283              28.00    -6400.00
02284              30.00    -6200.00
02285              26.00    -6200.00
02286              22.00    -5800.00
02287              16.00    -5800.00
02288              16.00    -5400.00
02289              22.00    -5400.00
02290              22.00    -5200.00
02291              16.00    -5000.00
02292              18.00    -4800.00
02293              16.00    -4600.00
02294              10.00    -4400.00
02295              10.00    -4400.00
02296              10.00    -4000.00
02297              14.00    -3800.00
02298              16.00    -3600.00
02299              10.00    -3600.00
02300               8.00    -3200.00
02301               8.00    -3200.00
02302               6.00    -3000.00
02303               8.00    -2800.00
02304               6.00    -2600.00
02305               6.00    -2400.00
02306               8.00    -2200.00
02307               2.00    -2200.00
02308              -2.00    -1800.00
02309               2.00    -1600.00
02310               6.00    -1400.00
02311               6.00    -1400.00
02312               0.00    -1000.00
02313               2.00     -800.00
02314               2.00     -800.00
02315              -2.00     -400.00
02316             -10.00     -400.00
02317               0.00        0.00
02318               8.00      200.00
02319               8.00      400.00
02320               0.00      400.00
02321              14.00      400.00
02322              16.00      800.00
02323              10.00     1000.00
02324             -10.00     1200.00
02325             -14.00     1400.00
02326              -2.00     1600.00
02327              66.00     1800.00
02328             246.00     2000.00
02329             170.00     2400.00
02330            -254.00     2400.00
02331            -254.00     2600.00
02332             -80.00     2800.00
02333             152.00     2800.00
02334             246.00     3400.00
02335              70.00     3400.00
02336            -254.00     3200.00
02337             176.00     4000.00
02338             120.00     3800.00
02339            -152.00     4200.00
02340             158.00     4400.00
02341            -152.00     4400.00
02342              56.00     4400.00
02343              80.00     4800.00
02344            -218.00     5200.00
02345              -8.00     5200.00
02346              30.00     5600.00
02347              64.00     5800.00
02348             -48.00     5600.00
02349             -58.00     6200.00
02350             -34.00     6000.00
02351             -50.00     6400.00
02352             102.00     6600.00
02353            -104.00     6400.00
02354             -50.00     6800.00
02355              10.00     6800.00
02356             -40.00     7200.00
02357               0.00     7400.00
02358             -70.00     7400.00
02359             -40.00     7600.00
02360             -16.00     7600.00
02361              -2.00     8000.00
02362             -64.00     8000.00
02363             -42.00     8200.00
02364             -26.00     8400.00
02365             -46.00     8400.00
02366             -32.00     8800.00
02367             -54.00     8800.00
02368             -48.00     9000.00
02369             -34.00     9200.00
02370             -26.00     9200.00
02371             -66.00     9400.00
02372             -40.00     9600.00
02373             -62.00     9600.00
02374             -58.00     9600.00
02375             -40.00     9800.00
02376             -54.00    10000.00
02377             -42.00    10000.00
02378             -58.00    10200.00
02379             -76.00    10400.00
02380             -72.00    10400.00
02381             -38.00    10400.00
02382             -50.00    10800.00
02383             -62.00    10600.00
02384             -72.00    10800.00
02385             -82.00    10800.00
02386             -74.00    11000.00
02387             -62.00    11200.00
02388             -66.00    11200.00
02389             -68.00    11200.00
02390             -74.00    11400.00
02391             -86.00    11600.00
02392             -78.00    11800.00
02393             -82.00    11600.00
02394             -88.00    11600.00
02395             -82.00    11800.00
02396             -86.00    11800.00
02397             -90.00    12000.00
02398             -90.00    12000.00
02399            -102.00    12000.00
02400            -102.00    12000.00
02401             -96.00    12000.00
02402             -98.00    12000.00
02403            -100.00    12000.00
02404            -106.00    12200.00
02405            -118.00    12000.00
02406            -114.00    12200.00
02407            -118.00    12200.00
02408            -120.00    12200.00
02409            -112.00    12200.00
02410            -118.00    12200.00
02411            -130.00    12200.00
02412            -136.00    12200.00
02413            -138.00    12400.00
02414            -134.00    12400.00
02415            -130.00    12200.00
02416            -138.00    12200.00
02417            -144.00    12200.00
02418            -150.00    12400.00
02419            -154.00    12200.00
02420            -154.00    12200.00
02421            -150.00    12200.00
02422            -150.00    12000.00
02423            -152.00    12200.00
02424            -156.00    12000.00
02425            -162.00    12000.00
02426            -160.00    12000.00
02427            -154.00    12000.00
02428            -146.00    12000.00
02429            -144.00    12000.00
02430            -150.00    12000.00
02431            -144.00    12000.00
02432            -150.00    11600.00
02433            -144.00    11800.00
02434            -132.00    11600.00
02435            -124.00    11600.00
02436            -126.00    11400.00
02437            -126.00    11800.00
02438            -128.00    11400.00
02439            -118.00    11400.00
02440            -114.00    11200.00
02441            -112.00    11200.00
02442            -102.00    10800.00
02443             -98.00    10800.00
02444            -100.00    10800.00
02445             -98.00    10800.00
02446            -102.00    10600.00
02447             -90.00    10400.00
02448             -84.00    10400.00
02449             -80.00    10200.00
02450             -80.00    10200.00
02451             -80.00    10000.00
02452             -80.00    10000.00
02453             -78.00    10000.00
02454             -72.00     9800.00
02455             -64.00     9600.00
02456             -58.00     9600.00
02457             -64.00     9200.00
02458             -68.00     9200.00
02459             -64.00     9200.00
02460             -62.00     9000.00
02461             -52.00     8800.00
02462             -48.00     8600.00
02463             -50.00     8600.00
02464             -52.00     8400.00
02465             -54.00     8200.00
02466             -54.00     8000.00
02467             -42.00     8000.00
02468             -36.00     8000.00
02469             -40.00     7600.00
02470             -44.00     7600.00
02471             -42.00     7400.00
02472             -42.00     7200.00
02473             -34.00     7000.00
02474             -38.00     6800.00
02475             -36.00     6600.00
02476             -30.00     6400.00
02477             -30.00     6400.00
02478             -34.00     6200.00
02479             -34.00     6000.00
02480             -30.00     5800.00
02481             -24.00     5600.00
02482             -26.00     5600.00
02483             -26.00     5200.00
02484             -28.00     5000.00
02485             -30.00     5000.00
02486             -26.00     4800.00
02487             -26.00     4600.00
02488             -24.00     4400.00
02489             -18.00     4200.00
02490             -22.00     4000.00
02491             -20.00     3800.00
02492             -18.00     3600.00
02493             -22.00     3400.00
02494             -20.00     3200.00
02495             -18.00     3000.00
02496             -16.00     2800.00
02497             -10.00     2800.00
02498             -12.00     2600.00
02499             -20.00     2000.00
02500             -16.00     2000.00
02501             -16.00     2000.00
02502              -8.00     1800.00
02503              -8.00     1600.00
02504             -14.00     1400.00
02505             -12.00     1000.00
02506              -8.00     1000.00
02507             -14.00      800.00
02508              -8.00      400.00
02509              -2.00      400.00
02510              -2.00      200.00
02511              -2.00        0.00
02512               8.00        0.00
02513              30.00     -400.00
02514              16.00     -600.00
02515             -14.00     -800.00
02516             -16.00    -1000.00
02517               6.00    -1000.00
02518              16.00    -1200.00
02519              42.00    -1400.00
02520             188.00    -1600.00
02521             246.00    -2200.00
02522            -188.00    -2400.00
02523            -254.00    -2400.00
02524            -138.00    -2600.00
02525             106.00    -2800.00
02526             144.00    -2400.00
02527             246.00    -3000.00
02528            -134.00    -3400.00
02529            -254.00    -3200.00
02530             224.00    -3800.00
02531              16.00    -3600.00
02532               4.00    -3600.00
02533              22.00    -4400.00
02534             -34.00    -4200.00
02535             126.00    -4800.00
02536             -34.00    -4600.00
02537             -64.00    -4800.00
02538             -26.00    -5000.00
02539              58.00    -5200.00
02540             136.00    -5600.00
02541             -58.00    -5400.00
02542              -2.00    -6000.00
02543              -2.00    -6000.00
02544              30.00    -6000.00
02545              88.00    -6400.00
02546             -24.00    -6200.00
02547              18.00    -6800.00
02548              24.00    -6800.00
02549              38.00    -7000.00
02550               0.00    -7200.00
02551               6.00    -7200.00
02552              54.00    -7600.00
02553              26.00    -7400.00
02554              46.00    -7800.00
02555               8.00    -8000.00
02556              14.00    -8000.00
02557              56.00    -8400.00
02558              30.00    -8400.00
02559              22.00    -8400.00
02560              34.00    -8600.00
02561              38.00    -8800.00
02562              40.00    -9000.00
02563              42.00    -9200.00
02564              32.00    -9400.00
02565              32.00    -9200.00
02566              50.00    -9600.00
02567              42.00    -9600.00
02568              42.00    -9600.00
02569              56.00    -9600.00
02570              42.00    -9800.00
02571              48.00   -10000.00
02572              48.00   -10200.00
02573              46.00   -10200.00
02574              66.00   -10400.00
02575              72.00   -10400.00
02576              58.00   -10400.00
02577              54.00   -10600.00
02578              50.00   -10600.00
02579              54.00   -11000.00
02580              74.00   -11000.00
02581              80.00   -11000.00
02582              70.00   -11000.00
02583              70.00   -11200.00
02584              66.00   -11200.00
02585              68.00   -11200.00
02586              86.00   -11200.00
02587              86.00   -11200.00
02588              88.00   -11600.00
02589              94.00   -11400.00
02590              80.00   -11600.00
02591              82.00   -11600.00
02592              94.00   -11600.00
02593              96.00   -11600.00
02594             106.00   -11800.00
02595             106.00   -11800.00
02596              98.00   -11800.00
02597             102.00   -11800.00
02598             106.00   -11800.00
02599             104.00   -11800.00
02600             118.00   -12000.00
02601             126.00   -11800.00
02602             120.00   -12000.00
02603             122.00   -11800.00
02604             118.00   -12000.00
02605             122.00   -11800.00
02606             136.00   -11800.00
02607             136.00   -12000.00
02608             138.00   -12000.00
02609             142.00   -12000.00
02610             138.00   -12000.00
02611             136.00   -12000.00
02612             142.00   -12000.00
02613             150.00   -11800.00
02614             154.00   -11800.00
02615             154.00   -11800.00
02616             146.00   -11800.00
02617             142.00   -11800.00
02618             144.00   -11600.00
02619             142.00   -11600.00
02620             146.00   -11600.00
02621             146.00   -11600.00
02622             142.00   -11600.00
02623             136.00   -11600.00
02624             126.00   -11200.00
02625             126.00   -11200.00
02626             126.00   -11200.00
02627             128.00   -11000.00
02628             122.00   -11200.00
02629             114.00   -11000.00
02630             106.00   -11000.00
02631             104.00   -10800.00
02632             102.00   -11000.00
02633             102.00   -10800.00
02634             102.00   -10800.00
02635              98.00   -10400.00
02636              92.00   -10600.00
02637              82.00   -10200.00
02638              80.00   -10200.00
02639              82.00   -10200.00
02640              80.00   -10000.00
02641              78.00   -10000.00
02642              72.00    -9800.00
02643              70.00    -9600.00
02644              64.00    -9600.00
02645              62.00    -9400.00
02646              60.00    -9200.00
02647              66.00    -9400.00
02648              64.00    -9200.00
02649              54.00    -9000.00
02650              50.00    -8800.00
02651              48.00    -8800.00
02652              48.00    -8600.00
02653              50.00    -8600.00
02654              48.00    -8400.00
02655              48.00    -8000.00
02656              48.00    -8000.00
02657              34.00    -8000.00
02658              32.00    -7600.00
02659              34.00    -7600.00
02660              38.00    -7400.00
02661              40.00    -7200.00
02662              34.00    -7000.00
02663              24.00    -7000.00
02664              26.00    -6800.00
02665              28.00    -6800.00
02666              32.00    -6600.00
02667              34.00    -6400.00
02668              30.00    -6200.00
02669              20.00    -6000.00
02670              16.00    -5800.00
02671              14.00    -5600.00
02672              24.00    -5400.00
02673              30.00    -5200.00
02674              22.00    -5200.00
02675              18.00    -4800.00
02676              14.00    -4800.00
02677              12.00    -4600.00
02678              12.00    -4400.00
02679              12.00    -4200.00
02680              16.00    -4000.00
02681              16.00    -3800.00
02682              10.00    -3600.00
02683               8.00    -3600.00
02684               8.00    -3400.00
02685               8.00    -3200.00
02686              10.00    -3000.00
02687               6.00    -2600.00
02688               2.00    -2400.00
02689               8.00    -2400.00
02690               6.00    -2000.00
02691               2.00    -2000.00
02692               0.00    -1800.00
02693               0.00    -1600.00
02694               2.00    -1400.00
02695               4.00    -1000.00
02696               0.00    -1000.00
02697               0.00     -800.00
02698              -4.00     -600.00
02699              -8.00     -400.00
02700              -2.00        0.00
02701               6.00        0.00
02702               2.00      200.00
02703               0.00      200.00
02704              10.00      600.00
02705              32.00      800.00
02706              12.00     1000.00
02707             -16.00     1000.00
02708             -16.00     1200.00
02709               2.00     1600.00
02710              22.00     1600.00
02711             166.00     2000.00
02712             246.00     2400.00
02713            -136.00     2400.00
02714            -254.00     2600.00
02715            -254.00     2800.00
02716              16.00     2800.00
02717             246.00     3200.00
02718             246.00     3400.00
02719            -254.00     3200.00
02720            -232.00     3600.00
02721             246.00     4000.00
02722            -168.00     4000.00
02723              58.00     4400.00
02724              18.00     4200.00
02725            -122.00     4600.00
02726             182.00     4800.00
02727            -138.00     4800.00
02728            -124.00     5400.00
02729              38.00     5200.00
02730              38.00     5600.00
02731              30.00     5600.00
02732             -86.00     5800.00
02733              -6.00     6000.00
02734             -90.00     6000.00
02735              50.00     6400.00
02736              14.00     6600.00
02737            -120.00     6800.00
02738              28.00     7000.00
02739             -42.00     6800.00
02740              -8.00     7400.00
02741             -38.00     7400.00
02742             -60.00     7600.00
02743             -16.00     7600.00
02744               0.00     8000.00
02745             -32.00     8000.00
02746             -74.00     8000.00
02747             -22.00     8200.00
02748             -46.00     8400.00
02749             -26.00     8400.00
02750             -40.00     8800.00
02751             -52.00     8800.00
02752             -48.00     9000.00
02753             -26.00     9200.00
02754             -46.00     9400.00
02755             -48.00     9400.00
02756             -42.00     9600.00
02757             -74.00     9600.00
02758             -40.00     9800.00
02759             -46.00    10000.00
02760             -42.00    10000.00
02761             -50.00    10000.00
02762             -72.00    10200.00
02763             -74.00    10200.00
02764             -50.00    10400.00
02765             -42.00    10400.00
02766             -56.00    10600.00
02767             -58.00    10600.00
02768             -86.00    10600.00
02769             -80.00    11000.00
02770             -66.00    11000.00
02771             -60.00    11200.00
02772             -64.00    11400.00
02773             -74.00    11200.00
02774             -88.00    11400.00
02775             -80.00    11400.00
02776             -76.00    11600.00
02777             -90.00    11800.00
02778             -88.00    11600.00
02779             -80.00    11800.00
02780             -80.00    12000.00
02781             -96.00    12000.00
02782            -104.00    12000.00
02783            -102.00    12000.00
02784             -96.00    12000.00
02785             -90.00    12000.00
02786             -98.00    12200.00
02787            -104.00    12200.00
02788            -112.00    12200.00
02789            -118.00    12200.00
02790            -120.00    12400.00
02791            -116.00    12200.00
02792            -114.00    12200.00
02793            -118.00    12400.00
02794            -122.00    12400.00
02795            -132.00    12200.00
02796            -136.00    12400.00
02797            -138.00    12200.00
02798            -136.00    12200.00
02799            -130.00    12200.00
02800            -134.00    12400.00
02801            -144.00    12400.00
02802            -154.00    12200.00
02803            -156.00    12200.00
02804            -154.00    12200.00
02805            -146.00    12200.00
02806            -150.00    12200.00
02807            -154.00    12200.00
02808            -160.00    12000.00
02809            -162.00    12000.00
02810            -158.00    12000.00
02811            -150.00    12000.00
02812            -152.00    12000.00
02813            -148.00    12000.00
02814            -142.00    12000.00
02815            -142.00    12000.00
02816            -148.00    11800.00
02817            -144.00    11600.00
02818            -128.00    11600.00
02819            -120.00    11600.00
02820            -122.00    11400.00
02821            -130.00    11400.00
02822            -126.00    11400.00
02823            -120.00    11200.00
02824            -110.00    11000.00
02825             -98.00    11000.00
02826             -98.00    10800.00
02827            -102.00    10800.00
02828            -110.00    10800.00
02829            -106.00    10600.00
02830             -90.00    10600.00
02831             -80.00    10400.00
02832             -80.00    10400.00
02833             -82.00    10400.00
02834             -80.00    10200.00
02835             -86.00    10000.00
02836             -80.00    10000.00
02837             -74.00     9800.00
02838             -66.00     9600.00
02839             -62.00     9600.00
02840             -64.00     9400.00
02841             -66.00     9200.00
02842             -66.00     9200.00
02843             -64.00     9000.00
02844             -54.00     9000.00
02845             -50.00     8600.00
02846             -50.00     8400.00
02847             -48.00     8400.00
02848             -50.00     8200.00
02849             -56.00     8400.00
02850             -50.00     8000.00
02851             -42.00     8000.00
02852             -40.00     7600.00
02853             -38.00     7600.00
02854             -42.00     7400.00
02855             -46.00     7200.00
02856             -40.00     7200.00
02857             -32.00     7000.00
02858             -32.00     6600.00
02859             -30.00     6600.00
02860             -32.00     6400.00
02861             -34.00     6400.00
02862             -34.00     6000.00
02863             -32.00     5800.00
02864             -26.00     5800.00
02865             -22.00     5600.00
02866             -22.00     5600.00
02867             -26.00     5200.00
02868             -30.00     5000.00
02869             -30.00     4800.00
02870             -26.00     4800.00
02871             -22.00     4400.00
02872             -16.00     4200.00
02873             -16.00     4000.00
02874             -24.00     4000.00
02875             -22.00     3800.00
02876             -22.00     3600.00
02877             -16.00     3400.00
02878             -16.00     3200.00
02879             -16.00     3000.00
02880             -14.00     2800.00
02881             -16.00     2600.00
02882             -18.00     2400.00
02883             -18.00     2400.00
02884             -10.00     1800.00
02885             -10.00     1800.00
02886              -8.00     1800.00
02887             -10.00     1400.00
02888             -10.00     1200.00
02889             -10.00     1000.00
02890             -14.00      800.00
02891             -10.00      600.00
02892              -2.00      400.00
02893              -2.00      400.00
02894               0.00        0.00
02895               0.00     -200.00
02896              18.00     -400.00
02897              24.00     -400.00
02898              -2.00     -600.00
02899             -22.00     -800.00
02900               0.00    -1000.00
02901              14.00    -1200.00
02902              22.00    -1400.00
02903              96.00    -1400.00
02904             246.00    -1800.00
02905              58.00    -2400.00
02906            -254.00    -2400.00
02907            -254.00    -2400.00
02908              40.00    -2600.00
02909             104.00    -2400.00
02910             246.00    -2800.00
02911             192.00    -3400.00
02912            -254.00    -3200.00
02913              26.00    -3600.00
02914             190.00    -4000.00
02915             -66.00    -3600.00
02916              64.00    -4400.00
02917             -48.00    -4200.00
02918              64.00    -4400.00
02919              72.00    -4800.00
02920             -86.00    -4800.00
02921             -30.00    -5200.00
02922             -10.00    -5000.00
02923             142.00    -5400.00
02924              22.00    -5400.00
02925             -58.00    -5600.00
02926              30.00    -6200.00
02927              -8.00    -6000.00
02928              96.00    -6400.00
02929              32.00    -6200.00
02930             -16.00    -6600.00
02931              32.00    -7000.00
02932              26.00    -6800.00
02933              26.00    -7200.00
02934             -22.00    -7200.00
02935              30.00    -7200.00
02936              34.00    -7600.00
02937              38.00    -7400.00
02938              44.00    -8000.00
02939              14.00    -7800.00
02940              56.00    -8400.00
02941              54.00    -8400.00
02942              14.00    -8400.00
02943              14.00    -8600.00
02944              24.00    -8800.00
02945              38.00    -9000.00
02946              44.00    -9000.00
02947              42.00    -9200.00
02948              36.00    -9200.00
02949              48.00    -9200.00
02950              54.00    -9400.00
02951              42.00    -9600.00
02952              48.00    -9600.00
02953              46.00    -9800.00
02954              34.00   -10000.00
02955              50.00   -10000.00
02956              42.00   -10200.00
02957              50.00   -10200.00
02958              72.00   -10200.00
02959              70.00   -10400.00
02960              66.00   -10600.00
02961              66.00   -10800.00
02962              54.00   -10800.00
02963              56.00   -10800.00
02964              64.00   -11000.00
02965              60.00   -11000.00
02966              72.00   -11000.00
02967              78.00   -11000.00
02968              68.00   -11200.00
02969              80.00   -11200.00
02970              86.00   -11200.00
02971              86.00   -11200.00
02972              94.00   -11600.00
02973              84.00   -11600.00
02974              74.00   -11600.00
02975              80.00   -11600.00
02976              86.00   -11600.00
02977             104.00   -11800.00
02978             114.00   -11800.00
02979             112.00   -11800.00
02980             104.00   -11800.00
02981             104.00   -11800.00
02982              98.00   -12000.00
02983             104.00   -11800.00
02984             118.00   -12000.00
02985             128.00   -11800.00
02986             126.00   -12000.00
02987             120.00   -12000.00
02988             118.00   -12000.00
02989             132.00   -12000.00
02990             144.00   -11800.00
02991             144.00   -12000.00
02992             134.00   -12000.00
02993             128.00   -11800.00
02994             128.00   -11800.00
02995             142.00   -11800.00
02996             158.00   -12000.00
02997             154.00   -11800.00
02998             146.00   -11800.00
02999             142.00   -11800.00
03000             144.00   -11600.00
03001             154.00   -11600.00
03002             154.00   -11600.00
03003             144.00   -11600.00
03004             138.00   -11600.00
03005             132.00   -11600.00
03006             136.00   -11600.00
03007             142.00   -11400.00
03008             136.00   -11600.00
03009             126.00   -11200.00
03010             122.00   -11200.00
03011             118.00   -11000.00
03012             118.00   -11000.00
03013             114.00   -11000.00
03014             110.00   -11000.00
03015             102.00   -11000.00
03016             100.00   -10800.00
03017              96.00   -10800.00
03018             102.00   -10800.00
03019              98.00   -10600.00
03020              90.00   -10400.00
03021              82.00   -10400.00
03022              78.00   -10200.00
03023              76.00   -10000.00
03024              78.00   -10000.00
03025              78.00   -10000.00
03026              72.00   -10000.00
03027              66.00    -9800.00
03028              64.00    -9600.00
03029              62.00    -9400.00
03030              62.00    -9400.00
03031              56.00    -9200.00
03032              56.00    -9000.00
03033              54.00    -8800.00
03034              52.00    -8800.00
03035              48.00    -8800.00
03036              48.00    -8600.00
03037              48.00    -8400.00
03038              50.00    -8400.00
03039              44.00    -8000.00
03040              38.00    -7800.00
03041              34.00    -7800.00
03042              34.00    -7600.00
03043              38.00    -7400.00
03044              38.00    -7200.00
03045              38.00    -7200.00
03046              34.00    -7000.00
03047              30.00    -7000.00
03048              26.00    -6600.00
03049              24.00    -6600.00
03050              30.00    -6400.00
03051              30.00    -6200.00
03052              30.00    -6200.00
03053              26.00    -6000.00
03054              18.00    -5800.00
03055              22.00    -5600.00
03056              18.00    -5200.00
03057              18.00    -5200.00
03058              20.00    -5000.00
03059              22.00    -4800.00
03060              16.00    -4800.00
03061              10.00    -4400.00
03062               8.00    -4400.00
03063              14.00    -4000.00
03064              18.00    -3800.00
03065              16.00    -3600.00
03066              14.00    -3600.00
03067               6.00    -3400.00
03068               6.00    -3200.00
03069               8.00    -3000.00
03070               8.00    -2800.00
03071              10.00    -2600.00
03072               6.00    -2400.00
03073               6.00    -2200.00
03074               0.00    -2200.00
03075               2.00    -1800.00
03076               4.00    -1600.00
03077               2.00    -1400.00
03078               4.00    -1200.00
03079               0.00    -1000.00
03080               0.00     -800.00
03081              -2.00     -600.00
03082              -4.00     -200.00
03083              -2.00     -400.00
03084               6.00      200.00
03085               2.00        0.00
03086              -2.00      200.00
03087              -4.00      400.00
03088              30.00      800.00
03089              24.00      800.00
03090             -12.00     1000.00
03091             -20.00     1200.00
03092              -2.00     1400.00
03093              14.00     1600.00
03094              66.00     1800.00
03095             246.00     2000.00
03096             144.00     2400.00
03097            -254.00     2400.00
03098            -254.00     2600.00
03099             -72.00     2800.00
03100             168.00     3200.00
03101             246.00     3200.00
03102               2.00     3400.00
03103            -254.00     3200.00
03104             222.00     4000.00
03105              96.00     3800.00
03106            -150.00     4200.00
03107             138.00     4400.00
03108            -160.00     4400.00
03109              86.00     4600.00
03110              72.00     4800.00
03111            -208.00     5200.00
03112              -4.00     5200.00
03113               8.00     5400.00
03114              48.00     5800.00
03115             -44.00     5600.00
03116             -16.00     6000.00
03117             -26.00     6000.00
03118             -66.00     6000.00
03119              70.00     6600.00
03120            -116.00     6400.00
03121             -20.00     6800.00
03122              22.00     6800.00
03123             -42.00     7200.00
03124             -14.00     7200.00
03125             -76.00     7400.00
03126             -32.00     7600.00
03127               2.00     7600.00
03128               2.00     8000.00
03129             -74.00     8000.00
03130             -46.00     8400.00
03131             -28.00     8400.00
03132             -38.00     8400.00
03133             -24.00     8800.00
03134             -50.00     8800.00
03135             -54.00     9000.00
03136             -34.00     9200.00
03137             -26.00     9200.00
03138             -54.00     9400.00
03139             -34.00     9600.00
03140             -70.00     9600.00
03141             -56.00     9800.00
03142             -34.00    10000.00
03143             -50.00     9800.00
03144             -46.00    10000.00
03145             -64.00    10200.00
03146             -72.00    10200.00
03147             -64.00    10400.00
03148             -42.00    10600.00
03149             -58.00    10400.00
03150             -56.00    10600.00
03151             -66.00    10800.00
03152             -82.00    10800.00
03153             -74.00    11000.00
03154             -66.00    11200.00
03155             -64.00    11000.00
03156             -66.00    11400.00
03157             -74.00    11400.00
03158             -88.00    11400.00
03159             -82.00    11400.00
03160             -88.00    11400.00
03161             -86.00    11600.00
03162             -80.00    11800.00
03163             -86.00    11800.00
03164             -92.00    11800.00
03165             -98.00    12000.00
03166             -98.00    12000.00
03167            -102.00    12000.00
03168             -98.00    12200.00
03169             -98.00    12000.00
03170            -104.00    12200.00
03171            -106.00    12200.00
03172            -116.00    12200.00
03173            -120.00    12200.00
03174            -116.00    12200.00
03175            -114.00    12400.00
03176            -114.00    12200.00
03177            -120.00    12400.00
03178            -132.00    12200.00
03179            -136.00    12400.00
03180            -134.00    12400.00
03181            -134.00    12200.00
03182            -134.00    12400.00
03183            -136.00    12200.00
03184            -142.00    12400.00
03185            -152.00    12200.00
03186            -154.00    12200.00
03187            -158.00    12200.00
03188            -150.00    12200.00
03189            -146.00    12200.00
03190            -152.00    12200.00
03191            -156.00    12000.00
03192            -166.00    12000.00
03193            -160.00    12000.00
03194            -152.00    12000.00
03195            -144.00    12000.00
03196            -144.00    12000.00
03197            -144.00    12000.00
03198            -150.00    11800.00
03199            -146.00    11800.00
03200            -138.00    11600.00
03201            -134.00    11800.00
03202            -128.00    11600.00
03203            -128.00    11400.00
03204            -128.00    11200.00
03205            -122.00    11400.00
03206            -122.00    11400.00
03207            -118.00    11200.00
03208            -106.00    11200.00
03209            -102.00    11000.00
03210            -102.00    11000.00
03211            -102.00    10800.00
03212            -104.00    10800.00
03213             -98.00    10600.00
03214             -90.00    10400.00
03215             -86.00    10400.00
03216             -78.00    10200.00
03217             -80.00    10200.00
03218             -82.00    10000.00
03219             -80.00    10000.00
03220             -80.00     9800.00
03221             -72.00     9800.00
03222             -64.00     9600.00
03223             -64.00     9600.00
03224             -64.00     9400.00
03225             -66.00     9200.00
03226             -66.00     9200.00
03227             -64.00     8800.00
03228             -50.00     8800.00
03229             -48.00     8600.00
03230             -50.00     8400.00
03231             -54.00     8200.00
03232             -56.00     8400.00
03233             -50.00     8200.00
03234             -46.00     8000.00
03235             -42.00     7800.00
03236             -40.00     7600.00
03237             -40.00     7600.00
03238             -40.00     7400.00
03239             -40.00     7200.00
03240             -42.00     7000.00
03241             -40.00     6800.00
03242             -32.00     6600.00
03243             -28.00     6600.00
03244             -32.00     6400.00
03245             -34.00     6400.00
03246             -32.00     6000.00
03247             -30.00     5800.00
03248             -26.00     5600.00
03249             -26.00     5400.00
03250             -22.00     5400.00
03251             -24.00     5200.00
03252             -26.00     4800.00
03253             -32.00     4800.00
03254             -26.00     4600.00
03255             -20.00     4400.00
03256             -16.00     4200.00
03257             -18.00     4000.00
03258             -18.00     4000.00
03259             -20.00     3600.00
03260             -20.00     3400.00
03261             -16.00     3200.00
03262             -16.00     3000.00
03263             -10.00     3000.00
03264             -16.00     2800.00
03265             -16.00     2600.00
03266             -14.00     2200.00
03267             -16.00     2000.00
03268             -14.00     1800.00
03269             -10.00     1600.00
03270              -6.00     1400.00
03271             -10.00     1200.00
03272             -14.00     1200.00
03273             -12.00     1000.00
03274             -10.00      800.00
03275              -6.00      400.00
03276              -2.00      400.00
03277               0.00      200.00
03278              -2.00        0.00
03279               8.00     -200.00
03280              28.00     -400.00
03281              14.00     -600.00
03282             -14.00     -800.00
03283             -10.00     -800.00
03284               6.00    -1200.00
03285              14.00    -1200.00
03286              46.00    -1600.00
03287             194.00    -1600.00
03288             236.00    -2200.00
03289            -214.00    -2400.00
03290            -254.00    -2600.00
03291            -118.00    -2800.00
03292             110.00    -2600.00
03293             150.00    -2600.00
03294             246.00    -3000.00
03295            -170.00    -3400.00
03296            -250.00    -3200.00
03297             234.00    -3800.00
03298               2.00    -3600.00
03299              10.00    -3800.00
03300              14.00    -4400.00
03301             -30.00    -4200.00
03302             126.00    -4800.00
03303             -40.00    -4800.00
03304             -56.00    -5000.00
03305             -26.00    -4800.00
03306              64.00    -5200.00
03307             126.00    -5600.00
03308             -60.00    -5400.00
03309               8.00    -6000.00
03310              -2.00    -6000.00
03311              32.00    -6200.00
03312              82.00    -6400.00
03313             -22.00    -6200.00
03314              22.00    -6800.00
03315              24.00    -6600.00
03316              40.00    -7000.00
03317               0.00    -7200.00
03318              10.00    -7200.00
03319              54.00    -7600.00
03320              26.00    -7600.00
03321              54.00    -8000.00
03322               8.00    -8000.00
03323              10.00    -8000.00
03324              54.00    -8400.00
03325              30.00    -8400.00
03326              26.00    -8600.00
03327              38.00    -8600.00
03328              38.00    -8800.00
03329              40.00    -9000.00
03330              46.00    -9000.00
03331              28.00    -9200.00
03332              32.00    -9400.00
03333              52.00    -9400.00
03334              42.00    -9600.00
03335              44.00    -9600.00
03336              54.00    -9800.00
03337              38.00    -9800.00
03338              50.00   -10000.00
03339              50.00   -10000.00
03340              46.00   -10200.00
03341              70.00   -10200.00
03342              66.00   -10400.00
03343              48.00   -10400.00
03344              48.00   -10800.00
03345              50.00   -10800.00
03346              66.00   -10800.00
03347              80.00   -10800.00
03348              70.00   -11000.00
03349              62.00   -11000.00
03350              70.00   -11200.00
03351              70.00   -11200.00
03352              72.00   -11200.00
03353              80.00   -11200.00
03354              80.00   -11600.00
03355              90.00   -11400.00
03356              90.00   -11400.00
03357              78.00   -11600.00
03358              86.00   -11600.00
03359              96.00   -11800.00
03360              98.00   -11800.00
03361             100.00   -11800.00
03362              98.00   -11800.00
03363              96.00   -11800.00
03364             102.00   -12000.00
03365             104.00   -12000.00
03366             106.00   -12000.00
03367             114.00   -11600.00
03368             122.00   -12000.00
03369             120.00   -11800.00
03370             120.00   -12000.00
03371             120.00   -11800.00
03372             126.00   -12000.00
03373             130.00   -11800.00
03374             138.00   -11800.00
03375             140.00   -11800.00
03376             142.00   -12000.00
03377             136.00   -11800.00
03378             136.00   -11800.00
03379             142.00   -12000.00
03380             152.00   -11800.00
03381             152.00   -11800.00
03382             152.00   -11800.00
03383             150.00   -11800.00
03384             146.00   -11600.00
03385             144.00   -11600.00
03386             144.00   -11600.00
03387             146.00   -11400.00
03388             150.00   -11600.00
03389             140.00   -11400.00
03390             130.00   -11600.00
03391             128.00   -11600.00
03392             128.00   -11200.00
03393             130.00   -11200.00
03394             130.00   -11200.00
03395             118.00   -11200.00
03396             116.00   -11000.00
03397             112.00   -11000.00
03398             104.00   -11000.00
03399             102.00   -11000.00
03400             102.00   -10800.00
03401              98.00   -10800.00
03402              98.00   -10600.00
03403              90.00   -10600.00
03404              82.00   -10200.00
03405              82.00   -10400.00
03406              78.00   -10200.00
03407              78.00   -10000.00
03408              80.00   -10000.00
03409              72.00    -9600.00
03410              64.00    -9600.00
03411              62.00    -9600.00
03412              62.00    -9600.00
03413              64.00    -9400.00
03414              62.00    -9200.00
03415              56.00    -9200.00
03416              56.00    -9200.00
03417              54.00    -9000.00
03418              48.00    -8800.00
03419              42.00    -8800.00
03420              42.00    -8600.00
03421              48.00    -8400.00
03422              48.00    -8200.00
03423              40.00    -8000.00
03424              38.00    -7800.00
03425              36.00    -7800.00
03426              36.00    -7400.00
03427              38.00    -7400.00
03428              36.00    -7200.00
03429              32.00    -7000.00
03430              32.00    -7000.00
03431              26.00    -6800.00
03432              22.00    -6800.00
03433              30.00    -6400.00
03434              32.00    -6400.00
03435              30.00    -6200.00
03436              24.00    -6000.00
03437              18.00    -5800.00
03438              18.00    -5600.00
03439              22.00    -5400.00
03440              18.00    -5200.00
03441              22.00    -5200.00
03442              20.00    -4800.00
03443              16.00    -4800.00
03444              14.00    -4600.00
03445              10.00    -4400.00
03446              16.00    -4000.00
03447              18.00    -4000.00
03448              14.00    -3800.00
03449              12.00    -3600.00
03450               8.00    -3400.00
03451               8.00    -3200.00
03452               8.00    -3000.00
03453               8.00    -2800.00
03454               6.00    -2800.00
03455              10.00    -2600.00
03456               8.00    -2200.00
03457               4.00    -2200.00
03458               0.00    -2000.00
03459               2.00    -1600.00
03460               2.00    -1600.00
03461               6.00    -1400.00
03462               2.00    -1000.00
03463               0.00    -1000.00
03464               0.00     -600.00
03465              -2.00     -600.00
03466              -2.00     -400.00
03467              -2.00        0.00
03468               0.00      200.00
03469               0.00      200.00
03470               2.00      400.00
03471              14.00      800.00
03472              30.00      800.00
03473               2.00     1000.00
03474             -18.00     1000.00
03475             -10.00     1200.00
03476               8.00     1600.00
03477              24.00     1600.00
03478             170.00     2000.00
03479             246.00     2400.00
03480            -170.00     2400.00
03481            -254.00     2600.00
03482            -248.00     2800.00
03483              32.00     2800.00
03484             246.00     3200.00
03485             246.00     3400.00
03486            -254.00     3200.00
03487            -184.00     3600.00
03488             246.00     4000.00
03489            -182.00     4000.00
03490              72.00     4400.00
03491              -4.00     4400.00
03492            -112.00     4400.00
03493             184.00     4800.00
03494            -152.00     5000.00
03495            -112.00     5200.00
03496              32.00     5400.00
03497              34.00     5600.00
03498              18.00     5600.00
03499             -80.00     5800.00
03500               0.00     6200.00
03501             -90.00     6000.00
03502              54.00     6600.00
03503               0.00     6400.00
03504            -118.00     6600.00
03505              32.00     7000.00
03506             -42.00     7200.00
03507              -6.00     7400.00
03508             -42.00     7400.00
03509             -64.00     7800.00
03510             -12.00     7600.00
03511               2.00     8000.00
03512             -34.00     8000.00
03513             -72.00     8200.00
03514             -20.00     8400.00
03515             -48.00     8400.00
03516             -24.00     8800.00
03517             -40.00     8800.00
03518             -50.00     9000.00
03519             -48.00     9200.00
03520             -24.00     9200.00
03521             -42.00     9200.00
03522             -42.00     9400.00
03523             -46.00     9600.00
03524             -74.00     9600.00
03525             -38.00    10000.00
03526             -48.00    10000.00
03527             -42.00    10000.00
03528             -48.00    10200.00
03529             -72.00    10200.00
03530             -78.00    10400.00
03531             -52.00    10400.00
03532             -46.00    10600.00
03533             -58.00    10600.00
03534             -62.00    10800.00
03535             -82.00    10800.00
03536             -78.00    11200.00
03537             -66.00    11200.00
03538             -66.00    11200.00
03539             -70.00    11200.00
03540             -74.00    11200.00
03541             -80.00    11400.00
03542             -80.00    11600.00
03543             -80.00    11800.00
03544             -94.00    11600.00
03545             -90.00    11800.00
03546             -78.00    11800.00
03547             -86.00    11600.00
03548             -96.00    11800.00
03549            -102.00    11800.00
03550            -104.00    12000.00
03551            -100.00    12000.00
03552             -96.00    12200.00
03553             -98.00    12200.00
03554            -104.00    12200.00
03555            -114.00    12200.00
03556            -118.00    12200.00
03557            -118.00    12400.00
03558            -118.00    12200.00
03559            -118.00    12200.00
03560            -118.00    12200.00
03561            -126.00    12400.00
03562            -136.00    12200.00
03563            -136.00    12400.00
03564            -136.00    12200.00
03565            -134.00    12400.00
03566            -130.00    12400.00
03567            -142.00    12400.00
03568            -150.00    12200.00
03569            -152.00    12400.00
03570            -152.00    12400.00
03571            -150.00    12200.00
03572            -152.00    12200.00
03573            -154.00    12200.00
03574            -154.00    12000.00
03575            -154.00    12200.00
03576            -160.00    12000.00
03577            -158.00    12200.00
03578            -152.00    12000.00
03579            -146.00    12000.00
03580            -144.00    12000.00
03581            -144.00    12000.00
03582            -146.00    12000.00
03583            -144.00    11800.00
03584            -138.00    11600.00
03585            -130.00    11600.00
03586            -124.00    11600.00
03587            -122.00    11400.00
03588            -122.00    11400.00
03589            -126.00    11400.00
03590            -124.00    11200.00
03591            -112.00    11200.00
03592            -106.00    11200.00
03593            -100.00    10800.00
03594             -98.00    10800.00
03595            -102.00    10600.00
03596             -98.00    10800.00
03597             -96.00    10400.00
03598             -90.00    10400.00
03599             -82.00    10400.00
03600             -80.00    10400.00
03601             -84.00    10000.00
03602             -82.00    10000.00
03603             -80.00     9800.00
03604             -74.00     9800.00
03605             -64.00     9600.00
03606             -64.00     9600.00
03607             -64.00     9400.00
03608             -66.00     9400.00
03609             -66.00     9200.00
03610             -64.00     9000.00
03611             -52.00     8800.00
03612             -50.00     8800.00
03613             -54.00     8600.00
03614             -54.00     8400.00
03615             -56.00     8200.00
03616             -50.00     8200.00
03617             -46.00     8000.00
03618             -42.00     8000.00
03619             -40.00     7600.00
03620             -42.00     7400.00
03621             -42.00     7600.00
03622             -40.00     7400.00
03623             -40.00     7200.00
03624             -34.00     7000.00
03625             -38.00     6800.00
03626             -34.00     6600.00
03627             -34.00     6400.00
03628             -32.00     6400.00
03629             -34.00     6000.00
03630             -32.00     5800.00
03631             -26.00     5600.00
03632             -26.00     5600.00
03633             -26.00     5600.00
03634             -24.00     5200.00
03635             -26.00     5000.00
03636             -26.00     5000.00
03637             -26.00     4800.00
03638             -20.00     4400.00
03639             -18.00     4400.00
03640             -18.00     4200.00
03641             -18.00     4000.00
03642             -22.00     3600.00
03643             -22.00     3600.00
03644             -18.00     3400.00
03645             -14.00     3200.00
03646             -14.00     2800.00
03647             -14.00     2800.00
03648             -10.00     2600.00
03649             -14.00     2600.00
03650             -16.00     2400.00
03651              -8.00     2000.00
03652              -6.00     1800.00
03653             -16.00     1600.00
03654             -14.00     1200.00
03655              -8.00     1200.00
03656              -4.00     1200.00
03657              -2.00      800.00
03658             -10.00      800.00
03659             -16.00      400.00
03660             -10.00      400.00
03661               6.00        0.00
03662              14.00        0.00
03663              26.00     -400.00
03664               8.00     -400.00
03665             -14.00     -600.00
03666              -4.00     -800.00
03667              14.00    -1000.00
03668               6.00    -1200.00
03669              10.00    -1400.00
03670             102.00    -1600.00
03671             246.00    -2000.00
03672              38.00    -2400.00
03673            -254.00    -2400.00
03674            -254.00    -2400.00
03675              48.00    -2800.00
03676             102.00    -2600.00
03677             246.00    -2800.00
03678             162.00    -3200.00
03679            -254.00    -3200.00
03680              56.00    -3600.00
03681             168.00    -4000.00
03682             -68.00    -3600.00
03683              66.00    -4400.00
03684             -48.00    -4000.00
03685              74.00    -4400.00
03686              58.00    -4800.00
03687             -90.00    -4800.00
03688             -26.00    -5200.00
03689              -4.00    -4800.00
03690             142.00    -5600.00
03691              14.00    -5400.00
03692             -48.00    -5600.00
03693              34.00    -6200.00
03694             -10.00    -5800.00
03695              88.00    -6400.00
03696              10.00    -6200.00
03697             -22.00    -6400.00
03698              38.00    -6800.00
03699              46.00    -6800.00
03700              34.00    -7200.00
03701             -22.00    -7200.00
03702              38.00    -7400.00
03703              32.00    -7600.00
03704              40.00    -7600.00
03705              46.00    -7800.00
03706              -2.00    -8000.00
03707              48.00    -8200.00
03708              34.00    -8200.00
03709              12.00    -8600.00
03710              34.00    -8600.00
03711              48.00    -8600.00
03712              42.00    -9000.00
03713              46.00    -9000.00
03714              38.00    -9200.00
03715              26.00    -9200.00
03716              42.00    -9400.00
03717              48.00    -9600.00
03718              42.00    -9600.00
03719              56.00    -9600.00
03720              50.00   -10000.00
03721              40.00   -10000.00
03722              46.00   -10200.00
03723              34.00   -10200.00
03724              56.00   -10400.00
03725              86.00   -10200.00
03726              62.00   -10400.00
03727              46.00   -10600.00
03728              46.00   -10800.00
03729              56.00   -10800.00
03730              76.00   -11000.00
03731              78.00   -11000.00
03732              64.00   -11000.00
03733              66.00   -11000.00
03734              78.00   -11200.00
03735              68.00   -11200.00
03736              74.00   -11200.00
03737              80.00   -11200.00
03738              80.00   -11600.00
03739              88.00   -11600.00
03740              86.00   -11400.00
03741              80.00   -11600.00
03742              90.00   -11800.00
03743              94.00   -11600.00
03744              96.00   -11800.00
03745             102.00   -11800.00
03746             102.00   -11800.00
03747              98.00   -11800.00
03748             102.00   -11800.00
03749             110.00   -11800.00
03750             112.00   -11800.00
03751             122.00   -11800.00
03752             118.00   -11800.00
03753             112.00   -12000.00
03754             126.00   -11800.00
03755             122.00   -12000.00
03756             126.00   -11800.00
03757             134.00   -12000.00
03758             136.00   -12000.00
03759             138.00   -12000.00
03760             142.00   -11800.00
03761             134.00   -12000.00
03762             142.00   -11800.00
03763             150.00   -11800.00
03764             152.00   -11800.00
03765             152.00   -11800.00
03766             152.00   -11800.00
03767             142.00   -11800.00
03768             142.00   -11800.00
03769             142.00   -11600.00
03770             144.00   -11600.00
03771             154.00   -11600.00
03772             146.00   -11400.00
03773             134.00   -11600.00
03774             128.00   -11600.00
03775             126.00   -11400.00
03776             128.00   -11200.00
03777             134.00   -11200.00
03778             124.00   -11200.00
03779             118.00   -11000.00
03780             112.00   -11000.00
03781             104.00   -10800.00
03782             106.00   -11000.00
03783             106.00   -10800.00
03784             102.00   -10600.00
03785             100.00   -10800.00
03786              96.00   -10400.00
03787              88.00   -10400.00
03788              86.00   -10400.00
03789              80.00   -10200.00
03790              78.00   -10000.00
03791              80.00   -10000.00
03792              78.00   -10000.00
03793              72.00    -9800.00
03794              64.00    -9600.00
03795              62.00    -9600.00
03796              62.00    -9400.00
03797              62.00    -9400.00
03798              58.00    -9200.00
03799              58.00    -9200.00
03800              56.00    -8800.00
03801              50.00    -8800.00
03802              46.00    -8800.00
03803              42.00    -8600.00
03804              46.00    -8400.00
03805              48.00    -8200.00
03806              46.00    -8000.00
03807              38.00    -8000.00
03808              36.00    -7800.00
03809              32.00    -7400.00
03810              34.00    -7600.00
03811              38.00    -7200.00
03812              34.00    -7200.00
03813              34.00    -7000.00
03814              30.00    -6800.00
03815              26.00    -6800.00
03816              28.00    -6600.00
03817              26.00    -6400.00
03818              26.00    -6200.00
03819              24.00    -6000.00
03820              22.00    -5600.00
03821              22.00    -5600.00
03822              20.00    -5400.00
03823              18.00    -5400.00
03824              18.00    -5200.00
03825              18.00    -5000.00
03826              22.00    -4800.00
03827              20.00    -4600.00
03828              14.00    -4400.00
03829              10.00    -4400.00
03830              14.00    -4000.00
03831              14.00    -3800.00
03832              16.00    -3600.00
03833              16.00    -3600.00
03834              10.00    -3200.00
03835               8.00    -3200.00
03836               6.00    -3000.00
03837              10.00    -2800.00
03838              14.00    -2600.00
03839              10.00    -2400.00
03840               6.00    -2400.00
03841               2.00    -2000.00
03842               0.00    -1800.00
03843               4.00    -1600.00
03844               6.00    -1400.00
03845               4.00    -1200.00
03846               8.00    -1000.00
03847               4.00     -800.00
03848              -2.00     -600.00
03849              -2.00     -600.00
03850              -2.00     -200.00
03851               2.00        0.00
03852               2.00      200.00
03853               0.00      400.00
03854               2.00      400.00
03855              30.00      800.00
03856              16.00      800.00
03857             -10.00     1000.00
03858             -16.00     1200.00
03859              -2.00     1400.00
03860              14.00     1600.00
03861              70.00     1800.00
03862             246.00     2000.00
03863             126.00     2400.00
03864            -254.00     2400.00
03865            -254.00     2600.00
03866             -64.00     2800.00
03867             182.00     2800.00
03868             246.00     3400.00
03869             -40.00     3200.00
03870            -254.00     3200.00
03871             240.00     3800.00
03872              56.00     3600.00
03873            -132.00     4200.00
03874             142.00     4400.00
03875            -166.00     4400.00
03876              98.00     4600.00
03877              46.00     4800.00
03878            -210.00     5000.00
03879               8.00     5200.00
03880              20.00     5600.00
03881              54.00     5600.00
03882             -56.00     5600.00
03883             -32.00     6000.00
03884             -42.00     6000.00
03885             -46.00     6400.00
03886              82.00     6600.00
03887            -120.00     6400.00
03888             -22.00     6800.00
03889               6.00     6800.00
03890             -40.00     7200.00
03891              -6.00     7400.00
03892             -74.00     7400.00
03893             -30.00     7600.00
03894              -6.00     7600.00
03895              -6.00     8000.00
03896             -72.00     8000.00
03897             -38.00     8200.00
03898             -32.00     8400.00
03899             -38.00     8400.00
03900             -24.00     8600.00
03901             -50.00     8800.00
03902             -54.00     9000.00
03903             -40.00     9000.00
03904             -26.00     9200.00
03905             -50.00     9200.00
03906             -30.00     9600.00
03907             -66.00     9600.00
03908             -56.00     9600.00
03909             -44.00     9800.00
03910             -54.00    10000.00
03911             -42.00    10000.00
03912             -54.00    10200.00
03913             -64.00    10400.00
03914             -70.00    10400.00
03915             -46.00    10400.00
03916             -54.00    10600.00
03917             -58.00    10600.00
03918             -74.00    10800.00
03919             -82.00    10800.00
03920             -72.00    10800.00
03921             -62.00    11200.00
03922             -70.00    11200.00
03923             -74.00    11200.00
03924             -78.00    11400.00
03925             -86.00    11400.00
03926             -74.00    11800.00
03927             -88.00    11400.00
03928             -88.00    11800.00
03929             -82.00    11600.00
03930             -88.00    11800.00
03931             -98.00    11800.00
03932             -96.00    12000.00
03933             -94.00    12000.00
03934             -98.00    12000.00
03935             -98.00    12000.00
03936            -104.00    12000.00
03937            -104.00    12000.00
03938            -106.00    12200.00
03939            -120.00    12200.00
03940            -120.00    12200.00
03941            -114.00    12200.00
03942            -114.00    12400.00
03943            -114.00    12200.00
03944            -128.00    12200.00
03945            -136.00    12200.00
03946            -138.00    12200.00
03947            -130.00    12200.00
03948            -126.00    12200.00
03949            -134.00    12200.00
03950            -146.00    12400.00
03951            -158.00    12400.00
03952            -150.00    12200.00
03953            -142.00    12200.00
03954            -144.00    12200.00
03955            -154.00    12200.00
03956            -158.00    12200.00
03957            -154.00    12200.00
03958            -154.00    12200.00
03959            -154.00    12000.00
03960            -156.00    12000.00
03961            -152.00    12000.00
03962            -146.00    12000.00
03963            -144.00    12000.00
03964            -146.00    11800.00
03965            -148.00    11800.00
03966            -142.00    12000.00
03967            -134.00    11600.00
03968            -130.00    12000.00
03969            -130.00    11600.00
03970            -134.00    11600.00
03971            -122.00    11600.00
03972            -114.00    11400.00
03973            -114.00    11400.00
03974            -118.00    11200.00
03975            -118.00    11200.00
03976            -104.00    11000.00
03977             -96.00    10800.00
03978             -96.00    10800.00
03979             -96.00    10600.00
03980            -100.00    10600.00
03981             -96.00    10400.00
03982             -86.00    10400.00
03983             -74.00    10200.00
03984             -78.00    10000.00
03985             -80.00    10000.00
03986             -82.00     9800.00
03987             -80.00     9800.00
03988             -72.00     9600.00
03989             -64.00     9600.00
03990             -62.00     9400.00
03991             -64.00     9400.00
03992             -66.00     9200.00
03993             -66.00     9000.00
03994             -62.00     9000.00
03995             -56.00     8800.00
03996             -50.00     8600.00
03997             -50.00     8400.00
03998             -54.00     8400.00
03999             -54.00     8400.00
04000             -50.00     8000.00
04001             -46.00     8000.00
04002             -42.00     7800.00
04003             -40.00     7600.00
04004             -42.00     7600.00
04005             -38.00     7400.00
04006             -40.00     7200.00
04007             -40.00     6800.00
04008             -40.00     6800.00
04009             -36.00     6600.00
04010             -30.00     6600.00
04011             -26.00     6400.00
04012             -32.00     6200.00
04013             -34.00     6000.00
04014             -34.00     5800.00
04015             -28.00     5600.00
04016             -22.00     5400.00
04017             -22.00     5200.00
04018             -26.00     5200.00
04019             -32.00     5000.00
04020             -32.00     4600.00
04021             -22.00     4400.00
04022             -14.00     4200.00
04023             -10.00     4200.00
04024             -18.00     4000.00
04025             -24.00     3800.00
04026             -24.00     3600.00
04027             -16.00     3400.00
04028             -10.00     3200.00
04029             -16.00     3000.00
04030             -18.00     2800.00
04031             -16.00     2600.00
04032             -10.00     2600.00
04033             -10.00     2400.00
04034             -14.00     2000.00
04035             -14.00     1800.00
04036             -10.00     1800.00
04037              -8.00     1600.00
04038             -10.00     1200.00
04039              -8.00     1000.00
04040             -10.00     1200.00
04041             -10.00      800.00
04042              -8.00      400.00
04043              -2.00      400.00
04044               0.00      200.00
04045               0.00        0.00
04046               6.00        0.00
04047              26.00     -400.00
04048               8.00     -400.00
04049             -10.00     -600.00
04050             -10.00     -800.00
04051              10.00    -1200.00
04052              14.00    -1400.00
04053              46.00    -1000.00
04054             206.00    -1400.00
04055             226.00    -2000.00
04056            -234.00    -2400.00
04057            -254.00    -2400.00
04058            -102.00    -2600.00
04059             102.00    -2800.00
04060             162.00    -2600.00
04061             246.00    -3200.00
04062            -190.00    -3200.00
04063            -226.00    -3200.00
04064             232.00    -4000.00
04065             -16.00    -3600.00
04066              18.00    -4000.00
04067              14.00    -4400.00
04068             -20.00    -4200.00
04069             126.00    -4800.00
04070             -50.00    -4800.00
04071             -56.00    -5000.00
04072             -26.00    -5200.00
04073              74.00    -5200.00
04074             118.00    -5600.00
04075             -66.00    -5600.00
04076               8.00    -6000.00
04077              -6.00    -6000.00
04078              42.00    -6200.00
04079              80.00    -6400.00
04080             -30.00    -6400.00
04081              18.00    -6800.00
04082              26.00    -6800.00
04083              46.00    -7000.00
04084              -2.00    -7200.00
04085              12.00    -7200.00
04086              50.00    -7600.00
04087              24.00    -7400.00
04088              50.00    -7800.00
04089               2.00    -7800.00
04090              18.00    -8000.00
04091              62.00    -8400.00
04092              30.00    -8400.00
04093              22.00    -8600.00
04094              32.00    -8600.00
04095              36.00    -8800.00
04096              44.00    -8800.00
04097              48.00    -9000.00
04098              32.00    -9400.00
04099              38.00    -9200.00
04100              48.00    -9400.00
04101              40.00    -9600.00
04102              46.00    -9600.00
04103              58.00    -9600.00
04104              46.00   -10000.00
04105              54.00   -10000.00
04106              46.00   -10000.00
04107              42.00   -10200.00
04108              72.00   -10200.00
04109              70.00   -10400.00
04110              56.00   -10400.00
04111              54.00   -10600.00
04112              50.00   -10800.00
04113              56.00   -10800.00
04114              78.00   -10800.00
04115              76.00   -11000.00
04116              70.00   -11000.00
04117              72.00   -11200.00
04118              66.00   -11200.00
04119              70.00   -11400.00
04120              82.00   -11200.00
04121              80.00   -11400.00
04122              86.00   -11600.00
04123              88.00   -11600.00
04124              80.00   -11600.00
04125              86.00   -11600.00
04126              90.00   -11600.00
04127              92.00   -11800.00
04128             102.00   -11600.00
04129             104.00   -11800.00
04130             102.00   -11600.00
04131             102.00   -12000.00
04132             102.00   -12000.00
04133             102.00   -12000.00
04134             116.00   -12000.00
04135             122.00   -11800.00
04136             120.00   -11800.00
04137             122.00   -12000.00
04138             120.00   -12000.00
04139             120.00   -11800.00
04140             132.00   -11800.00
04141             136.00   -12000.00
04142             142.00   -11800.00
04143             144.00   -11800.00
04144             138.00   -12000.00
04145             136.00   -11800.00
04146             144.00   -11800.00
04147             148.00   -11800.00
04148             150.00   -11800.00
04149             158.00   -11800.00
04150             146.00   -11800.00
04151             142.00   -11600.00
04152             140.00   -11600.00
04153             144.00   -11600.00
04154             150.00   -11600.00
04155             150.00   -11600.00
04156             138.00   -11600.00
04157             136.00   -11400.00
04158             128.00   -11400.00
04159             128.00   -11400.00
04160             128.00   -11200.00
04161             128.00   -11200.00
04162             120.00   -11200.00
04163             118.00   -11000.00
04164             110.00   -11000.00
04165             104.00   -10800.00
04166             104.00   -10800.00
04167             104.00   -10800.00
04168             104.00   -10600.00
04169             102.00   -10400.00
04170              88.00   -10400.00
04171              82.00   -10200.00
04172              82.00   -10400.00
04173              86.00   -10200.00
04174              82.00   -10000.00
04175              80.00   -10000.00
04176              72.00    -9800.00
04177              68.00    -9600.00
04178              66.00    -9600.00
04179              64.00    -9400.00
04180              62.00    -9200.00
04181              62.00    -9400.00
04182              56.00    -9200.00
04183              54.00    -8800.00
04184              54.00    -9200.00
04185              48.00    -8600.00
04186              48.00    -8600.00
04187              46.00    -8600.00
04188              46.00    -8400.00
04189              46.00    -8200.00
04190              42.00    -8000.00
04191              38.00    -8000.00
04192              32.00    -7600.00
04193              34.00    -7400.00
04194              34.00    -7400.00
04195              38.00    -7200.00
04196              34.00    -7200.00
04197              30.00    -7000.00
04198              26.00    -6800.00
04199              26.00    -6600.00
04200              26.00    -6400.00
04201              28.00    -6400.00
04202              30.00    -6200.00
04203              22.00    -6000.00
04204              18.00    -5800.00
04205              18.00    -5600.00
04206              16.00    -5600.00
04207              22.00    -5400.00
04208              22.00    -5200.00
04209              22.00    -5000.00
04210              16.00    -4600.00
04211              14.00    -4600.00
04212              14.00    -4400.00
04213              10.00    -4000.00
04214              16.00    -4000.00
04215              14.00    -3800.00
04216              12.00    -3600.00
04217               8.00    -3400.00
04218               6.00    -3200.00
04219               8.00    -3000.00
04220               8.00    -2800.00
04221              10.00    -2800.00
04222               8.00    -2600.00
04223               6.00    -2400.00
04224               6.00    -2000.00
04225               2.00    -2000.00
04226               2.00    -1600.00
04227               2.00    -1400.00
04228               6.00    -1400.00
04229               2.00    -1000.00
04230               2.00     -800.00
04231               0.00     -800.00
04232              -2.00     -600.00
04233              -2.00     -200.00
04234               0.00     -200.00
04235               2.00      200.00
04236               4.00      200.00
04237               2.00      400.00
04238              14.00      600.00
04239              26.00      800.00
04240               8.00     1000.00
04241             -10.00     1200.00
04242             -16.00     1200.00
04243               0.00     1600.00
04244              24.00     1800.00
04245             192.00     2000.00
04246             246.00     2400.00
04247            -196.00     2400.00
04248            -254.00     2600.00
04249            -234.00     2800.00
04250              46.00     2800.00
04251             246.00     3200.00
04252             246.00     3400.00
04253            -254.00     3200.00
04254            -136.00     3600.00
04255             246.00     4000.00
04256            -198.00     4000.00
04257              70.00     4200.00
04258             -26.00     4400.00
04259             -80.00     4400.00
04260             190.00     4800.00
04261            -166.00     4800.00
04262            -106.00     5200.00
04263              22.00     5400.00
04264              30.00     5600.00
04265              22.00     5600.00
04266             -66.00     5800.00
04267               0.00     6000.00
04268            -102.00     6000.00
04269              58.00     6600.00
04270             -14.00     6600.00
04271            -110.00     6800.00
04272              34.00     7000.00
04273             -40.00     7200.00
04274               0.00     7200.00
04275             -54.00     7400.00
04276             -66.00     7600.00
04277             -10.00     7600.00
04278              10.00     8000.00
04279             -34.00     8000.00
04280             -74.00     8200.00
04281             -26.00     8400.00
04282             -48.00     8400.00
04283             -22.00     8800.00
04284             -34.00     8800.00
04285             -46.00     9000.00
04286             -50.00     9000.00
04287             -32.00     9000.00
04288             -48.00     9400.00
04289             -38.00     9400.00
04290             -40.00     9600.00
04291             -70.00     9600.00
04292             -40.00     9800.00
04293             -56.00    10000.00
04294             -42.00    10200.00
04295             -46.00    10400.00
04296             -58.00    10400.00
04297             -76.00    10400.00
04298             -56.00    10600.00
04299             -46.00    10600.00
04300             -54.00    10800.00
04301             -58.00    10800.00
04302             -82.00    10800.00
04303             -78.00    11000.00
04304             -62.00    11200.00
04305             -64.00    11200.00
04306             -70.00    11400.00
04307             -72.00    11400.00
04308             -82.00    11400.00
04309             -78.00    11400.00
04310             -86.00    11800.00
04311             -90.00    11600.00
04312             -80.00    11800.00
04313             -82.00    11800.00
04314             -90.00    11800.00
04315             -96.00    11800.00
04316             -98.00    12000.00
04317            -102.00    12000.00
04318            -102.00    12000.00
04319             -96.00    12000.00
04320             -96.00    12000.00
04321            -102.00    12000.00
04322            -114.00    12200.00
04323            -122.00    12200.00
04324            -118.00    12200.00
04325            -114.00    12200.00
04326            -114.00    12200.00
04327            -114.00    12400.00
04328            -128.00    12200.00
04329            -138.00    12400.00
04330            -138.00    12200.00
04331            -138.00    12200.00
04332            -130.00    12200.00
04333            -136.00    12200.00
04334            -142.00    12200.00
04335            -150.00    12200.00
04336            -154.00    12200.00
04337            -156.00    12200.00
04338            -152.00    12200.00
04339            -150.00    12200.00
04340            -150.00    12200.00
04341            -152.00    12000.00
04342            -160.00    12200.00
04343            -160.00    12000.00
04344            -154.00    12000.00
04345            -150.00    12000.00
04346            -144.00    12000.00
04347            -142.00    12000.00
04348            -144.00    12000.00
04349            -148.00    12000.00
04350            -144.00    11800.00
04351            -138.00    11800.00
04352            -128.00    11600.00
04353            -122.00    11800.00
04354            -122.00    11400.00
04355            -122.00    11400.00
04356            -124.00    11400.00
04357            -120.00    11200.00
04358            -110.00    11000.00
04359            -102.00    11200.00
04360            -100.00    10800.00
04361            -102.00    10800.00
04362            -102.00    10800.00
04363             -98.00    10800.00
04364             -96.00    10400.00
04365             -88.00    10400.00
04366             -80.00    10400.00
04367             -80.00    10200.00
04368             -80.00    10200.00
04369             -80.00    10000.00
04370             -78.00    10000.00
04371             -74.00     9800.00
04372             -70.00     9600.00
04373             -64.00     9600.00
04374             -64.00     9400.00
04375             -66.00     9200.00
04376             -66.00     9200.00
04377             -62.00     9000.00
04378             -56.00     9000.00
04379             -54.00     8800.00
04380             -50.00     8600.00
04381             -54.00     8400.00
04382             -50.00     8400.00
04383             -52.00     8200.00
04384             -48.00     8000.00
04385             -42.00     8000.00
04386             -42.00     7600.00
04387             -40.00     7600.00
04388             -40.00     7400.00
04389             -42.00     7200.00
04390             -40.00     7200.00
04391             -40.00     6800.00
04392             -40.00     6600.00
04393             -34.00     6600.00
04394             -32.00     6400.00
04395             -34.00     6400.00
04396             -34.00     6000.00
04397             -34.00     6000.00
04398             -32.00     5600.00
04399             -26.00     5600.00
04400             -26.00     5400.00
04401             -26.00     5400.00
04402             -28.00     5000.00
04403             -30.00     5000.00
04404             -26.00     4600.00
04405             -22.00     4400.00
04406             -18.00     4200.00
04407             -16.00     4200.00
04408             -22.00     4000.00
04409             -24.00     3800.00
04410             -24.00     3600.00
04411             -18.00     3400.00
04412             -16.00     3200.00
04413             -10.00     2800.00
04414             -12.00     2800.00
04415             -16.00     2600.00
04416             -16.00     2600.00
04417             -14.00     2200.00
04418             -12.00     2000.00
04419              -8.00     1800.00
04420              -8.00     1800.00
04421              -8.00     1600.00
04422             -12.00     1200.00
04423             -10.00     1000.00
04424             -10.00      800.00
04425              -8.00      600.00
04426               0.00      400.00
04427              -2.00      400.00
04428               0.00      200.00
04429               2.00        0.00
04430              22.00     -400.00
04431              22.00     -400.00
04432              -2.00     -600.00
04433             -16.00     -800.00
04434              -2.00     -800.00
04435              16.00    -1000.00
04436              24.00    -1400.00
04437             112.00    -1600.00
04438             246.00    -2000.00
04439               8.00    -2400.00
04440            -254.00    -2400.00
04441            -254.00    -2800.00
04442              62.00    -2800.00
04443             102.00    -2600.00
04444             246.00    -2800.00
04445             134.00    -3600.00
04446            -254.00    -3200.00
04447              80.00    -3600.00
04448             154.00    -3800.00
04449             -64.00    -3600.00
04450              62.00    -4200.00
04451             -56.00    -4000.00
04452              80.00    -4400.00
04453              50.00    -4800.00
04454             -86.00    -4800.00
04455             -24.00    -5200.00
04456              -2.00    -4800.00
04457             144.00    -5600.00
04458               6.00    -5400.00
04459             -46.00    -5600.00
04460              24.00    -6200.00
04461             -10.00    -5600.00
04462              94.00    -6400.00
04463              10.00    -6200.00
04464             -16.00    -6400.00
04465              26.00    -6800.00
04466              34.00    -6800.00
04467              30.00    -7200.00
04468             -10.00    -7000.00
04469              46.00    -7600.00
04470              32.00    -7400.00
04471              38.00    -7600.00
04472              34.00    -7800.00
04473              -2.00    -7800.00
04474              50.00    -8400.00
04475              46.00    -8200.00
04476              16.00    -8400.00
04477              30.00    -8400.00
04478              38.00    -8800.00
04479              44.00    -8800.00
04480              48.00    -9000.00
04481              38.00    -9000.00
04482              32.00    -9200.00
04483              48.00    -9400.00
04484              48.00    -9600.00
04485              38.00    -9600.00
04486              54.00    -9600.00
04487              48.00   -10000.00
04488              48.00   -10000.00
04489              56.00   -10000.00
04490              46.00   -10200.00
04491              58.00   -10400.00
04492              70.00   -10400.00
04493              58.00   -10400.00
04494              56.00   -10400.00
04495              62.00   -10600.00
04496              62.00   -10800.00
04497              70.00   -10800.00
04498              74.00   -10800.00
04499              70.00   -11000.00
04500              74.00   -11000.00
04501              74.00   -11200.00
04502              66.00   -11200.00
04503              74.00   -11400.00
04504              82.00   -11200.00
04505              86.00   -11200.00
04506              92.00   -11400.00
04507              86.00   -11600.00
04508              80.00   -11600.00
04509              88.00   -11600.00
04510              94.00   -11800.00
04511              98.00   -11600.00
04512             106.00   -11800.00
04513             104.00   -11800.00
04514              98.00   -11800.00
04515             102.00   -11800.00
04516             102.00   -11800.00
04517             110.00   -11800.00
04518             122.00   -11800.00
04519             122.00   -11800.00
04520             122.00   -11800.00
04521             120.00   -12000.00
04522             116.00   -11800.00
04523             128.00   -12000.00
04524             136.00   -11800.00
04525             140.00   -12000.00
04526             142.00   -11800.00
04527             138.00   -12000.00
04528             134.00   -11800.00
04529             144.00   -11800.00
04530             150.00   -11800.00
04531             152.00   -11800.00
04532             150.00   -11800.00
04533             146.00   -11600.00
04534             144.00   -11800.00
04535             146.00   -11600.00
04536             146.00   -11800.00
04537             144.00   -11600.00
04538             144.00   -11600.00
04539             138.00   -11600.00
04540             138.00   -11600.00
04541             138.00   -11600.00
04542             128.00   -11400.00
04543             122.00   -11200.00
04544             122.00   -11200.00
04545             120.00   -11200.00
04546             126.00   -11000.00
04547             120.00   -11000.00
04548             114.00   -11000.00
04549             102.00   -10800.00
04550              98.00   -10800.00
04551              96.00   -10800.00
04552             102.00   -10400.00
04553              98.00   -10400.00
04554              88.00   -10400.00
04555              82.00   -10200.00
04556              80.00   -10200.00
04557              80.00   -10000.00
04558              82.00    -9800.00
04559              80.00   -10000.00
04560              72.00    -9600.00
04561              64.00    -9600.00
04562              58.00    -9400.00
04563              62.00    -9400.00
04564              64.00    -9400.00
04565              64.00    -9200.00
04566              62.00    -9000.00
04567              54.00    -9000.00
04568              48.00    -8800.00
04569              46.00    -8800.00
04570              48.00    -8400.00
04571              48.00    -8400.00
04572              46.00    -8200.00
04573              40.00    -8000.00
04574              40.00    -8000.00
04575              36.00    -7800.00
04576              34.00    -7400.00
04577              34.00    -7400.00
04578              32.00    -7400.00
04579              34.00    -7200.00
04580              34.00    -7200.00
04581              26.00    -7000.00
04582              22.00    -6800.00
04583              24.00    -6600.00
04584              26.00    -6400.00
04585              30.00    -6200.00
04586              32.00    -6200.00
04587              22.00    -6000.00
04588              16.00    -5600.00
04589              18.00    -5600.00
04590              16.00    -5400.00
04591              18.00    -5200.00
04592              24.00    -5000.00
04593              22.00    -4800.00
04594              14.00    -4800.00
04595              10.00    -4400.00
04596               2.00    -4400.00
04597              14.00    -4000.00
04598              22.00    -4000.00
04599              18.00    -3600.00
04600               8.00    -3600.00
04601               0.00    -3200.00
04602              10.00    -3200.00
04603              18.00    -3000.00
04604               6.00    -2800.00
04605               2.00    -2600.00
04606               8.00    -2400.00
04607               8.00    -2200.00
04608               8.00    -2000.00
04609               0.00    -2000.00
04610               0.00    -1600.00
04611               2.00    -1400.00
04612               2.00    -1000.00
04613               0.00    -1000.00
04614               6.00     -800.00
04615               0.00     -600.00
04616              -2.00     -400.00
04617               0.00     -400.00
04618               6.00        0.00
04619               0.00      200.00
04620               0.00      200.00
04621               2.00      400.00
04622              30.00      800.00
04623              24.00      800.00
04624              -8.00     1000.00
04625             -16.00     1200.00
04626               0.00     1400.00
04627              10.00     1600.00
04628              78.00     1800.00
04629             246.00     2400.00
04630             102.00     2200.00
04631            -254.00     2400.00
04632            -254.00     2600.00
04633             -56.00     2800.00
04634             198.00     3200.00
04635             246.00     3400.00
04636             -90.00     3200.00
04637            -254.00     3400.00
04638             246.00     4000.00
04639              30.00     3600.00
04640            -118.00     4200.00
04641             134.00     4400.00
04642            -164.00     4400.00
04643             116.00     4600.00
04644              22.00     4800.00
04645            -210.00     5200.00
04646              10.00     5400.00
04647              22.00     5600.00
04648              58.00     5600.00
04649             -62.00     5600.00
04650             -32.00     6000.00
04651             -56.00     6000.00
04652             -38.00     6400.00
04653              86.00     6600.00
04654            -118.00     6400.00
04655             -14.00     6800.00
04656              -6.00     6800.00
04657             -42.00     7200.00
04658             -10.00     7400.00
04659             -74.00     7600.00
04660             -26.00     7600.00
04661               0.00     7600.00
04662              -8.00     8000.00
04663             -74.00     8000.00
04664             -36.00     8200.00
04665             -32.00     8400.00
04666             -38.00     8400.00
04667             -26.00     8800.00
04668             -54.00     8800.00
04669             -50.00     9000.00
04670             -34.00     9200.00
04671             -30.00     9400.00
04672             -56.00     9400.00
04673             -34.00     9600.00
04674             -70.00     9800.00
04675             -48.00     9800.00
04676             -38.00     9800.00
04677             -50.00    10000.00
04678             -42.00    10000.00
04679             -60.00    10400.00
04680             -72.00    10400.00
04681             -62.00    10600.00
04682             -42.00    10400.00
04683             -52.00    10800.00
04684             -56.00    10800.00
04685             -72.00    10800.00
04686             -86.00    10800.00
04687             -72.00    11000.00
04688             -66.00    11200.00
04689             -66.00    11200.00
04690             -64.00    11400.00
04691             -74.00    11600.00
04692             -82.00    11600.00
04693             -78.00    11800.00
04694             -88.00    11800.00
04695             -86.00    11600.00
04696             -78.00    11800.00
04697             -82.00    11800.00
04698             -90.00    11800.00
04699             -96.00    12000.00
04700            -104.00    12000.00
04701            -104.00    12000.00
04702             -96.00    12000.00
04703             -96.00    12200.00
04704            -102.00    12200.00
04705            -112.00    12200.00
04706            -122.00    12000.00
04707            -120.00    12200.00
04708            -114.00    12200.00
04709            -114.00    12200.00
04710            -114.00    12200.00
04711            -122.00    12200.00
04712            -134.00    12400.00
04713            -138.00    12200.00
04714            -136.00    12400.00
04715            -134.00    12200.00
04716            -134.00    12200.00
04717            -140.00    12400.00
04718            -150.00    12200.00
04719            -154.00    12200.00
04720            -154.00    12200.00
04721            -150.00    12200.00
04722            -146.00    12000.00
04723            -152.00    12200.00
04724            -154.00    12200.00
04725            -160.00    12000.00
04726            -160.00    12200.00
04727            -156.00    12000.00
04728            -152.00    12000.00
04729            -152.00    12000.00
04730            -148.00    12000.00
04731            -146.00    12000.00
04732            -144.00    11800.00
04733            -140.00    12000.00
04734            -138.00    11600.00
04735            -138.00    11800.00
04736            -134.00    11800.00
04737            -128.00    11600.00
04738            -122.00    11600.00
04739            -120.00    11400.00
04740            -118.00    11400.00
04741            -118.00    11200.00
04742            -110.00    11000.00
04743            -102.00    11000.00
04744            -100.00    11000.00
04745             -96.00    10800.00
04746             -96.00    10800.00
04747             -98.00    10600.00
04748             -94.00    10600.00
04749             -88.00    10400.00
04750             -80.00    10400.00
04751             -78.00    10200.00
04752             -76.00    10000.00
04753             -78.00    10000.00
04754             -78.00    10000.00
04755             -72.00     9800.00
04756             -66.00     9600.00
04757             -62.00     9600.00
04758             -60.00     9400.00
04759             -64.00     9400.00
04760             -66.00     9200.00
04761             -56.00     8800.00
04762             -54.00     8800.00
04763             -50.00     8600.00
04764             -48.00     8600.00
04765             -54.00     8400.00
04766             -54.00     8200.00
04767             -48.00     8000.00
04768             -46.00     8000.00
04769             -42.00     7800.00
04770             -40.00     7600.00
04771             -42.00     7400.00
04772             -38.00     7200.00
04773             -42.00     7200.00
04774             -42.00     7000.00
04775             -34.00     6800.00
04776             -32.00     6600.00
04777             -34.00     6600.00
04778             -38.00     6400.00
04779             -40.00     6200.00
04780             -30.00     6000.00
04781             -26.00     6000.00
04782             -26.00     5800.00
04783             -26.00     5600.00
04784             -26.00     5400.00
04785             -32.00     5200.00
04786             -30.00     5000.00
04787             -26.00     4800.00
04788             -18.00     4400.00
04789             -16.00     4400.00
04790             -18.00     4200.00
04791             -22.00     4000.00
04792             -24.00     3600.00
04793             -24.00     3600.00
04794             -18.00     3600.00
04795             -16.00     3200.00
04796             -14.00     3200.00
04797             -16.00     2800.00
04798             -16.00     2600.00
04799             -18.00     2600.00
04800             -14.00     2400.00
04801             -10.00     2000.00
04802             -10.00     2000.00
04803             -10.00     1800.00
04804              -8.00     1600.00
04805             -10.00     1400.00
04806             -10.00     1200.00
04807             -10.00      800.00
04808              -8.00      800.00
04809              -2.00      400.00
04810              -2.00      400.00
04811              -2.00      200.00
04812              -2.00        0.00
04813              14.00     -200.00
04814              32.00     -400.00
04815              12.00     -600.00
04816             -16.00     -800.00
04817             -10.00     -800.00
04818               8.00    -1000.00
04819              16.00    -1200.00
04820              56.00    -1400.00
04821             218.00    -1600.00
04822             214.00    -2200.00
04823            -254.00    -2400.00
04824            -254.00    -2400.00
04825             -82.00    -2800.00
04826             112.00    -2800.00
04827             176.00    -2600.00
04828             246.00    -3200.00
04829            -218.00    -3200.00
04830            -202.00    -3200.00
04831             240.00    -3800.00
04832             -26.00    -3600.00
04833              26.00    -4000.00
04834               0.00    -4400.00
04835             -16.00    -4000.00
04836             122.00    -4800.00
04837             -56.00    -4600.00
04838             -48.00    -4800.00
04839             -26.00    -5200.00
04840              78.00    -5200.00
04841             108.00    -5600.00
04842             -66.00    -5200.00
04843              14.00    -6000.00
04844              -8.00    -6000.00
04845              48.00    -6000.00
04846              72.00    -6600.00
04847             -32.00    -6200.00
04848              22.00    -7000.00
04849              24.00    -6800.00
04850              44.00    -7000.00
04851              -2.00    -7200.00
04852              14.00    -7200.00
04853              48.00    -7600.00
04854              24.00    -7400.00
04855              52.00    -7800.00
04856               8.00    -8000.00
04857              22.00    -8200.00
04858              58.00    -8400.00
04859              22.00    -8400.00
04860              14.00    -8600.00
04861              34.00    -8600.00
04862              44.00    -8800.00
04863              52.00    -8800.00
04864              50.00    -9000.00
04865              26.00    -9400.00
04866              30.00    -9200.00
04867              48.00    -9400.00
04868              46.00    -9400.00
04869              52.00    -9600.00
04870              54.00    -9800.00
04871              38.00   -10000.00
04872              46.00   -10000.00
04873              48.00   -10200.00
04874              54.00   -10200.00
04875              74.00   -10200.00
04876              68.00   -10400.00
04877              54.00   -10600.00
04878              54.00   -10800.00
04879              54.00   -10800.00
04880              62.00   -10800.00
04881              78.00   -11000.00
04882              74.00   -10800.00
04883              68.00   -11000.00
04884              78.00   -11000.00
04885              70.00   -11200.00
04886              68.00   -11200.00
04887              86.00   -11200.00
04888              80.00   -11200.00
04889              88.00   -11600.00
04890              94.00   -11400.00
04891              80.00   -11600.00
04892              88.00   -11600.00
04893              90.00   -11600.00
04894              94.00   -11800.00
04895             104.00   -11800.00
04896             104.00   -11800.00
04897              98.00   -11800.00
04898             110.00   -11800.00
04899             106.00   -11800.00
04900             102.00   -12000.00
04901             106.00   -11800.00
04902             118.00   -11800.00
04903             132.00   -11800.00
04904             134.00   -12000.00
04905             112.00   -12000.00
04906             104.00   -12000.00
04907             126.00   -11800.00
04908             144.00   -12000.00
04909             154.00   -11800.00
04910             146.00   -12000.00
04911             126.00   -12000.00
04912             126.00   -11800.00
04913             142.00   -11800.00
04914             156.00   -12000.00
04915             158.00   -12000.00
04916             152.00   -11800.00
04917             144.00   -11800.00
04918             138.00   -11800.00
04919             138.00   -11600.00
04920             144.00   -11600.00
04921             150.00   -11600.00
04922             146.00   -11600.00
04923             134.00   -11400.00
04924             134.00   -11600.00
04925             128.00   -11400.00
04926             126.00   -11200.00
04927             134.00   -11200.00
04928             132.00   -11200.00
04929             118.00   -11200.00
04930             104.00   -11000.00
04931              96.00   -11000.00
04932             110.00   -10800.00
04933             120.00   -10800.00
04934             112.00   -10800.00
04935              94.00   -10600.00
04936              90.00   -10800.00
04937              86.00   -10400.00
04938              88.00   -10400.00
04939              88.00   -10200.00
04940              82.00   -10000.00
04941              80.00   -10000.00
04942              66.00   -10000.00
04943              66.00    -9800.00
04944              80.00    -9600.00
04945              86.00    -9600.00
04946              68.00    -9600.00
04947              46.00    -9400.00
04948              42.00    -9200.00
04949              58.00    -9000.00
04950              76.00    -9000.00
04951              64.00    -8800.00
04952              40.00    -8800.00
04953              34.00    -8600.00
04954              46.00    -8400.00
04955              56.00    -8400.00
04956              58.00    -8200.00
04957              42.00    -8000.00
04958              30.00    -8000.00
04959              30.00    -7800.00
04960              32.00    -7400.00
04961              42.00    -7400.00
04962              42.00    -7200.00
04963              36.00    -7000.00
04964              26.00    -7000.00
04965              20.00    -6800.00
04966              22.00    -6600.00
04967              26.00    -6400.00
04968              32.00    -6200.00
04969              26.00    -6200.00
04970              24.00    -5800.00
04971              20.00    -5800.00
04972              16.00    -5600.00
04973              16.00    -5400.00
04974              22.00    -5400.00
04975              22.00    -5000.00
04976              18.00    -4800.00
04977              14.00    -4800.00
04978              10.00    -4600.00
04979              14.00    -4400.00
04980              16.00    -4000.00
04981              16.00    -4000.00
04982              14.00    -3800.00
04983               8.00    -3600.00
04984               6.00    -3400.00
04985               6.00    -3200.00
04986               8.00    -3000.00
04987              10.00    -2800.00
04988               8.00    -2800.00
04989               8.00    -2400.00
04990               6.00    -2200.00
04991               4.00    -2200.00
04992               0.00    -2000.00
04993               4.00    -1600.00
04994               8.00    -1600.00
04995               8.00    -1200.00
04996               0.00    -1000.00
04997              -2.00     -800.00
04998              -2.00     -600.00
04999               0.00     -600.00
05000               2.00     -400.00
