Unit:(mV)
                     CH1         CH2
Frequency              ? 260.738 kHz
00001               2.00    -3000.00
00002              -6.00    -2800.00
00003               0.00    -2800.00
00004               2.00    -2400.00
00005              -2.00    -2200.00
00006               6.00    -2000.00
00007              -2.00    -2000.00
00008              -8.00    -1600.00
00009               0.00    -1400.00
00010               0.00    -1000.00
00011               0.00    -1200.00
00012               0.00     -800.00
00013             -10.00     -600.00
00014               0.00     -600.00
00015               6.00     -200.00
00016               0.00        0.00
00017              -2.00        0.00
00018               0.00      400.00
00019               2.00      400.00
00020              32.00      600.00
00021              36.00     1000.00
00022              -2.00     1000.00
00023             -26.00     1200.00
00024              -6.00     1600.00
00025              22.00     1600.00
00026              78.00     1600.00
00027             246.00     2000.00
00028             192.00     2400.00
00029            -254.00     2400.00
00030            -254.00     2600.00
00031             -66.00     2800.00
00032             246.00     2800.00
00033             246.00     3400.00
00034            -108.00     3400.00
00035            -254.00     3200.00
00036             182.00     3800.00
00037             246.00     4000.00
00038              62.00     4000.00
00039              30.00     4400.00
00040            -254.00     4400.00
00041             104.00     4400.00
00042             246.00     4800.00
00043            -148.00     5000.00
00044            -128.00     5000.00
00045             -66.00     5600.00
00046             142.00     5600.00
00047              80.00     5600.00
00048             -30.00     6200.00
00049            -146.00     6000.00
00050             -64.00     6400.00
00051             216.00     6600.00
00052             -50.00     6400.00
00053             -70.00     6800.00
00054             -38.00     7000.00
00055             -16.00     7200.00
00056              94.00     7200.00
00057             -24.00     7600.00
00058             -78.00     7400.00
00059             -16.00     7600.00
00060              54.00     8000.00
00061             -16.00     8000.00
00062              -6.00     8200.00
00063             -36.00     8400.00
00064             -38.00     8400.00
00065              30.00     8800.00
00066               0.00     8800.00
00067             -32.00     9000.00
00068             -14.00     9200.00
00069               6.00     9400.00
00070             -22.00     9400.00
00071              14.00     9600.00
00072             -38.00     9600.00
00073             -24.00     9600.00
00074              14.00     9800.00
00075             -10.00     9800.00
00076             -10.00    10000.00
00077             -16.00    10400.00
00078             -34.00    10400.00
00079             -24.00    10400.00
00080              18.00    10600.00
00081              -8.00    10600.00
00082             -14.00    10800.00
00083             -22.00    10800.00
00084             -40.00    11000.00
00085             -16.00    11000.00
00086               0.00    11200.00
00087             -14.00    11200.00
00088             -10.00    11400.00
00089             -14.00    11400.00
00090             -30.00    11400.00
00091             -16.00    11800.00
00092             -26.00    11800.00
00093             -32.00    11800.00
00094              -6.00    11800.00
00095              -8.00    12000.00
00096             -24.00    12000.00
00097             -26.00    12000.00
00098             -38.00    12000.00
00099             -30.00    12000.00
00100             -10.00    12200.00
00101             -10.00    12200.00
00102             -20.00    12200.00
00103             -28.00    12200.00
00104             -46.00    12200.00
00105             -34.00    12400.00
00106             -16.00    12400.00
00107             -16.00    12400.00
00108             -24.00    12200.00
00109             -32.00    12400.00
00110             -46.00    12400.00
00111             -32.00    12400.00
00112             -24.00    12200.00
00113             -32.00    12400.00
00114             -34.00    12400.00
00115             -32.00    12200.00
00116             -32.00    12400.00
00117             -30.00    12200.00
00118             -34.00    12400.00
00119             -42.00    12200.00
00120             -38.00    12200.00
00121             -34.00    12200.00
00122             -32.00    12200.00
00123             -32.00    12000.00
00124             -38.00    12200.00
00125             -48.00    12000.00
00126             -40.00    12200.00
00127             -28.00    12000.00
00128             -26.00    12000.00
00129             -32.00    12000.00
00130             -42.00    12000.00
00131             -42.00    12000.00
00132             -32.00    11800.00
00133             -30.00    11800.00
00134             -30.00    11600.00
00135             -28.00    11800.00
00136             -24.00    11400.00
00137             -28.00    11600.00
00138             -34.00    11400.00
00139             -34.00    11400.00
00140             -24.00    11200.00
00141             -12.00    11200.00
00142             -22.00    10800.00
00143             -34.00    10800.00
00144             -34.00    10800.00
00145             -24.00    10800.00
00146             -10.00    10600.00
00147              -8.00    10400.00
00148             -22.00    10400.00
00149             -32.00    10400.00
00150             -26.00    10200.00
00151             -18.00    10000.00
00152              -8.00     9800.00
00153             -14.00     9800.00
00154             -24.00     9800.00
00155             -18.00     9600.00
00156             -14.00     9400.00
00157              -8.00     9200.00
00158             -14.00     9200.00
00159             -22.00     9000.00
00160             -18.00     9000.00
00161              -6.00     8800.00
00162              -6.00     8600.00
00163             -16.00     8400.00
00164             -16.00     8400.00
00165             -16.00     8200.00
00166             -10.00     8000.00
00167              -8.00     8000.00
00168             -10.00     7600.00
00169             -14.00     7600.00
00170             -10.00     7400.00
00171             -16.00     7400.00
00172             -10.00     7000.00
00173             -10.00     6800.00
00174             -10.00     6800.00
00175              -8.00     6600.00
00176             -10.00     6400.00
00177             -16.00     6400.00
00178             -10.00     6000.00
00179             -10.00     5800.00
00180              -6.00     5800.00
00181              -8.00     5600.00
00182              -8.00     5400.00
00183             -10.00     5200.00
00184             -10.00     5000.00
00185             -14.00     4800.00
00186             -10.00     4600.00
00187              -4.00     4400.00
00188              -4.00     4200.00
00189              -6.00     4000.00
00190             -10.00     4000.00
00191             -16.00     3600.00
00192             -10.00     3600.00
00193              -6.00     3400.00
00194               0.00     3200.00
00195              -2.00     2800.00
00196             -10.00     2800.00
00197             -12.00     2600.00
00198              -6.00     2400.00
00199              -4.00     2200.00
00200              -2.00     2000.00
00201              -4.00     1800.00
00202              -6.00     1600.00
00203              -6.00     1200.00
00204             -10.00     1200.00
00205             -10.00     1000.00
00206              -4.00      800.00
00207               0.00      800.00
00208               0.00      400.00
00209              -2.00      200.00
00210              -2.00        0.00
00211               8.00        0.00
00212              32.00     -400.00
00213              16.00     -400.00
00214             -16.00     -600.00
00215             -22.00     -800.00
00216               6.00    -1000.00
00217              24.00    -1200.00
00218              42.00    -1400.00
00219             198.00    -1400.00
00220             246.00    -2000.00
00221            -232.00    -2400.00
00222            -254.00    -2400.00
00223            -192.00    -2600.00
00224             224.00    -2800.00
00225             246.00    -2600.00
00226             246.00    -3000.00
00227            -254.00    -3200.00
00228            -254.00    -3200.00
00229             246.00    -3800.00
00230             186.00    -3600.00
00231              22.00    -3800.00
00232            -152.00    -4400.00
00233            -144.00    -4000.00
00234             222.00    -4600.00
00235              76.00    -4600.00
00236            -122.00    -5000.00
00237            -160.00    -5200.00
00238              48.00    -5000.00
00239             218.00    -5600.00
00240             -30.00    -5400.00
00241             -88.00    -6000.00
00242            -112.00    -6000.00
00243              58.00    -6000.00
00244             160.00    -6600.00
00245             -42.00    -6400.00
00246             -68.00    -6800.00
00247             -40.00    -6800.00
00248              62.00    -7000.00
00249              32.00    -7400.00
00250             -32.00    -7200.00
00251             -10.00    -7600.00
00252              -2.00    -7400.00
00253              48.00    -7800.00
00254              -4.00    -7800.00
00255             -30.00    -8000.00
00256              16.00    -8400.00
00257               8.00    -8400.00
00258               2.00    -8600.00
00259              -2.00    -8600.00
00260               6.00    -8800.00
00261              16.00    -9000.00
00262              10.00    -9000.00
00263              -2.00    -9400.00
00264              -6.00    -9200.00
00265              16.00    -9400.00
00266              16.00    -9400.00
00267               6.00    -9600.00
00268              10.00    -9600.00
00269              -2.00   -10000.00
00270               6.00   -10000.00
00271               6.00   -10200.00
00272               6.00   -10200.00
00273              24.00   -10400.00
00274              24.00   -10400.00
00275               6.00   -10600.00
00276              -4.00   -10800.00
00277               2.00   -10800.00
00278              10.00   -10800.00
00279              18.00   -11000.00
00280              14.00   -11000.00
00281              10.00   -11000.00
00282              20.00   -11200.00
00283              22.00   -11200.00
00284              10.00   -11200.00
00285               6.00   -11200.00
00286               6.00   -11200.00
00287              16.00   -11400.00
00288              30.00   -11600.00
00289              22.00   -11600.00
00290              14.00   -11600.00
00291               8.00   -11600.00
00292              10.00   -11800.00
00293              18.00   -11800.00
00294              32.00   -11800.00
00295              30.00   -11800.00
00296              16.00   -12000.00
00297              12.00   -12000.00
00298               6.00   -12000.00
00299              22.00   -11800.00
00300              34.00   -11800.00
00301              32.00   -12000.00
00302              22.00   -12000.00
00303              14.00   -12000.00
00304              10.00   -12000.00
00305              26.00   -12000.00
00306              36.00   -12000.00
00307              32.00   -12000.00
00308              24.00   -12000.00
00309              24.00   -11800.00
00310              22.00   -12000.00
00311              26.00   -12000.00
00312              32.00   -11800.00
00313              30.00   -11800.00
00314              32.00   -12000.00
00315              30.00   -11800.00
00316              26.00   -11800.00
00317              26.00   -11800.00
00318              26.00   -11600.00
00319              30.00   -11600.00
00320              30.00   -11800.00
00321              30.00   -11600.00
00322              24.00   -11600.00
00323              24.00   -11600.00
00324              24.00   -11400.00
00325              24.00   -11400.00
00326              26.00   -11200.00
00327              26.00   -11200.00
00328              24.00   -11200.00
00329              16.00   -11000.00
00330              14.00   -11000.00
00331              22.00   -11000.00
00332              24.00   -10800.00
00333              22.00   -10800.00
00334              16.00   -10400.00
00335              14.00   -10400.00
00336              14.00   -10600.00
00337              10.00   -10400.00
00338              10.00   -10400.00
00339              16.00   -10000.00
00340              18.00   -10000.00
00341              16.00   -10000.00
00342               8.00    -9600.00
00343               0.00    -9600.00
00344               8.00    -9600.00
00345              12.00    -9400.00
00346              16.00    -9200.00
00347              16.00    -9200.00
00348               8.00    -9200.00
00349               6.00    -9200.00
00350               2.00    -8800.00
00351               0.00    -8600.00
00352              14.00    -8600.00
00353              18.00    -8400.00
00354              10.00    -8400.00
00355               0.00    -8000.00
00356              -2.00    -7800.00
00357               6.00    -7800.00
00358              10.00    -7600.00
00359               6.00    -7400.00
00360               2.00    -7200.00
00361               8.00    -7200.00
00362               2.00    -7000.00
00363               2.00    -7000.00
00364               6.00    -6800.00
00365               2.00    -6600.00
00366               2.00    -6400.00
00367               6.00    -6200.00
00368               2.00    -6000.00
00369               2.00    -6000.00
00370              -2.00    -5600.00
00371               0.00    -5600.00
00372               0.00    -5400.00
00373              -2.00    -5200.00
00374               0.00    -5000.00
00375               6.00    -4800.00
00376               2.00    -4600.00
00377              -2.00    -4400.00
00378              -6.00    -4200.00
00379               0.00    -4000.00
00380               2.00    -3800.00
00381               6.00    -3800.00
00382               0.00    -3600.00
00383              -6.00    -3200.00
00384              -6.00    -3200.00
00385              -4.00    -3000.00
00386               2.00    -2800.00
00387               2.00    -2400.00
00388               0.00    -2400.00
00389              -2.00    -2200.00
00390              -4.00    -2000.00
00391              -6.00    -2000.00
00392              -2.00    -1600.00
00393               0.00    -1400.00
00394               6.00    -1200.00
00395              -2.00    -1000.00
00396              -8.00     -800.00
00397              -6.00     -600.00
00398               2.00     -600.00
00399               2.00     -400.00
00400               0.00        0.00
00401              -6.00      200.00
00402               2.00      400.00
00403              14.00      400.00
00404              38.00      800.00
00405              14.00      800.00
00406             -16.00     1200.00
00407             -18.00     1200.00
00408              10.00     1400.00
00409              32.00     1600.00
00410             172.00     1800.00
00411             246.00     2400.00
00412            -136.00     2400.00
00413            -254.00     2400.00
00414            -254.00     2800.00
00415             134.00     2800.00
00416             246.00     3200.00
00417             246.00     3400.00
00418            -254.00     3200.00
00419            -254.00     3600.00
00420             246.00     3800.00
00421             136.00     4000.00
00422             110.00     4200.00
00423            -210.00     4400.00
00424            -254.00     4400.00
00425             246.00     4600.00
00426              64.00     5000.00
00427            -176.00     5200.00
00428            -106.00     5400.00
00429              24.00     5600.00
00430             158.00     5600.00
00431               8.00     5600.00
00432             -60.00     6200.00
00433            -186.00     6000.00
00434             114.00     6600.00
00435             128.00     6400.00
00436            -112.00     6600.00
00437             -14.00     6800.00
00438             -64.00     6800.00
00439              48.00     7200.00
00440              46.00     7200.00
00441             -58.00     8000.00
00442             -48.00     7600.00
00443              38.00     7800.00
00444              16.00     8000.00
00445             -42.00     8000.00
00446              -2.00     8400.00
00447             -46.00     8400.00
00448              14.00     8800.00
00449              18.00     8800.00
00450             -34.00     8800.00
00451             -40.00     9200.00
00452              14.00     9200.00
00453              -6.00     9200.00
00454               0.00     9400.00
00455              -6.00     9600.00
00456             -58.00     9600.00
00457               0.00     9800.00
00458               2.00    10000.00
00459             -10.00    10000.00
00460              -6.00    10400.00
00461             -22.00    10400.00
00462             -44.00    10400.00
00463               0.00    10400.00
00464              12.00    10600.00
00465             -16.00    10600.00
00466             -14.00    10800.00
00467             -40.00    10800.00
00468             -30.00    11000.00
00469               2.00    11200.00
00470              -8.00    11200.00
00471             -22.00    11200.00
00472             -14.00    11600.00
00473             -24.00    11400.00
00474             -16.00    11400.00
00475             -10.00    11800.00
00476             -34.00    11800.00
00477             -24.00    11800.00
00478              -2.00    11800.00
00479             -18.00    11800.00
00480             -22.00    12000.00
00481             -22.00    12000.00
00482             -34.00    12200.00
00483             -18.00    12000.00
00484             -16.00    12200.00
00485             -24.00    12200.00
00486             -18.00    12200.00
00487             -26.00    12400.00
00488             -40.00    12200.00
00489             -26.00    12400.00
00490             -24.00    12200.00
00491             -22.00    12400.00
00492             -18.00    12200.00
00493             -30.00    12400.00
00494             -34.00    12200.00
00495             -32.00    12400.00
00496             -34.00    12400.00
00497             -30.00    12400.00
00498             -22.00    12200.00
00499             -32.00    12400.00
00500             -38.00    12200.00
00501             -42.00    12400.00
00502             -42.00    12200.00
00503             -32.00    12400.00
00504             -26.00    12200.00
00505             -34.00    12200.00
00506             -38.00    12400.00
00507             -40.00    12200.00
00508             -44.00    12000.00
00509             -40.00    12200.00
00510             -34.00    12000.00
00511             -32.00    12000.00
00512             -32.00    12000.00
00513             -34.00    11800.00
00514             -40.00    12000.00
00515             -40.00    11800.00
00516             -34.00    11800.00
00517             -28.00    11600.00
00518             -26.00    11600.00
00519             -30.00    11800.00
00520             -34.00    11400.00
00521             -32.00    11600.00
00522             -32.00    11400.00
00523             -26.00    11200.00
00524             -20.00    11200.00
00525             -24.00    11200.00
00526             -26.00    11000.00
00527             -22.00    10800.00
00528             -26.00    10600.00
00529             -26.00    10800.00
00530             -22.00    10600.00
00531             -16.00    10400.00
00532             -16.00    10400.00
00533             -16.00    10200.00
00534             -26.00    10200.00
00535             -26.00    10000.00
00536             -16.00    10000.00
00537             -14.00     9800.00
00538             -10.00     9600.00
00539             -14.00     9600.00
00540             -18.00     9400.00
00541             -18.00     9200.00
00542             -18.00     9200.00
00543             -16.00     9000.00
00544              -6.00     8800.00
00545              -8.00     8600.00
00546             -14.00     8600.00
00547             -16.00     8400.00
00548             -16.00     8200.00
00549             -14.00     8200.00
00550             -10.00     8000.00
00551             -10.00     7800.00
00552              -8.00     7600.00
00553              -8.00     7400.00
00554             -10.00     7400.00
00555             -16.00     7200.00
00556             -10.00     7200.00
00557             -10.00     6800.00
00558              -6.00     6800.00
00559              -6.00     6400.00
00560             -10.00     6400.00
00561             -14.00     6400.00
00562             -14.00     6000.00
00563             -10.00     6000.00
00564              -2.00     5600.00
00565              -2.00     5200.00
00566             -10.00     5400.00
00567             -16.00     5000.00
00568             -14.00     5000.00
00569              -8.00     4800.00
00570              -2.00     4600.00
00571              -2.00     4400.00
00572              -8.00     4200.00
00573              -8.00     4000.00
00574              -8.00     3600.00
00575              -8.00     3600.00
00576              -8.00     3400.00
00577              -8.00     3200.00
00578              -6.00     3000.00
00579              -6.00     3000.00
00580              -8.00     2600.00
00581             -10.00     2600.00
00582             -10.00     2400.00
00583              -6.00     2000.00
00584              -2.00     1800.00
00585              -2.00     1800.00
00586              -4.00     1600.00
00587             -10.00     1200.00
00588              -8.00     1200.00
00589              -2.00     1000.00
00590              -2.00      800.00
00591               0.00      400.00
00592              -2.00      400.00
00593              -2.00        0.00
00594               4.00        0.00
00595              20.00        0.00
00596              30.00     -400.00
00597               0.00     -600.00
00598             -24.00     -800.00
00599             -10.00    -1000.00
00600              16.00    -1200.00
00601              26.00    -1200.00
00602              98.00    -1400.00
00603             246.00    -1600.00
00604              88.00    -2400.00
00605            -254.00    -2200.00
00606            -254.00    -2400.00
00607              64.00    -2600.00
00608             246.00    -2600.00
00609             246.00    -2800.00
00610             110.00    -3200.00
00611            -254.00    -3200.00
00612             -26.00    -3600.00
00613             246.00    -3800.00
00614              50.00    -3600.00
00615             -24.00    -4400.00
00616            -224.00    -4200.00
00617              48.00    -4400.00
00618             210.00    -4800.00
00619             -46.00    -4600.00
00620            -144.00    -5200.00
00621            -106.00    -5000.00
00622             190.00    -5400.00
00623             112.00    -5400.00
00624             -80.00    -5600.00
00625             -90.00    -6200.00
00626             -66.00    -5800.00
00627             158.00    -6400.00
00628              64.00    -6400.00
00629             -80.00    -6400.00
00630             -56.00    -6800.00
00631               8.00    -6800.00
00632              74.00    -7000.00
00633             -16.00    -7200.00
00634             -24.00    -7200.00
00635             -10.00    -7600.00
00636              26.00    -7600.00
00637              40.00    -8000.00
00638             -38.00    -7800.00
00639              -6.00    -8400.00
00640              16.00    -8400.00
00641               8.00    -8400.00
00642               0.00    -8600.00
00643              -6.00    -8600.00
00644               8.00    -9000.00
00645              16.00    -9000.00
00646              14.00    -9000.00
00647              -8.00    -9200.00
00648              -2.00    -9200.00
00649              14.00    -9600.00
00650               8.00    -9600.00
00651              14.00    -9600.00
00652               8.00   -10000.00
00653              -6.00   -10000.00
00654               6.00   -10000.00
00655               6.00   -10200.00
00656              16.00   -10200.00
00657              28.00   -10400.00
00658               8.00   -10400.00
00659              -4.00   -10600.00
00660               2.00   -10600.00
00661               8.00   -10800.00
00662              10.00   -10800.00
00663              22.00   -11000.00
00664              14.00   -10800.00
00665              16.00   -11200.00
00666              16.00   -11200.00
00667              -8.00   -11200.00
00668               6.00   -11200.00
00669              32.00   -11200.00
00670              26.00   -11600.00
00671              16.00   -11400.00
00672               2.00   -11600.00
00673               4.00   -11600.00
00674              34.00   -11600.00
00675              30.00   -11600.00
00676               0.00   -11800.00
00677               6.00   -11800.00
00678              26.00   -11800.00
00679              38.00   -11800.00
00680              30.00   -11800.00
00681               0.00   -11800.00
00682              -2.00   -11800.00
00683              32.00   -12000.00
00684              42.00   -11800.00
00685              38.00   -11800.00
00686              22.00   -11800.00
00687               2.00   -12000.00
00688              14.00   -12000.00
00689              34.00   -11800.00
00690              32.00   -12000.00
00691              32.00   -11800.00
00692              28.00   -12000.00
00693              26.00   -12000.00
00694              24.00   -11800.00
00695              22.00   -12000.00
00696              22.00   -11800.00
00697              42.00   -12000.00
00698              48.00   -11800.00
00699              26.00   -12000.00
00700              10.00   -11800.00
00701              10.00   -11600.00
00702              34.00   -11800.00
00703              54.00   -11600.00
00704              38.00   -11600.00
00705              10.00   -11600.00
00706              10.00   -11600.00
00707              22.00   -11600.00
00708              32.00   -11600.00
00709              34.00   -11400.00
00710              28.00   -11200.00
00711              14.00   -11200.00
00712              16.00   -11200.00
00713              16.00   -11000.00
00714              26.00   -11000.00
00715              24.00   -10800.00
00716              18.00   -10800.00
00717              12.00   -10800.00
00718              16.00   -10800.00
00719              18.00   -10400.00
00720              16.00   -10400.00
00721              10.00   -10200.00
00722              10.00   -10200.00
00723              18.00   -10000.00
00724              22.00   -10000.00
00725              14.00    -9800.00
00726               2.00    -9800.00
00727               6.00    -9600.00
00728              10.00    -9600.00
00729              16.00    -9400.00
00730              16.00    -9200.00
00731              10.00    -9200.00
00732               6.00    -9000.00
00733               6.00    -9000.00
00734               6.00    -8800.00
00735               8.00    -8600.00
00736              14.00    -8400.00
00737               8.00    -8400.00
00738               8.00    -8000.00
00739               8.00    -8000.00
00740               6.00    -7800.00
00741               2.00    -7800.00
00742               2.00    -7400.00
00743               8.00    -7200.00
00744              16.00    -7200.00
00745               6.00    -7000.00
00746              -2.00    -7000.00
00747               0.00    -6800.00
00748               2.00    -6800.00
00749               8.00    -6400.00
00750               6.00    -6200.00
00751               2.00    -6200.00
00752               2.00    -6000.00
00753               4.00    -5600.00
00754               0.00    -5600.00
00755               0.00    -5400.00
00756               4.00    -5200.00
00757               6.00    -5200.00
00758               6.00    -4800.00
00759               0.00    -4800.00
00760              -2.00    -4600.00
00761               0.00    -4400.00
00762               2.00    -4200.00
00763               0.00    -4000.00
00764               2.00    -3800.00
00765               0.00    -3600.00
00766              -2.00    -3400.00
00767              -2.00    -3200.00
00768              -4.00    -3000.00
00769              -2.00    -2800.00
00770               0.00    -2800.00
00771               0.00    -2400.00
00772               0.00    -2400.00
00773               0.00    -2200.00
00774              -6.00    -2000.00
00775              -6.00    -1600.00
00776               0.00    -1400.00
00777               4.00    -1400.00
00778               0.00    -1000.00
00779              -2.00     -800.00
00780              -8.00     -800.00
00781              -8.00     -400.00
00782              -2.00     -400.00
00783               2.00        0.00
00784               0.00      200.00
00785               0.00      200.00
00786               0.00      400.00
00787              24.00      800.00
00788              32.00      800.00
00789               2.00     1000.00
00790             -24.00     1200.00
00791              -8.00     1400.00
00792              18.00     1600.00
00793              70.00     1800.00
00794             246.00     2000.00
00795             226.00     2400.00
00796            -254.00     2400.00
00797            -254.00     2400.00
00798             -96.00     2600.00
00799             246.00     2800.00
00800             246.00     3200.00
00801             -12.00     3400.00
00802            -254.00     3200.00
00803             114.00     3800.00
00804             246.00     4000.00
00805              58.00     4200.00
00806              58.00     4400.00
00807            -254.00     4400.00
00808              60.00     4600.00
00809             246.00     4800.00
00810            -130.00     5000.00
00811            -132.00     5000.00
00812             -74.00     5600.00
00813             136.00     5600.00
00814              96.00     5400.00
00815             -24.00     6400.00
00816            -142.00     6000.00
00817             -98.00     6200.00
00818             214.00     6600.00
00819             -18.00     6400.00
00820             -62.00     6800.00
00821             -28.00     7000.00
00822             -34.00     7200.00
00823              78.00     7400.00
00824             -16.00     7600.00
00825             -64.00     7600.00
00826             -16.00     7600.00
00827              50.00     8000.00
00828             -26.00     8000.00
00829             -14.00     8200.00
00830             -18.00     8400.00
00831             -26.00     8400.00
00832              30.00     8800.00
00833             -10.00     8800.00
00834             -42.00     8800.00
00835             -16.00     9200.00
00836              16.00     9200.00
00837             -16.00     9400.00
00838              10.00     9600.00
00839             -42.00     9600.00
00840             -34.00     9600.00
00841              16.00    10000.00
00842              -4.00     9800.00
00843              -8.00    10000.00
00844             -18.00    10400.00
00845             -46.00    10200.00
00846             -30.00    10400.00
00847              20.00    10600.00
00848              -2.00    10600.00
00849             -14.00    10800.00
00850             -24.00    10800.00
00851             -40.00    10800.00
00852             -14.00    11200.00
00853               0.00    11200.00
00854             -18.00    11200.00
00855             -16.00    11400.00
00856             -16.00    11400.00
00857             -32.00    11600.00
00858             -16.00    11800.00
00859             -26.00    11800.00
00860             -26.00    11600.00
00861              -6.00    11800.00
00862             -14.00    12000.00
00863             -28.00    12000.00
00864             -24.00    12000.00
00865             -26.00    12200.00
00866             -28.00    12200.00
00867             -16.00    12000.00
00868             -18.00    12200.00
00869             -18.00    12200.00
00870             -24.00    12200.00
00871             -38.00    12200.00
00872             -32.00    12200.00
00873             -20.00    12200.00
00874             -24.00    12200.00
00875             -24.00    12200.00
00876             -26.00    12400.00
00877             -32.00    12400.00
00878             -34.00    12200.00
00879             -32.00    12400.00
00880             -30.00    12400.00
00881             -24.00    12400.00
00882             -26.00    12400.00
00883             -34.00    12400.00
00884             -42.00    12400.00
00885             -40.00    12200.00
00886             -34.00    12400.00
00887             -26.00    12200.00
00888             -32.00    12200.00
00889             -34.00    12400.00
00890             -38.00    12200.00
00891             -42.00    12000.00
00892             -42.00    12200.00
00893             -38.00    12000.00
00894             -32.00    12000.00
00895             -32.00    12000.00
00896             -34.00    12000.00
00897             -36.00    12000.00
00898             -40.00    11800.00
00899             -38.00    11800.00
00900             -32.00    11800.00
00901             -26.00    11600.00
00902             -22.00    11400.00
00903             -30.00    11600.00
00904             -34.00    11800.00
00905             -34.00    11400.00
00906             -30.00    11400.00
00907             -24.00    11200.00
00908             -18.00    11200.00
00909             -24.00    11000.00
00910             -26.00    10800.00
00911             -28.00    10800.00
00912             -26.00    10800.00
00913             -22.00    10600.00
00914             -16.00    10400.00
00915             -16.00    10400.00
00916             -18.00    10400.00
00917             -22.00    10200.00
00918             -24.00    10000.00
00919             -22.00    10000.00
00920             -18.00     9800.00
00921             -14.00     9800.00
00922             -10.00     9600.00
00923             -16.00     9400.00
00924             -24.00     9200.00
00925             -22.00     9200.00
00926             -16.00     9000.00
00927              -8.00     9000.00
00928              -8.00     8800.00
00929             -14.00     8600.00
00930             -16.00     8400.00
00931             -14.00     8400.00
00932             -14.00     8400.00
00933             -10.00     8000.00
00934             -10.00     8000.00
00935              -8.00     7800.00
00936             -10.00     7600.00
00937             -14.00     7400.00
00938             -16.00     7400.00
00939             -10.00     7000.00
00940             -10.00     7000.00
00941              -6.00     6800.00
00942             -10.00     6600.00
00943              -8.00     6600.00
00944             -10.00     6400.00
00945             -10.00     6000.00
00946             -10.00     5800.00
00947              -6.00     5800.00
00948              -2.00     5600.00
00949              -2.00     5200.00
00950             -14.00     5400.00
00951             -14.00     5000.00
00952             -10.00     4800.00
00953              -6.00     4600.00
00954              -6.00     4400.00
00955              -4.00     4200.00
00956              -8.00     4000.00
00957             -10.00     3800.00
00958             -10.00     3600.00
00959             -10.00     3600.00
00960              -6.00     3200.00
00961              -4.00     3200.00
00962              -8.00     3000.00
00963              -4.00     2800.00
00964              -8.00     2600.00
00965             -10.00     2400.00
00966             -10.00     2000.00
00967              -6.00     2000.00
00968              -2.00     1600.00
00969              -2.00     1600.00
00970              -6.00     1600.00
00971             -10.00     1200.00
00972             -10.00     1000.00
00973              -8.00      800.00
00974               0.00      600.00
00975               0.00      400.00
00976              -2.00      400.00
00977               0.00        0.00
00978               0.00        0.00
00979              28.00     -400.00
00980              22.00     -600.00
00981             -14.00     -600.00
00982             -24.00     -800.00
00983              -2.00     -800.00
00984              18.00    -1200.00
00985              48.00    -1400.00
00986             186.00    -1600.00
00987             246.00    -2000.00
00988            -202.00    -2200.00
00989            -254.00    -2400.00
00990            -222.00    -2600.00
00991             214.00    -2800.00
00992             246.00    -2600.00
00993             246.00    -3000.00
00994            -254.00    -3400.00
00995            -254.00    -3200.00
00996             246.00    -3800.00
00997             210.00    -3600.00
00998              24.00    -3800.00
00999            -136.00    -4200.00
01000            -166.00    -4000.00
01001             206.00    -4800.00
01002              96.00    -4600.00
01003            -112.00    -4800.00
01004            -162.00    -5000.00
01005              24.00    -5200.00
01006             228.00    -5400.00
01007             -14.00    -5200.00
01008             -82.00    -6000.00
01009            -112.00    -6000.00
01010              46.00    -6000.00
01011             166.00    -6600.00
01012             -40.00    -6400.00
01013             -70.00    -6800.00
01014             -42.00    -6800.00
01015              62.00    -6800.00
01016              42.00    -7200.00
01017             -32.00    -7200.00
01018             -14.00    -7400.00
01019              -2.00    -7600.00
01020              50.00    -7800.00
01021               0.00    -8000.00
01022             -34.00    -8000.00
01023              12.00    -8400.00
01024              14.00    -8400.00
01025               8.00    -8600.00
01026              -4.00    -8600.00
01027              -2.00    -8800.00
01028              10.00    -8800.00
01029              14.00    -9200.00
01030               4.00    -9200.00
01031              -8.00    -9400.00
01032               8.00    -9400.00
01033              14.00    -9600.00
01034               2.00    -9600.00
01035              14.00   -10000.00
01036               0.00   -10000.00
01037               2.00   -10000.00
01038              10.00   -10000.00
01039               6.00   -10200.00
01040              22.00   -10200.00
01041              18.00   -10400.00
01042               0.00   -10600.00
01043              -2.00   -10600.00
01044               6.00   -10800.00
01045              10.00   -10800.00
01046              20.00   -11000.00
01047              18.00   -11000.00
01048              10.00   -11000.00
01049              10.00   -11000.00
01050               6.00   -11200.00
01051               6.00   -11200.00
01052              22.00   -11200.00
01053              20.00   -11400.00
01054              16.00   -11600.00
01055              16.00   -11400.00
01056               6.00   -11800.00
01057               8.00   -11600.00
01058              16.00   -11800.00
01059              22.00   -11600.00
01060              30.00   -11800.00
01061              26.00   -11600.00
01062              14.00   -12000.00
01063              12.00   -11800.00
01064              18.00   -11800.00
01065              18.00   -11800.00
01066              26.00   -12000.00
01067              30.00   -12000.00
01068              26.00   -12000.00
01069              24.00   -12000.00
01070              16.00   -12000.00
01071              16.00   -12000.00
01072              32.00   -11800.00
01073              38.00   -12000.00
01074              32.00   -12000.00
01075              18.00   -11800.00
01076              20.00   -12000.00
01077              26.00   -12000.00
01078              34.00   -11800.00
01079              34.00   -11800.00
01080              34.00   -12000.00
01081              32.00   -11800.00
01082              26.00   -11800.00
01083              22.00   -11800.00
01084              30.00   -11800.00
01085              32.00   -11800.00
01086              32.00   -11800.00
01087              28.00   -11600.00
01088              26.00   -11600.00
01089              22.00   -11600.00
01090              24.00   -11600.00
01091              24.00   -11600.00
01092              22.00   -11600.00
01093              32.00   -11200.00
01094              30.00   -11200.00
01095              20.00   -11200.00
01096              16.00   -11200.00
01097              14.00   -11000.00
01098              24.00   -11000.00
01099              30.00   -10800.00
01100              16.00   -10800.00
01101               8.00   -10800.00
01102              18.00   -10400.00
01103              16.00   -10600.00
01104              14.00   -10400.00
01105              10.00   -10200.00
01106              10.00   -10200.00
01107              18.00   -10000.00
01108              16.00   -10000.00
01109               8.00   -10000.00
01110               8.00    -9600.00
01111               8.00    -9600.00
01112               8.00    -9400.00
01113              14.00    -9400.00
01114              16.00    -9200.00
01115              10.00    -9200.00
01116               8.00    -9000.00
01117               2.00    -8800.00
01118               0.00    -8800.00
01119               8.00    -8400.00
01120              10.00    -8400.00
01121              14.00    -8200.00
01122               8.00    -8200.00
01123               0.00    -8000.00
01124               0.00    -7800.00
01125               8.00    -7600.00
01126              10.00    -7400.00
01127              10.00    -7400.00
01128               2.00    -7200.00
01129              -2.00    -7200.00
01130               6.00    -7000.00
01131              10.00    -6800.00
01132               2.00    -6600.00
01133              -2.00    -6400.00
01134               0.00    -6200.00
01135              10.00    -6200.00
01136              10.00    -6000.00
01137              -2.00    -5600.00
01138              -8.00    -5600.00
01139               0.00    -5200.00
01140              10.00    -5200.00
01141               8.00    -5000.00
01142               0.00    -4800.00
01143               0.00    -4600.00
01144               0.00    -4400.00
01145              -2.00    -4400.00
01146               0.00    -4000.00
01147               6.00    -3800.00
01148               4.00    -3600.00
01149               0.00    -3600.00
01150              -4.00    -3200.00
01151              -6.00    -3200.00
01152               0.00    -3000.00
01153              -2.00    -2800.00
01154               0.00    -2600.00
01155               2.00    -2400.00
01156              -2.00    -2200.00
01157              -6.00    -2200.00
01158              -8.00    -1800.00
01159              -6.00    -1600.00
01160               6.00    -1400.00
01161               6.00    -1000.00
01162              -2.00    -1200.00
01163              -8.00     -800.00
01164             -10.00     -600.00
01165              -2.00     -400.00
01166               2.00     -200.00
01167               0.00        0.00
01168              -2.00      200.00
01169              -2.00      200.00
01170               6.00      600.00
01171              38.00      800.00
01172              24.00      800.00
01173             -20.00     1200.00
01174             -26.00     1200.00
01175               8.00     1600.00
01176              32.00     1600.00
01177             156.00     1800.00
01178             246.00     2200.00
01179             -88.00     2400.00
01180            -254.00     2400.00
01181            -254.00     2600.00
01182             106.00     2800.00
01183             246.00     3000.00
01184             246.00     3400.00
01185            -254.00     3200.00
01186            -254.00     3600.00
01187             246.00     4000.00
01188             152.00     4000.00
01189             106.00     4200.00
01190            -166.00     4400.00
01191            -254.00     4400.00
01192             246.00     4400.00
01193              86.00     5000.00
01194            -188.00     5000.00
01195            -114.00     5400.00
01196              20.00     5600.00
01197             176.00     5600.00
01198              24.00     5800.00
01199             -64.00     6200.00
01200            -210.00     6000.00
01201              80.00     6600.00
01202             166.00     6800.00
01203             -76.00     6600.00
01204              -6.00     7000.00
01205             -86.00     7000.00
01206              10.00     7200.00
01207              50.00     7200.00
01208             -34.00     7600.00
01209             -32.00     7600.00
01210              32.00     7800.00
01211               8.00     8000.00
01212             -48.00     8200.00
01213              10.00     8400.00
01214             -32.00     8400.00
01215               6.00     8800.00
01216               8.00     8800.00
01217             -40.00     8800.00
01218             -34.00     9000.00
01219              18.00     9200.00
01220              -2.00     9200.00
01221              -6.00     9600.00
01222               0.00     9600.00
01223             -56.00     9600.00
01224              -2.00     9800.00
01225               0.00    10000.00
01226             -10.00    10000.00
01227              -2.00    10200.00
01228             -24.00    10400.00
01229             -46.00    10400.00
01230              -6.00    10400.00
01231               8.00    10600.00
01232             -12.00    10600.00
01233              -4.00    10800.00
01234             -34.00    10800.00
01235             -40.00    10800.00
01236             -10.00    11200.00
01237              -8.00    11200.00
01238             -14.00    11400.00
01239              -4.00    11400.00
01240             -30.00    11400.00
01241             -30.00    11400.00
01242             -16.00    11800.00
01243             -26.00    11600.00
01244             -14.00    11800.00
01245              -8.00    11800.00
01246             -22.00    12000.00
01247             -30.00    12000.00
01248             -24.00    12000.00
01249             -34.00    12000.00
01250             -22.00    12000.00
01251             -10.00    12200.00
01252             -18.00    12200.00
01253             -24.00    12400.00
01254             -30.00    12200.00
01255             -40.00    12400.00
01256             -24.00    12200.00
01257             -22.00    12400.00
01258             -26.00    12400.00
01259             -24.00    12400.00
01260             -30.00    12400.00
01261             -38.00    12400.00
01262             -32.00    12400.00
01263             -30.00    12400.00
01264             -30.00    12400.00
01265             -24.00    12400.00
01266             -32.00    12400.00
01267             -40.00    12200.00
01268             -34.00    12400.00
01269             -38.00    12200.00
01270             -38.00    12400.00
01271             -30.00    12200.00
01272             -30.00    12200.00
01273             -30.00    12200.00
01274             -38.00    12200.00
01275             -48.00    12000.00
01276             -42.00    12000.00
01277             -26.00    12000.00
01278             -28.00    12000.00
01279             -30.00    12000.00
01280             -34.00    12000.00
01281             -42.00    12000.00
01282             -38.00    11800.00
01283             -34.00    11600.00
01284             -28.00    11800.00
01285             -18.00    11600.00
01286             -26.00    11400.00
01287             -34.00    11600.00
01288             -38.00    11200.00
01289             -34.00    11400.00
01290             -24.00    11200.00
01291             -14.00    11200.00
01292             -22.00    11000.00
01293             -26.00    11000.00
01294             -28.00    10800.00
01295             -26.00    10800.00
01296             -24.00    10600.00
01297             -18.00    10600.00
01298             -22.00    10400.00
01299             -18.00    10400.00
01300             -16.00    10200.00
01301             -22.00    10000.00
01302             -24.00    10000.00
01303             -24.00     9800.00
01304             -18.00     9800.00
01305             -10.00     9600.00
01306             -10.00     9600.00
01307             -18.00     9400.00
01308             -24.00     9200.00
01309             -18.00     9200.00
01310             -16.00     9000.00
01311             -14.00     8800.00
01312             -16.00     8800.00
01313             -10.00     8600.00
01314              -2.00     8400.00
01315             -10.00     8200.00
01316             -24.00     8000.00
01317             -26.00     8000.00
01318             -10.00     8000.00
01319              -2.00     7600.00
01320               0.00     7600.00
01321             -10.00     7400.00
01322             -20.00     7200.00
01323             -18.00     7000.00
01324             -14.00     6800.00
01325              -8.00     6800.00
01326              -2.00     6600.00
01327              -6.00     6400.00
01328             -16.00     6200.00
01329             -14.00     6000.00
01330              -8.00     6000.00
01331              -8.00     5600.00
01332              -6.00     5600.00
01333             -10.00     5400.00
01334             -10.00     5200.00
01335              -6.00     5000.00
01336              -8.00     5000.00
01337             -10.00     4600.00
01338              -2.00     4400.00
01339              -2.00     4200.00
01340              -4.00     4000.00
01341             -10.00     4000.00
01342             -14.00     3600.00
01343              -8.00     3400.00
01344               0.00     3200.00
01345              -6.00     3000.00
01346              -6.00     2800.00
01347             -12.00     2600.00
01348             -10.00     2400.00
01349              -8.00     2200.00
01350              -6.00     2000.00
01351              -2.00     1800.00
01352              -2.00     1600.00
01353             -10.00     1600.00
01354             -14.00     1200.00
01355              -8.00     1000.00
01356               0.00     1000.00
01357               0.00      800.00
01358              -2.00      400.00
01359              -8.00      400.00
01360               0.00      200.00
01361               2.00        0.00
01362              16.00     -400.00
01363              30.00     -400.00
01364               0.00     -600.00
01365             -26.00     -800.00
01366             -16.00    -1000.00
01367              14.00    -1000.00
01368              30.00    -1200.00
01369              88.00    -1600.00
01370             246.00    -1600.00
01371             114.00    -2200.00
01372            -254.00    -2200.00
01373            -254.00    -2600.00
01374              42.00    -2600.00
01375             246.00    -2400.00
01376             246.00    -2800.00
01377             154.00    -3200.00
01378            -254.00    -3200.00
01379             -80.00    -3200.00
01380             246.00    -3800.00
01381              64.00    -3600.00
01382             -18.00    -4200.00
01383            -232.00    -4400.00
01384              16.00    -4400.00
01385             226.00    -4800.00
01386             -30.00    -4600.00
01387            -144.00    -5200.00
01388            -122.00    -5000.00
01389             176.00    -5400.00
01390             130.00    -5400.00
01391             -82.00    -5400.00
01392             -92.00    -6000.00
01393             -74.00    -5800.00
01394             154.00    -6200.00
01395              78.00    -6400.00
01396             -82.00    -6400.00
01397             -56.00    -7000.00
01398               4.00    -6800.00
01399              80.00    -7200.00
01400             -12.00    -7000.00
01401             -22.00    -7400.00
01402              -8.00    -7600.00
01403              18.00    -7400.00
01404              40.00    -8000.00
01405             -32.00    -7800.00
01406             -10.00    -8400.00
01407              26.00    -8400.00
01408              10.00    -8400.00
01409               0.00    -8600.00
01410               0.00    -8800.00
01411              -6.00    -8800.00
01412               8.00    -9000.00
01413              16.00    -9200.00
01414               8.00    -9400.00
01415              10.00    -9400.00
01416              12.00    -9600.00
01417             -14.00    -9600.00
01418               0.00    -9600.00
01419              24.00    -9800.00
01420              16.00   -10000.00
01421              14.00   -10000.00
01422             -10.00   -10200.00
01423             -14.00   -10400.00
01424              26.00   -10400.00
01425              30.00   -10400.00
01426               8.00   -10800.00
01427              -2.00   -10800.00
01428              -8.00   -10800.00
01429              10.00   -11000.00
01430              32.00   -11000.00
01431              22.00   -11000.00
01432               6.00   -11200.00
01433               6.00   -11000.00
01434               0.00   -11200.00
01435              14.00   -11200.00
01436              26.00   -11400.00
01437              16.00   -11400.00
01438              22.00   -11600.00
01439              14.00   -11400.00
01440              -2.00   -11800.00
01441               8.00   -11800.00
01442              24.00   -11800.00
01443              26.00   -11600.00
01444              26.00   -11800.00
01445              16.00   -11800.00
01446               8.00   -11800.00
01447              20.00   -11800.00
01448              24.00   -11800.00
01449              16.00   -12000.00
01450              22.00   -11800.00
01451              24.00   -11800.00
01452              30.00   -12000.00
01453              32.00   -12000.00
01454              18.00   -12000.00
01455              12.00   -12000.00
01456              24.00   -12000.00
01457              34.00   -11800.00
01458              40.00   -12000.00
01459              32.00   -12000.00
01460              22.00   -12000.00
01461              14.00   -12000.00
01462              22.00   -11800.00
01463              34.00   -11800.00
01464              42.00   -11800.00
01465              40.00   -11800.00
01466              24.00   -11800.00
01467              18.00   -11800.00
01468              24.00   -11800.00
01469              26.00   -11600.00
01470              32.00   -11600.00
01471              40.00   -11800.00
01472              32.00   -11600.00
01473              24.00   -11600.00
01474              16.00   -11600.00
01475              10.00   -11400.00
01476              22.00   -11200.00
01477              38.00   -11200.00
01478              30.00   -11000.00
01479              22.00   -11200.00
01480              12.00   -11000.00
01481              10.00   -11000.00
01482              18.00   -10800.00
01483              24.00   -10800.00
01484              22.00   -10800.00
01485              22.00   -10600.00
01486               8.00   -10400.00
01487               2.00   -10400.00
01488              10.00   -10400.00
01489              16.00   -10200.00
01490              20.00   -10200.00
01491              18.00   -10000.00
01492               6.00   -10000.00
01493               2.00    -9800.00
01494               8.00    -9600.00
01495              10.00    -9600.00
01496              14.00    -9400.00
01497              14.00    -9400.00
01498               6.00    -9200.00
01499               2.00    -9200.00
01500               6.00    -8800.00
01501               8.00    -8600.00
01502              14.00    -8600.00
01503               8.00    -8600.00
01504               2.00    -8400.00
01505               0.00    -8000.00
01506               4.00    -8000.00
01507               8.00    -8000.00
01508               8.00    -7800.00
01509               6.00    -7600.00
01510               2.00    -7400.00
01511               2.00    -7200.00
01512               4.00    -7200.00
01513               6.00    -7000.00
01514               6.00    -7000.00
01515               2.00    -6600.00
01516               2.00    -6600.00
01517               4.00    -6400.00
01518               6.00    -6200.00
01519               2.00    -6000.00
01520               0.00    -5800.00
01521               0.00    -5600.00
01522               2.00    -5400.00
01523               2.00    -5200.00
01524               0.00    -5000.00
01525               2.00    -4800.00
01526               6.00    -4600.00
01527               0.00    -4600.00
01528              -6.00    -4400.00
01529              -2.00    -4000.00
01530               6.00    -4000.00
01531               8.00    -3800.00
01532               0.00    -3600.00
01533              -8.00    -3600.00
01534              -8.00    -3400.00
01535               2.00    -3000.00
01536               0.00    -2800.00
01537               6.00    -2800.00
01538               2.00    -2400.00
01539              -2.00    -2400.00
01540              -2.00    -2000.00
01541              -6.00    -2000.00
01542              -2.00    -1600.00
01543               2.00    -1600.00
01544               2.00    -1200.00
01545              -2.00    -1000.00
01546              -2.00     -800.00
01547              -6.00     -600.00
01548              -6.00     -600.00
01549              -6.00     -400.00
01550              -4.00        0.00
01551               0.00        0.00
01552               6.00      400.00
01553               0.00      400.00
01554              20.00      600.00
01555              32.00      800.00
01556               2.00     1000.00
01557             -26.00     1000.00
01558             -14.00     1400.00
01559              16.00     1400.00
01560              64.00     1800.00
01561             246.00     2000.00
01562             246.00     2400.00
01563            -254.00     2400.00
01564            -254.00     2600.00
01565            -126.00     2800.00
01566             246.00     2800.00
01567             246.00     3400.00
01568              80.00     3400.00
01569            -254.00     3200.00
01570              42.00     3800.00
01571             246.00     4000.00
01572              56.00     4200.00
01573              76.00     4400.00
01574            -254.00     4400.00
01575              14.00     4400.00
01576             246.00     4800.00
01577            -112.00     5000.00
01578            -144.00     5000.00
01579             -84.00     5600.00
01580             126.00     5600.00
01581             110.00     5600.00
01582             -14.00     6200.00
01583            -128.00     6200.00
01584            -122.00     6000.00
01585             206.00     6600.00
01586              -8.00     6400.00
01587             -66.00     6800.00
01588             -16.00     7000.00
01589             -42.00     7200.00
01590              74.00     7400.00
01591             -14.00     7600.00
01592             -64.00     7600.00
01593              -6.00     7600.00
01594              58.00     8000.00
01595             -30.00     8000.00
01596             -26.00     8200.00
01597             -16.00     8400.00
01598             -28.00     8400.00
01599              32.00     8800.00
01600              -8.00     8800.00
01601             -40.00     9000.00
01602             -14.00     9200.00
01603              16.00     9400.00
01604             -18.00     9400.00
01605               6.00     9600.00
01606             -38.00     9600.00
01607             -38.00     9600.00
01608              16.00    10000.00
01609              -6.00    10000.00
01610              -2.00    10200.00
01611             -18.00    10400.00
01612             -46.00    10400.00
01613             -26.00    10400.00
01614              22.00    10600.00
01615              -2.00    10600.00
01616             -18.00    10600.00
01617             -24.00    10800.00
01618             -34.00    10800.00
01619             -16.00    11000.00
01620              -6.00    11200.00
01621             -16.00    11200.00
01622             -16.00    11400.00
01623             -10.00    11400.00
01624             -30.00    11600.00
01625             -16.00    11600.00
01626             -26.00    11800.00
01627             -30.00    11600.00
01628             -14.00    11800.00
01629             -14.00    12000.00
01630             -24.00    11800.00
01631             -22.00    12000.00
01632             -26.00    12000.00
01633             -34.00    12200.00
01634             -16.00    12200.00
01635             -18.00    12000.00
01636             -22.00    12200.00
01637             -16.00    12200.00
01638             -32.00    12200.00
01639             -38.00    12200.00
01640             -26.00    12200.00
01641             -30.00    12400.00
01642             -22.00    12400.00
01643             -14.00    12400.00
01644             -32.00    12400.00
01645             -40.00    12200.00
01646             -34.00    12400.00
01647             -32.00    12400.00
01648             -18.00    12200.00
01649             -22.00    12400.00
01650             -34.00    12400.00
01651             -38.00    12200.00
01652             -40.00    12400.00
01653             -42.00    12200.00
01654             -30.00    12400.00
01655             -26.00    12200.00
01656             -30.00    12200.00
01657             -38.00    12400.00
01658             -48.00    12200.00
01659             -42.00    12200.00
01660             -34.00    12000.00
01661             -32.00    12000.00
01662             -34.00    12000.00
01663             -32.00    12000.00
01664             -32.00    12000.00
01665             -34.00    12000.00
01666             -40.00    12000.00
01667             -32.00    11800.00
01668             -26.00    11800.00
01669             -22.00    11600.00
01670             -26.00    11600.00
01671             -38.00    11600.00
01672             -34.00    11400.00
01673             -34.00    11400.00
01674             -22.00    11200.00
01675             -18.00    11200.00
01676             -24.00    10800.00
01677             -26.00    10800.00
01678             -28.00    10800.00
01679             -24.00    10800.00
01680             -20.00    10600.00
01681             -22.00    10600.00
01682             -24.00    10400.00
01683             -18.00    10400.00
01684             -24.00    10200.00
01685             -24.00    10000.00
01686             -22.00     9800.00
01687             -16.00     9800.00
01688             -16.00     9800.00
01689             -20.00     9600.00
01690             -16.00     9400.00
01691             -10.00     9600.00
01692             -10.00     9200.00
01693             -16.00     9200.00
01694             -28.00     9000.00
01695             -26.00     8800.00
01696              -8.00     8800.00
01697               0.00     8400.00
01698              -8.00     8400.00
01699             -26.00     8200.00
01700             -30.00     8000.00
01701             -10.00     8000.00
01702               6.00     7800.00
01703             -10.00     7600.00
01704             -14.00     7400.00
01705             -16.00     7200.00
01706             -10.00     7200.00
01707             -10.00     7000.00
01708             -16.00     6800.00
01709             -12.00     6800.00
01710              -4.00     6600.00
01711             -10.00     6400.00
01712             -10.00     6000.00
01713             -10.00     6000.00
01714              -8.00     5800.00
01715               0.00     5600.00
01716              -2.00     5400.00
01717             -14.00     5400.00
01718             -14.00     5200.00
01719             -16.00     4800.00
01720             -10.00     4600.00
01721               2.00     4400.00
01722               6.00     4200.00
01723             -10.00     4200.00
01724             -18.00     4000.00
01725             -16.00     3800.00
01726              -2.00     3400.00
01727               6.00     3600.00
01728              -2.00     3200.00
01729             -10.00     3200.00
01730              -8.00     2800.00
01731             -10.00     2600.00
01732             -10.00     2400.00
01733              -8.00     2400.00
01734              -2.00     2000.00
01735               4.00     1800.00
01736               0.00     1600.00
01737             -10.00     1200.00
01738             -10.00     1200.00
01739              -6.00     1200.00
01740               6.00      800.00
01741             -22.00      800.00
01742               0.00      600.00
01743              -6.00      200.00
01744              -6.00        0.00
01745             -14.00        0.00
01746               0.00     -400.00
01747              78.00     -400.00
01748              22.00     -600.00
01749               4.00     -800.00
01750             -42.00     -800.00
01751              10.00    -1200.00
01752              32.00    -1200.00
01753             154.00    -1600.00
01754             246.00    -2000.00
01755            -166.00    -2400.00
01756            -254.00    -2400.00
01757            -232.00    -2600.00
01758             214.00    -2800.00
01759             246.00    -2400.00
01760             246.00    -3000.00
01761            -254.00    -3400.00
01762            -254.00    -3200.00
01763             246.00    -3800.00
01764             222.00    -3800.00
01765               2.00    -3800.00
01766            -126.00    -4400.00
01767            -160.00    -4000.00
01768             232.00    -4600.00
01769             114.00    -4800.00
01770            -128.00    -4800.00
01771            -160.00    -5000.00
01772               6.00    -4800.00
01773             214.00    -5600.00
01774             -26.00    -5400.00
01775             -96.00    -6000.00
01776            -104.00    -6000.00
01777              48.00    -6000.00
01778             190.00    -6600.00
01779             -18.00    -6200.00
01780             -62.00    -6800.00
01781             -50.00    -6800.00
01782              44.00    -6800.00
01783              34.00    -7200.00
01784             -42.00    -7200.00
01785             -18.00    -7600.00
01786               2.00    -7400.00
01787              62.00    -7800.00
01788              24.00    -7800.00
01789             -24.00    -8000.00
01790               2.00    -8400.00
01791               6.00    -8400.00
01792               2.00    -8600.00
01793               0.00    -8800.00
01794             -10.00    -8800.00
01795               6.00    -8800.00
01796              24.00    -9000.00
01797              28.00    -9200.00
01798               4.00    -9400.00
01799               0.00    -9400.00
01800               2.00    -9600.00
01801               8.00    -9600.00
01802              16.00    -9800.00
01803              -4.00   -10000.00
01804              -6.00   -10000.00
01805               6.00   -10000.00
01806              16.00   -10000.00
01807              30.00   -10400.00
01808              22.00   -10400.00
01809               6.00   -10600.00
01810              -2.00   -10600.00
01811              -2.00   -10800.00
01812               6.00   -10800.00
01813              22.00   -11000.00
01814              18.00   -11000.00
01815               8.00   -11200.00
01816               6.00   -11000.00
01817              14.00   -11200.00
01818              14.00   -11200.00
01819              18.00   -11400.00
01820              14.00   -11400.00
01821              14.00   -11200.00
01822              18.00   -11600.00
01823               8.00   -11600.00
01824               8.00   -11600.00
01825              18.00   -11600.00
01826              24.00   -11600.00
01827              26.00   -11800.00
01828              18.00   -11600.00
01829              16.00   -12000.00
01830              16.00   -11800.00
01831              18.00   -11800.00
01832              16.00   -12000.00
01833              18.00   -12000.00
01834              30.00   -11800.00
01835              32.00   -12000.00
01836              30.00   -12000.00
01837              18.00   -12000.00
01838              14.00   -12000.00
01839              26.00   -12000.00
01840              30.00   -11800.00
01841              34.00   -12000.00
01842              30.00   -12000.00
01843              26.00   -11800.00
01844              24.00   -12000.00
01845              22.00   -12000.00
01846              30.00   -11800.00
01847              34.00   -12000.00
01848              38.00   -11800.00
01849              30.00   -11800.00
01850              26.00   -11800.00
01851              24.00   -11800.00
01852              24.00   -11600.00
01853              30.00   -11600.00
01854              42.00   -11600.00
01855              40.00   -11600.00
01856              26.00   -11600.00
01857              16.00   -11600.00
01858              16.00   -11400.00
01859              26.00   -11200.00
01860              34.00   -11200.00
01861              30.00   -11200.00
01862              22.00   -11200.00
01863              22.00   -11200.00
01864              16.00   -11000.00
01865              16.00   -11000.00
01866              16.00   -10800.00
01867              20.00   -10800.00
01868              22.00   -10600.00
01869              16.00   -10600.00
01870               8.00   -10400.00
01871              10.00   -10400.00
01872              16.00   -10200.00
01873              18.00   -10200.00
01874              14.00   -10000.00
01875              12.00   -10000.00
01876              12.00    -9800.00
01877               6.00    -9600.00
01878               2.00    -9600.00
01879              10.00    -9400.00
01880              16.00    -9400.00
01881              14.00    -9200.00
01882               8.00    -9200.00
01883               0.00    -9000.00
01884               4.00    -8800.00
01885               8.00    -8800.00
01886               8.00    -8600.00
01887               6.00    -8400.00
01888               6.00    -8400.00
01889               2.00    -8000.00
01890               6.00    -8000.00
01891               2.00    -7800.00
01892               2.00    -7800.00
01893               6.00    -7400.00
01894               6.00    -7400.00
01895               8.00    -7200.00
01896               4.00    -7000.00
01897               0.00    -7000.00
01898               0.00    -6800.00
01899               6.00    -6400.00
01900               6.00    -6400.00
01901               4.00    -6200.00
01902               2.00    -6000.00
01903              -2.00    -6000.00
01904               0.00    -5800.00
01905               0.00    -5600.00
01906               0.00    -5400.00
01907               4.00    -5200.00
01908               4.00    -5000.00
01909               2.00    -4800.00
01910               0.00    -4600.00
01911              -6.00    -4400.00
01912              -2.00    -4400.00
01913               6.00    -4000.00
01914               4.00    -3800.00
01915               4.00    -3800.00
01916              -2.00    -3600.00
01917              -2.00    -3200.00
01918               0.00    -3200.00
01919              -2.00    -3000.00
01920               0.00    -2800.00
01921               6.00    -2400.00
01922               0.00    -2400.00
01923               0.00    -2200.00
01924              -8.00    -2000.00
01925              -6.00    -1800.00
01926               2.00    -1600.00
01927               6.00    -1400.00
01928               0.00    -1200.00
01929               0.00    -1000.00
01930              -2.00     -800.00
01931              -2.00     -800.00
01932              -6.00     -400.00
01933              -8.00     -200.00
01934               0.00        0.00
01935               8.00      200.00
01936               4.00      200.00
01937               6.00      400.00
01938              30.00      600.00
01939              18.00     1000.00
01940             -14.00     1000.00
01941             -26.00     1200.00
01942               4.00     1200.00
01943              32.00     1600.00
01944             142.00     1800.00
01945             246.00     2400.00
01946             -48.00     2400.00
01947            -254.00     2400.00
01948            -254.00     2600.00
01949              86.00     2800.00
01950             246.00     3000.00
01951             246.00     3400.00
01952            -254.00     3200.00
01953            -254.00     3400.00
01954             246.00     4000.00
01955             194.00     4000.00
01956             110.00     4200.00
01957            -138.00     4400.00
01958            -254.00     4400.00
01959             246.00     4600.00
01960             128.00     5000.00
01961            -170.00     5200.00
01962            -106.00     5400.00
01963               0.00     5600.00
01964             154.00     5600.00
01965              16.00     5800.00
01966             -42.00     6200.00
01967            -178.00     5800.00
01968              74.00     6400.00
01969             158.00     6600.00
01970            -114.00     6400.00
01971             -14.00     6800.00
01972             -50.00     7000.00
01973              32.00     7200.00
01974              48.00     7400.00
01975             -56.00     7600.00
01976             -50.00     7600.00
01977              38.00     7800.00
01978              34.00     8200.00
01979             -50.00     8000.00
01980              -6.00     8400.00
01981             -46.00     8400.00
01982               6.00     8400.00
01983              32.00     8800.00
01984             -22.00     9000.00
01985             -42.00     9000.00
01986               4.00     9200.00
01987              -4.00     9200.00
01988              -2.00     9600.00
01989               8.00     9600.00
01990             -58.00     9600.00
01991             -10.00     9800.00
01992               8.00     9800.00
01993               0.00    10000.00
01994             -10.00    10400.00
01995             -26.00    10400.00
01996             -48.00    10400.00
01997              -4.00    10400.00
01998              24.00    10600.00
01999             -12.00    10800.00
02000             -20.00    10800.00
02001             -38.00    10800.00
02002             -40.00    10800.00
02003              -2.00    11200.00
02004               0.00    11200.00
02005             -18.00    11200.00
02006              -8.00    11400.00
02007             -22.00    11400.00
02008             -32.00    11400.00
02009             -16.00    11800.00
02010             -36.00    11800.00
02011             -18.00    11800.00
02012              10.00    12000.00
02013             -14.00    11800.00
02014             -38.00    12000.00
02015             -34.00    12000.00
02016             -40.00    12000.00
02017             -16.00    12000.00
02018               0.00    12200.00
02019             -24.00    12200.00
02020             -32.00    12200.00
02021             -34.00    12200.00
02022             -38.00    12400.00
02023             -16.00    12400.00
02024             -14.00    12400.00
02025             -32.00    12200.00
02026             -32.00    12400.00
02027             -36.00    12400.00
02028             -40.00    12400.00
02029             -26.00    12400.00
02030             -24.00    12400.00
02031             -26.00    12400.00
02032             -26.00    12400.00
02033             -40.00    12400.00
02034             -50.00    12400.00
02035             -38.00    12400.00
02036             -32.00    12200.00
02037             -24.00    12200.00
02038             -26.00    12200.00
02039             -42.00    12200.00
02040             -48.00    12400.00
02041             -38.00    12200.00
02042             -30.00    12200.00
02043             -28.00    12000.00
02044             -32.00    12200.00
02045             -46.00    12000.00
02046             -38.00    12000.00
02047             -28.00    12000.00
02048             -32.00    12000.00
02049             -32.00    12000.00
02050             -32.00    12000.00
02051             -32.00    11600.00
02052             -26.00    11800.00
02053             -26.00    11800.00
02054             -32.00    11600.00
02055             -30.00    11400.00
02056             -34.00    11400.00
02057             -32.00    11200.00
02058             -18.00    11200.00
02059             -10.00    11200.00
02060             -20.00    11200.00
02061             -26.00    10800.00
02062             -32.00    10800.00
02063             -30.00    10600.00
02064             -16.00    10600.00
02065             -16.00    10400.00
02066             -14.00    10400.00
02067             -14.00    10400.00
02068             -26.00    10200.00
02069             -34.00    10000.00
02070             -26.00     9800.00
02071             -10.00     9800.00
02072               2.00     9600.00
02073              -8.00     9600.00
02074             -34.00     9600.00
02075             -40.00     9200.00
02076             -16.00     9000.00
02077              -2.00     9000.00
02078               0.00     9000.00
02079             -14.00     8800.00
02080             -24.00     8600.00
02081             -18.00     8400.00
02082             -10.00     8400.00
02083             -10.00     8000.00
02084             -10.00     8000.00
02085             -16.00     8000.00
02086             -16.00     7600.00
02087             -10.00     7400.00
02088              -8.00     7400.00
02089             -18.00     7200.00
02090             -18.00     7000.00
02091             -16.00     6800.00
02092              -8.00     6800.00
02093               2.00     6600.00
02094              -8.00     6400.00
02095             -18.00     6200.00
02096             -18.00     6200.00
02097             -10.00     5800.00
02098               0.00     5800.00
02099               0.00     5600.00
02100             -10.00     5400.00
02101             -16.00     5400.00
02102             -16.00     5000.00
02103             -10.00     4800.00
02104              -2.00     4400.00
02105               0.00     4600.00
02106              -8.00     4200.00
02107             -10.00     4000.00
02108             -14.00     3800.00
02109              -8.00     3800.00
02110              -2.00     3400.00
02111              -2.00     3400.00
02112              -4.00     3200.00
02113              -4.00     2800.00
02114              -6.00     2600.00
02115             -10.00     2600.00
02116              -8.00     2200.00
02117              -6.00     2000.00
02118               0.00     1800.00
02119               0.00     1600.00
02120              -6.00     1600.00
02121              -8.00     1400.00
02122              -6.00     1000.00
02123              -6.00     1000.00
02124              -2.00      800.00
02125               0.00      600.00
02126               2.00      200.00
02127              -2.00      200.00
02128              -2.00        0.00
02129              16.00     -400.00
02130              36.00     -400.00
02131               8.00     -600.00
02132             -28.00     -800.00
02133             -22.00    -1000.00
02134              16.00    -1000.00
02135              28.00    -1400.00
02136              78.00    -1400.00
02137             246.00    -1600.00
02138             146.00    -2200.00
02139            -254.00    -2400.00
02140            -254.00    -2400.00
02141               8.00    -2800.00
02142             246.00    -2600.00
02143             246.00    -2800.00
02144             196.00    -3200.00
02145            -254.00    -3200.00
02146            -126.00    -3400.00
02147             246.00    -4000.00
02148              70.00    -3600.00
02149             -10.00    -4000.00
02150            -218.00    -4000.00
02151               2.00    -4400.00
02152             232.00    -4600.00
02153             -26.00    -4600.00
02154            -144.00    -5200.00
02155            -130.00    -5000.00
02156             162.00    -5200.00
02157             150.00    -5600.00
02158             -80.00    -5400.00
02159             -88.00    -6000.00
02160             -80.00    -5800.00
02161             140.00    -6200.00
02162              88.00    -6400.00
02163             -80.00    -6400.00
02164             -58.00    -6800.00
02165               0.00    -6600.00
02166              82.00    -7200.00
02167              -8.00    -7000.00
02168             -28.00    -7400.00
02169             -16.00    -7600.00
02170              24.00    -7400.00
02171              54.00    -8000.00
02172             -30.00    -8000.00
02173             -16.00    -8200.00
02174              14.00    -8400.00
02175              14.00    -8400.00
02176              12.00    -8600.00
02177              -2.00    -8600.00
02178               0.00    -8800.00
02179              14.00    -9000.00
02180              16.00    -9200.00
02181               0.00    -9400.00
02182              -2.00    -9200.00
02183               8.00    -9400.00
02184               6.00    -9600.00
02185              16.00    -9600.00
02186              14.00    -9800.00
02187               0.00   -10000.00
02188               8.00   -10000.00
02189               2.00   -10200.00
02190               8.00   -10200.00
02191              26.00   -10200.00
02192              18.00   -10400.00
02193               6.00   -10600.00
02194              -2.00   -10800.00
02195               2.00   -10800.00
02196              16.00   -11000.00
02197              26.00   -10800.00
02198              16.00   -11000.00
02199               4.00   -11000.00
02200              10.00   -11200.00
02201              12.00   -11200.00
02202              10.00   -11200.00
02203              16.00   -11400.00
02204              14.00   -11400.00
02205              22.00   -11600.00
02206              18.00   -11600.00
02207               6.00   -11600.00
02208               6.00   -11800.00
02209              22.00   -11800.00
02210              20.00   -11800.00
02211              22.00   -11600.00
02212              24.00   -11800.00
02213              16.00   -12000.00
02214              16.00   -11800.00
02215              16.00   -12000.00
02216              14.00   -12000.00
02217              30.00   -12000.00
02218              32.00   -12000.00
02219              24.00   -12000.00
02220              18.00   -12000.00
02221              16.00   -12000.00
02222              22.00   -11800.00
02223              32.00   -12000.00
02224              30.00   -12000.00
02225              26.00   -12000.00
02226              30.00   -12000.00
02227              24.00   -11800.00
02228              22.00   -12000.00
02229              24.00   -11800.00
02230              30.00   -11800.00
02231              38.00   -12000.00
02232              40.00   -11800.00
02233              26.00   -11800.00
02234              22.00   -11800.00
02235              22.00   -11800.00
02236              30.00   -11600.00
02237              46.00   -11600.00
02238              34.00   -11600.00
02239              18.00   -11600.00
02240              18.00   -11600.00
02241              26.00   -11600.00
02242              30.00   -11200.00
02243              26.00   -11400.00
02244              24.00   -11200.00
02245              22.00   -11200.00
02246              24.00   -11200.00
02247              26.00   -11000.00
02248              18.00   -10800.00
02249              14.00   -11000.00
02250              18.00   -10800.00
02251              22.00   -10600.00
02252              22.00   -10400.00
02253              16.00   -10400.00
02254              14.00   -10400.00
02255              16.00   -10400.00
02256              16.00   -10200.00
02257              10.00   -10200.00
02258              12.00   -10000.00
02259              16.00   -10000.00
02260              14.00    -9800.00
02261               2.00    -9600.00
02262               6.00    -9600.00
02263               8.00    -9400.00
02264              18.00    -9400.00
02265              16.00    -9200.00
02266               6.00    -9000.00
02267               2.00    -9200.00
02268               2.00    -8800.00
02269               2.00    -8800.00
02270              10.00    -8600.00
02271              14.00    -8400.00
02272               8.00    -8400.00
02273               0.00    -8000.00
02274              -4.00    -7800.00
02275               2.00    -7800.00
02276              10.00    -7600.00
02277              10.00    -7400.00
02278               6.00    -7200.00
02279               2.00    -7000.00
02280               0.00    -7200.00
02281               0.00    -6800.00
02282               0.00    -6800.00
02283               2.00    -6600.00
02284               8.00    -6400.00
02285               6.00    -6200.00
02286               0.00    -6000.00
02287              -2.00    -5800.00
02288              -2.00    -5600.00
02289               0.00    -5600.00
02290               6.00    -5400.00
02291               2.00    -5200.00
02292               0.00    -4800.00
02293               0.00    -4800.00
02294              -6.00    -4600.00
02295               0.00    -4400.00
02296               2.00    -4400.00
02297               2.00    -4000.00
02298               0.00    -3800.00
02299               0.00    -3600.00
02300               0.00    -3400.00
02301               0.00    -3200.00
02302              -2.00    -3000.00
02303              -2.00    -2800.00
02304              -2.00    -2600.00
02305               2.00    -2400.00
02306               2.00    -2200.00
02307               0.00    -2200.00
02308              -6.00    -2000.00
02309              -2.00    -1600.00
02310               0.00    -1400.00
02311               6.00    -1200.00
02312               2.00    -1000.00
02313              -2.00     -800.00
02314              -6.00     -800.00
02315              -6.00     -600.00
02316              -4.00     -400.00
02317               2.00        0.00
02318              10.00      200.00
02319               0.00      200.00
02320               0.00      400.00
02321              18.00      800.00
02322              34.00      800.00
02323              10.00     1000.00
02324             -22.00     1200.00
02325             -16.00     1200.00
02326              16.00     1600.00
02327              54.00     1600.00
02328             246.00     2000.00
02329             246.00     2400.00
02330            -254.00     2400.00
02331            -254.00     2600.00
02332            -154.00     2600.00
02333             246.00     2800.00
02334             246.00     3200.00
02335             168.00     3400.00
02336            -254.00     3200.00
02337             -26.00     3600.00
02338             246.00     4000.00
02339              56.00     4000.00
02340              92.00     4400.00
02341            -254.00     4400.00
02342             -30.00     4400.00
02343             246.00     4800.00
02344            -106.00     5000.00
02345            -154.00     5000.00
02346             -84.00     5400.00
02347             124.00     5600.00
02348             118.00     5400.00
02349             -22.00     6000.00
02350            -128.00     6000.00
02351            -132.00     6000.00
02352             202.00     6600.00
02353              16.00     6600.00
02354             -74.00     6800.00
02355             -22.00     6800.00
02356             -50.00     7200.00
02357              74.00     7200.00
02358               0.00     7400.00
02359             -58.00     7600.00
02360             -18.00     7600.00
02361              50.00     8000.00
02362             -24.00     8000.00
02363             -24.00     8200.00
02364             -12.00     8400.00
02365             -32.00     8400.00
02366              28.00     8800.00
02367              -6.00     9000.00
02368             -40.00     9000.00
02369             -14.00     9000.00
02370              22.00     9200.00
02371             -22.00     9400.00
02372               2.00     9600.00
02373             -34.00     9600.00
02374             -38.00     9600.00
02375              22.00    10000.00
02376               0.00    10000.00
02377             -10.00    10200.00
02378             -18.00    10200.00
02379             -34.00    10400.00
02380             -30.00    10400.00
02381              18.00    10600.00
02382               0.00    10600.00
02383             -16.00    10600.00
02384             -18.00    11000.00
02385             -40.00    10800.00
02386             -18.00    11200.00
02387               2.00    11200.00
02388             -14.00    11200.00
02389             -14.00    11400.00
02390             -18.00    11400.00
02391             -36.00    11400.00
02392             -16.00    11800.00
02393             -18.00    11800.00
02394             -30.00    11800.00
02395             -14.00    11800.00
02396             -10.00    11800.00
02397             -26.00    12000.00
02398             -26.00    12000.00
02399             -30.00    12000.00
02400             -32.00    12000.00
02401             -10.00    12200.00
02402             -16.00    12200.00
02403             -26.00    12200.00
02404             -26.00    12200.00
02405             -38.00    12200.00
02406             -34.00    12200.00
02407             -18.00    12200.00
02408             -24.00    12400.00
02409             -24.00    12200.00
02410             -26.00    12400.00
02411             -36.00    12400.00
02412             -34.00    12200.00
02413             -32.00    12400.00
02414             -34.00    12400.00
02415             -32.00    12200.00
02416             -26.00    12400.00
02417             -32.00    12400.00
02418             -34.00    12400.00
02419             -34.00    12400.00
02420             -38.00    12400.00
02421             -40.00    12400.00
02422             -40.00    12200.00
02423             -34.00    12200.00
02424             -22.00    12200.00
02425             -32.00    12200.00
02426             -52.00    12200.00
02427             -50.00    12000.00
02428             -34.00    12000.00
02429             -18.00    12200.00
02430             -22.00    12000.00
02431             -40.00    12000.00
02432             -50.00    12000.00
02433             -38.00    12000.00
02434             -24.00    11800.00
02435             -22.00    11800.00
02436             -32.00    11600.00
02437             -38.00    11800.00
02438             -24.00    11600.00
02439             -16.00    11400.00
02440             -30.00    11200.00
02441             -42.00    11200.00
02442             -26.00    11200.00
02443             -10.00    11200.00
02444             -10.00    11200.00
02445             -24.00    10800.00
02446             -40.00    10800.00
02447             -32.00    10800.00
02448              -8.00    10600.00
02449              -6.00    10400.00
02450             -18.00    10400.00
02451             -30.00    10400.00
02452             -30.00    10000.00
02453             -18.00     9800.00
02454             -10.00     9800.00
02455             -14.00     9800.00
02456             -16.00     9600.00
02457             -16.00     9400.00
02458             -22.00     9400.00
02459             -16.00     9200.00
02460             -18.00     9200.00
02461             -16.00     9000.00
02462             -10.00     8800.00
02463             -10.00     8600.00
02464             -16.00     8400.00
02465             -18.00     8400.00
02466             -18.00     8200.00
02467             -14.00     8000.00
02468              -6.00     8000.00
02469              -8.00     7800.00
02470             -16.00     7600.00
02471             -14.00     7600.00
02472             -16.00     7400.00
02473             -12.00     7200.00
02474              -8.00     6800.00
02475             -10.00     6800.00
02476             -10.00     6600.00
02477              -8.00     6600.00
02478             -10.00     6400.00
02479             -12.00     6000.00
02480             -10.00     6000.00
02481             -10.00     5800.00
02482              -4.00     5600.00
02483              -6.00     5600.00
02484             -10.00     5200.00
02485             -10.00     5200.00
02486             -14.00     4800.00
02487              -8.00     4600.00
02488              -6.00     4400.00
02489              -2.00     4400.00
02490              -6.00     4000.00
02491              -6.00     4000.00
02492             -10.00     3600.00
02493             -10.00     3600.00
02494              -6.00     3400.00
02495              -2.00     3200.00
02496              -2.00     3000.00
02497              -6.00     2800.00
02498              -8.00     2600.00
02499              -8.00     2400.00
02500              -6.00     2200.00
02501              -6.00     2000.00
02502              -2.00     1800.00
02503              -2.00     1600.00
02504              -2.00     1400.00
02505              -6.00     1200.00
02506              -8.00     1000.00
02507              -8.00      800.00
02508               0.00      600.00
02509               2.00      400.00
02510               0.00      400.00
02511               0.00      200.00
02512               0.00     -200.00
02513              26.00     -200.00
02514              26.00     -600.00
02515              -8.00     -600.00
02516             -26.00     -800.00
02517              -4.00    -1000.00
02518              22.00    -1200.00
02519              38.00    -1400.00
02520             158.00    -1400.00
02521             246.00    -2000.00
02522            -128.00    -2400.00
02523            -254.00    -2400.00
02524            -254.00    -2600.00
02525             192.00    -2600.00
02526             246.00    -2600.00
02527             246.00    -3000.00
02528            -214.00    -3400.00
02529            -254.00    -3200.00
02530             240.00    -3600.00
02531             246.00    -3800.00
02532              22.00    -3800.00
02533            -106.00    -4400.00
02534            -192.00    -4000.00
02535             178.00    -4600.00
02536             122.00    -4600.00
02537            -104.00    -4800.00
02538            -162.00    -5200.00
02539             -10.00    -5000.00
02540             230.00    -5600.00
02541              10.00    -5400.00
02542             -90.00    -6000.00
02543            -110.00    -6000.00
02544              16.00    -6000.00
02545             176.00    -6400.00
02546             -18.00    -6200.00
02547             -80.00    -6800.00
02548             -48.00    -6800.00
02549              56.00    -6800.00
02550              64.00    -7200.00
02551             -34.00    -7200.00
02552             -30.00    -7600.00
02553             -10.00    -7600.00
02554              58.00    -7800.00
02555              20.00    -8000.00
02556             -46.00    -7800.00
02557              -6.00    -8400.00
02558              18.00    -8200.00
02559              30.00    -8600.00
02560               2.00    -8600.00
02561             -24.00    -8800.00
02562              -6.00    -9200.00
02563              30.00    -9000.00
02564              36.00    -9200.00
02565              -2.00    -9400.00
02566             -18.00    -9400.00
02567              -4.00    -9600.00
02568              16.00    -9600.00
02569              36.00    -9600.00
02570              14.00    -9600.00
02571              -6.00   -10000.00
02572              -4.00   -10000.00
02573               0.00   -10200.00
02574              22.00   -10200.00
02575              26.00   -10200.00
02576               8.00   -10400.00
02577               2.00   -10800.00
02578               6.00   -10600.00
02579               6.00   -10800.00
02580              14.00   -10800.00
02581              18.00   -11000.00
02582              22.00   -11000.00
02583              20.00   -11200.00
02584               6.00   -11200.00
02585              -8.00   -11200.00
02586              14.00   -11400.00
02587              32.00   -11200.00
02588              32.00   -11400.00
02589              14.00   -11600.00
02590              -8.00   -11600.00
02591              -2.00   -11800.00
02592              22.00   -11600.00
02593              32.00   -11800.00
02594              26.00   -11600.00
02595              18.00   -12000.00
02596               6.00   -11800.00
02597              10.00   -11800.00
02598              24.00   -11800.00
02599              26.00   -12000.00
02600              22.00   -12000.00
02601              22.00   -12000.00
02602              16.00   -12000.00
02603              22.00   -12000.00
02604              26.00   -12000.00
02605              22.00   -12000.00
02606              24.00   -12000.00
02607              24.00   -12000.00
02608              30.00   -12000.00
02609              30.00   -12000.00
02610              26.00   -12000.00
02611              16.00   -12000.00
02612              22.00   -12000.00
02613              34.00   -11800.00
02614              40.00   -12000.00
02615              38.00   -11800.00
02616              26.00   -11800.00
02617              24.00   -11800.00
02618              24.00   -11800.00
02619              28.00   -11600.00
02620              30.00   -11600.00
02621              32.00   -11600.00
02622              30.00   -11600.00
02623              24.00   -11600.00
02624              26.00   -11600.00
02625              24.00   -11200.00
02626              24.00   -11400.00
02627              24.00   -11200.00
02628              26.00   -11200.00
02629              24.00   -11200.00
02630              24.00   -11200.00
02631              16.00   -11000.00
02632              22.00   -10800.00
02633              18.00   -10800.00
02634              22.00   -10800.00
02635              24.00   -10400.00
02636              22.00   -10600.00
02637              12.00   -10600.00
02638               8.00   -10400.00
02639               8.00   -10400.00
02640              16.00   -10200.00
02641              22.00   -10000.00
02642              16.00   -10000.00
02643              10.00   -10000.00
02644               8.00    -9600.00
02645              10.00    -9600.00
02646              10.00    -9400.00
02647              14.00    -9400.00
02648              12.00    -9200.00
02649               8.00    -9200.00
02650               6.00    -9000.00
02651               6.00    -8800.00
02652               2.00    -8800.00
02653               6.00    -8400.00
02654               8.00    -8400.00
02655               8.00    -8400.00
02656               6.00    -8000.00
02657               4.00    -8000.00
02658              -2.00    -7800.00
02659               2.00    -7600.00
02660               4.00    -7400.00
02661               8.00    -7200.00
02662               8.00    -7200.00
02663               6.00    -7200.00
02664               0.00    -6800.00
02665               0.00    -6800.00
02666               0.00    -6600.00
02667               4.00    -6400.00
02668               6.00    -6200.00
02669               4.00    -6000.00
02670               0.00    -6000.00
02671              -2.00    -5600.00
02672              -2.00    -5600.00
02673               2.00    -5400.00
02674               6.00    -5200.00
02675               8.00    -5200.00
02676               2.00    -4800.00
02677              -6.00    -4600.00
02678              -4.00    -4400.00
02679               0.00    -4200.00
02680               6.00    -4000.00
02681               6.00    -3800.00
02682               0.00    -3800.00
02683              -2.00    -3600.00
02684              -4.00    -3400.00
02685              -2.00    -3000.00
02686               0.00    -3000.00
02687               4.00    -2800.00
02688               2.00    -2600.00
02689              -2.00    -2400.00
02690              -2.00    -2200.00
02691              -6.00    -2200.00
02692              -2.00    -2000.00
02693               0.00    -1600.00
02694               2.00    -1400.00
02695               0.00    -1000.00
02696              -2.00    -1000.00
02697              -4.00     -800.00
02698               0.00     -600.00
02699              -2.00     -400.00
02700              -2.00     -200.00
02701              -2.00        0.00
02702               0.00      200.00
02703               6.00      400.00
02704               8.00      400.00
02705              34.00      800.00
02706              22.00      800.00
02707             -14.00     1000.00
02708             -22.00     1200.00
02709               2.00     1600.00
02710              30.00     1600.00
02711             130.00     2000.00
02712             246.00     2400.00
02713              -6.00     2400.00
02714            -254.00     2600.00
02715            -254.00     2800.00
02716              68.00     2800.00
02717             246.00     3000.00
02718             246.00     3400.00
02719            -254.00     3200.00
02720            -254.00     3400.00
02721             246.00     4000.00
02722             220.00     4000.00
02723              90.00     4200.00
02724            -112.00     4400.00
02725            -254.00     4400.00
02726             246.00     4400.00
02727             152.00     5000.00
02728            -186.00     5200.00
02729            -116.00     5400.00
02730              -8.00     5600.00
02731             170.00     5600.00
02732              30.00     5800.00
02733             -48.00     6200.00
02734            -192.00     6000.00
02735              46.00     6400.00
02736             178.00     6800.00
02737             -98.00     6400.00
02738             -20.00     6800.00
02739             -58.00     7000.00
02740              16.00     7200.00
02741              62.00     7400.00
02742             -48.00     7600.00
02743             -50.00     7600.00
02744              26.00     8000.00
02745              30.00     8000.00
02746             -48.00     8000.00
02747               0.00     8400.00
02748             -34.00     8400.00
02749               0.00     8800.00
02750              22.00     8800.00
02751             -30.00     9000.00
02752             -40.00     9000.00
02753              10.00     9200.00
02754               2.00     9400.00
02755             -10.00     9400.00
02756               0.00     9800.00
02757             -54.00     9600.00
02758              -8.00     9800.00
02759              10.00    10000.00
02760              -8.00    10000.00
02761              -8.00    10200.00
02762             -24.00    10400.00
02763             -46.00    10400.00
02764              -6.00    10600.00
02765              18.00    10800.00
02766             -12.00    10600.00
02767             -14.00    10800.00
02768             -34.00    10800.00
02769             -34.00    11200.00
02770              -6.00    11200.00
02771              -2.00    11200.00
02772             -22.00    11200.00
02773             -10.00    11400.00
02774             -26.00    11800.00
02775             -24.00    11600.00
02776             -10.00    11800.00
02777             -26.00    11800.00
02778             -26.00    11600.00
02779             -10.00    11800.00
02780             -20.00    12000.00
02781             -26.00    12000.00
02782             -26.00    12000.00
02783             -34.00    12000.00
02784             -24.00    12000.00
02785             -14.00    12000.00
02786             -22.00    12200.00
02787             -26.00    12200.00
02788             -30.00    12200.00
02789             -38.00    12200.00
02790             -30.00    12200.00
02791             -20.00    12200.00
02792             -30.00    12400.00
02793             -24.00    12400.00
02794             -30.00    12400.00
02795             -40.00    12400.00
02796             -34.00    12400.00
02797             -32.00    12400.00
02798             -32.00    12400.00
02799             -24.00    12200.00
02800             -30.00    12400.00
02801             -38.00    12200.00
02802             -40.00    12400.00
02803             -40.00    12200.00
02804             -38.00    12200.00
02805             -30.00    12400.00
02806             -32.00    12200.00
02807             -36.00    12200.00
02808             -38.00    12200.00
02809             -42.00    12400.00
02810             -40.00    12000.00
02811             -30.00    12200.00
02812             -32.00    12000.00
02813             -30.00    12000.00
02814             -34.00    12000.00
02815             -42.00    12000.00
02816             -40.00    11800.00
02817             -34.00    11800.00
02818             -26.00    11800.00
02819             -24.00    11600.00
02820             -26.00    11800.00
02821             -30.00    11600.00
02822             -32.00    11600.00
02823             -32.00    11400.00
02824             -26.00    11200.00
02825             -18.00    11200.00
02826             -16.00    11200.00
02827             -24.00    11000.00
02828             -26.00    10800.00
02829             -30.00    10800.00
02830             -26.00    10800.00
02831             -18.00    10600.00
02832             -14.00    10400.00
02833             -16.00    10400.00
02834             -18.00    10400.00
02835             -24.00    10200.00
02836             -22.00    10000.00
02837             -18.00    10000.00
02838             -12.00     9800.00
02839             -14.00     9600.00
02840             -12.00     9600.00
02841             -16.00     9600.00
02842             -22.00     9400.00
02843             -18.00     9200.00
02844             -16.00     9200.00
02845             -10.00     9000.00
02846              -8.00     8600.00
02847             -10.00     8400.00
02848             -16.00     8400.00
02849             -16.00     8200.00
02850             -16.00     8200.00
02851             -10.00     8000.00
02852              -6.00     8000.00
02853             -10.00     7600.00
02854             -14.00     7600.00
02855             -14.00     7400.00
02856             -16.00     7200.00
02857             -14.00     7000.00
02858             -10.00     6800.00
02859             -10.00     6600.00
02860              -8.00     6600.00
02861             -10.00     6400.00
02862             -14.00     6400.00
02863             -14.00     6000.00
02864             -10.00     5800.00
02865              -6.00     5600.00
02866              -6.00     5400.00
02867             -10.00     5200.00
02868             -10.00     5000.00
02869             -12.00     5000.00
02870             -14.00     4800.00
02871             -10.00     4600.00
02872              -4.00     4400.00
02873              -4.00     4200.00
02874              -8.00     4000.00
02875             -10.00     4000.00
02876             -10.00     3600.00
02877              -8.00     3400.00
02878              -6.00     3400.00
02879              -2.00     3200.00
02880              -4.00     2800.00
02881              -8.00     2800.00
02882             -10.00     2600.00
02883             -10.00     2400.00
02884              -6.00     2200.00
02885              -2.00     2000.00
02886               0.00     1800.00
02887              -2.00     1600.00
02888              -8.00     1200.00
02889             -10.00     1200.00
02890              -8.00     1000.00
02891              -2.00     1000.00
02892              -2.00      600.00
02893               0.00      400.00
02894               0.00      200.00
02895               0.00        0.00
02896              14.00     -400.00
02897              34.00     -400.00
02898               8.00     -600.00
02899             -24.00     -600.00
02900             -18.00     -800.00
02901              14.00    -1000.00
02902              24.00    -1200.00
02903              72.00    -1400.00
02904             246.00    -1600.00
02905             170.00    -2400.00
02906            -254.00    -2400.00
02907            -254.00    -2400.00
02908             -16.00    -2800.00
02909             246.00    -2600.00
02910             246.00    -2800.00
02911             234.00    -3200.00
02912            -254.00    -3200.00
02913            -174.00    -3200.00
02914             246.00    -4000.00
02915              80.00    -3400.00
02916              -6.00    -4000.00
02917            -208.00    -4200.00
02918             -22.00    -4200.00
02919             234.00    -4800.00
02920             -16.00    -4600.00
02921            -148.00    -5200.00
02922            -138.00    -5200.00
02923             150.00    -5200.00
02924             166.00    -5600.00
02925             -74.00    -5400.00
02926             -90.00    -6000.00
02927             -96.00    -6000.00
02928             130.00    -6200.00
02929             106.00    -6400.00
02930             -78.00    -6400.00
02931             -62.00    -7000.00
02932             -16.00    -6800.00
02933              78.00    -7200.00
02934               2.00    -7200.00
02935             -26.00    -7200.00
02936             -14.00    -7600.00
02937              14.00    -7600.00
02938              48.00    -8000.00
02939             -30.00    -8000.00
02940             -16.00    -8200.00
02941              16.00    -8400.00
02942              14.00    -8400.00
02943               6.00    -8800.00
02944             -10.00    -8600.00
02945              -2.00    -8800.00
02946              14.00    -8800.00
02947              16.00    -9200.00
02948               0.00    -9200.00
02949              -4.00    -9200.00
02950               8.00    -9400.00
02951               8.00    -9400.00
02952              14.00    -9600.00
02953              14.00    -9800.00
02954              -2.00    -9800.00
02955               8.00   -10000.00
02956               4.00   -10200.00
02957               8.00   -10200.00
02958              26.00   -10200.00
02959              18.00   -10400.00
02960               0.00   -10600.00
02961              -8.00   -10600.00
02962               6.00   -10800.00
02963              22.00   -10800.00
02964              24.00   -10800.00
02965               6.00   -11000.00
02966               2.00   -11000.00
02967              18.00   -11200.00
02968              16.00   -11200.00
02969              12.00   -11200.00
02970              12.00   -11200.00
02971              14.00   -11400.00
02972              26.00   -11600.00
02973              26.00   -11600.00
02974               8.00   -11800.00
02975               2.00   -11600.00
02976               6.00   -11800.00
02977              16.00   -11600.00
02978              38.00   -11800.00
02979              38.00   -11800.00
02980              14.00   -11800.00
02981               0.00   -12000.00
02982               6.00   -12000.00
02983              18.00   -11800.00
02984              38.00   -12000.00
02985              38.00   -12000.00
02986              22.00   -12000.00
02987              10.00   -12000.00
02988               2.00   -12000.00
02989              16.00   -12000.00
02990              46.00   -12000.00
02991              54.00   -11800.00
02992              32.00   -12000.00
02993               2.00   -11800.00
02994               0.00   -12000.00
02995              24.00   -12000.00
02996              54.00   -11800.00
02997              46.00   -12000.00
02998              22.00   -11800.00
02999              16.00   -12000.00
03000              26.00   -11800.00
03001              40.00   -11600.00
03002              38.00   -11800.00
03003              16.00   -11800.00
03004              16.00   -11600.00
03005              32.00   -11800.00
03006              38.00   -11600.00
03007              32.00   -11600.00
03008              22.00   -11600.00
03009              16.00   -11200.00
03010              26.00   -11400.00
03011              38.00   -11200.00
03012              26.00   -11200.00
03013              16.00   -11000.00
03014              10.00   -11200.00
03015              14.00   -11000.00
03016              30.00   -10800.00
03017              34.00   -10800.00
03018              18.00   -10800.00
03019              10.00   -10600.00
03020              14.00   -10400.00
03021              16.00   -10400.00
03022              18.00   -10200.00
03023              10.00   -10200.00
03024               8.00   -10200.00
03025              16.00   -10000.00
03026              22.00   -10000.00
03027              10.00    -9800.00
03028               8.00    -9600.00
03029               8.00    -9600.00
03030              12.00    -9400.00
03031              14.00    -9400.00
03032               8.00    -9200.00
03033               8.00    -9000.00
03034              10.00    -9000.00
03035               8.00    -8800.00
03036               6.00    -8800.00
03037               6.00    -8600.00
03038              10.00    -8400.00
03039              16.00    -8400.00
03040              10.00    -8400.00
03041              -2.00    -8000.00
03042              -6.00    -7800.00
03043               0.00    -7600.00
03044              12.00    -7400.00
03045              14.00    -7400.00
03046               6.00    -7000.00
03047              -2.00    -7000.00
03048              -2.00    -6800.00
03049               6.00    -6800.00
03050               8.00    -6400.00
03051               6.00    -6400.00
03052               2.00    -6200.00
03053               0.00    -6000.00
03054               0.00    -5800.00
03055               0.00    -5600.00
03056              -2.00    -5600.00
03057               0.00    -5400.00
03058               2.00    -5200.00
03059               0.00    -5000.00
03060               0.00    -4800.00
03061              -6.00    -4800.00
03062              -4.00    -4400.00
03063               0.00    -4200.00
03064               2.00    -4000.00
03065               2.00    -3800.00
03066               0.00    -3800.00
03067              -2.00    -3600.00
03068              -4.00    -3200.00
03069              -2.00    -3000.00
03070               0.00    -3000.00
03071               2.00    -2800.00
03072               0.00    -2400.00
03073              -2.00    -2400.00
03074              -6.00    -2000.00
03075              -6.00    -2000.00
03076              -2.00    -1800.00
03077               0.00    -1600.00
03078               0.00    -1200.00
03079              -2.00    -1000.00
03080              -2.00    -1000.00
03081              -6.00     -800.00
03082              -2.00     -600.00
03083              -2.00     -400.00
03084              -2.00        0.00
03085               0.00        0.00
03086               0.00      200.00
03087               0.00      400.00
03088              22.00      800.00
03089              38.00      800.00
03090               8.00     1000.00
03091             -26.00     1200.00
03092             -16.00     1200.00
03093              16.00     1600.00
03094              56.00     1800.00
03095             246.00     2000.00
03096             246.00     2400.00
03097            -254.00     2400.00
03098            -254.00     2400.00
03099            -186.00     2800.00
03100             246.00     2800.00
03101             246.00     3200.00
03102             246.00     3400.00
03103            -254.00     3200.00
03104             -88.00     3600.00
03105             246.00     4000.00
03106              58.00     4000.00
03107              96.00     4400.00
03108            -254.00     4400.00
03109             -66.00     4400.00
03110             246.00     4800.00
03111             -88.00     5200.00
03112            -158.00     5400.00
03113             -86.00     5400.00
03114             112.00     5600.00
03115             126.00     5600.00
03116             -24.00     6000.00
03117            -120.00     6000.00
03118            -146.00     6000.00
03119             200.00     6800.00
03120              34.00     6400.00
03121             -88.00     6800.00
03122             -22.00     6800.00
03123             -58.00     7000.00
03124              70.00     7400.00
03125               8.00     7600.00
03126             -58.00     7600.00
03127             -18.00     7600.00
03128              52.00     8000.00
03129             -22.00     8000.00
03130             -32.00     8200.00
03131             -10.00     8600.00
03132             -32.00     8400.00
03133              30.00     8800.00
03134              -2.00     8800.00
03135             -48.00     9000.00
03136             -24.00     9200.00
03137              22.00     9200.00
03138             -16.00     9400.00
03139               8.00     9600.00
03140             -30.00     9800.00
03141             -46.00     9800.00
03142              14.00    10000.00
03143              -2.00    10000.00
03144              -6.00    10000.00
03145             -14.00    10200.00
03146             -38.00    10400.00
03147             -36.00    10400.00
03148              18.00    10600.00
03149               6.00    10600.00
03150             -16.00    10600.00
03151             -22.00    10800.00
03152             -42.00    10800.00
03153             -22.00    11000.00
03154               6.00    11200.00
03155             -10.00    11200.00
03156             -16.00    11400.00
03157             -16.00    11400.00
03158             -32.00    11400.00
03159             -16.00    11600.00
03160             -12.00    11800.00
03161             -30.00    11800.00
03162             -10.00    11800.00
03163             -10.00    11800.00
03164             -24.00    11800.00
03165             -22.00    12000.00
03166             -26.00    12200.00
03167             -32.00    12000.00
03168             -16.00    12200.00
03169             -16.00    12200.00
03170             -24.00    12200.00
03171             -22.00    12400.00
03172             -34.00    12200.00
03173             -36.00    12200.00
03174             -22.00    12200.00
03175             -24.00    12400.00
03176             -24.00    12200.00
03177             -24.00    12400.00
03178             -34.00    12400.00
03179             -38.00    12400.00
03180             -32.00    12200.00
03181             -32.00    12200.00
03182             -28.00    12200.00
03183             -26.00    12400.00
03184             -32.00    12400.00
03185             -38.00    12400.00
03186             -42.00    12200.00
03187             -42.00    12200.00
03188             -32.00    12200.00
03189             -26.00    12400.00
03190             -32.00    12200.00
03191             -40.00    12200.00
03192             -42.00    12200.00
03193             -46.00    12000.00
03194             -34.00    12200.00
03195             -30.00    12000.00
03196             -32.00    12000.00
03197             -34.00    12000.00
03198             -38.00    12000.00
03199             -40.00    12000.00
03200             -34.00    11800.00
03201             -30.00    11800.00
03202             -26.00    11800.00
03203             -24.00    11600.00
03204             -30.00    11800.00
03205             -32.00    11600.00
03206             -32.00    11400.00
03207             -30.00    11400.00
03208             -22.00    11000.00
03209             -16.00    11200.00
03210             -24.00    11000.00
03211             -26.00    10800.00
03212             -30.00    10800.00
03213             -26.00    10600.00
03214             -22.00    10600.00
03215             -16.00    10600.00
03216             -16.00    10400.00
03217             -16.00    10400.00
03218             -20.00    10400.00
03219             -22.00    10000.00
03220             -22.00     9800.00
03221             -18.00     9800.00
03222             -14.00     9800.00
03223             -12.00     9600.00
03224             -16.00     9600.00
03225             -18.00     9400.00
03226             -18.00     9200.00
03227             -16.00     9200.00
03228             -16.00     9000.00
03229             -10.00     8800.00
03230             -10.00     8800.00
03231             -10.00     8400.00
03232             -16.00     8400.00
03233             -18.00     8200.00
03234             -22.00     8200.00
03235             -10.00     8000.00
03236              -6.00     7800.00
03237               0.00     7600.00
03238              -2.00     7600.00
03239             -20.00     7400.00
03240             -26.00     7200.00
03241             -22.00     6800.00
03242              -8.00     6600.00
03243               6.00     6600.00
03244               0.00     6400.00
03245             -16.00     6400.00
03246             -24.00     6200.00
03247             -16.00     6000.00
03248              -6.00     5800.00
03249              -2.00     5600.00
03250              -4.00     5400.00
03251             -14.00     5200.00
03252             -14.00     5200.00
03253             -10.00     4800.00
03254             -14.00     4800.00
03255             -10.00     4400.00
03256              -2.00     4400.00
03257              -6.00     4200.00
03258              -6.00     4000.00
03259             -10.00     3800.00
03260             -14.00     3600.00
03261             -10.00     3400.00
03262              -2.00     3200.00
03263              -2.00     3000.00
03264              -6.00     2800.00
03265             -14.00     2600.00
03266             -14.00     2400.00
03267              -8.00     2200.00
03268               0.00     2000.00
03269               0.00     1800.00
03270              -4.00     1600.00
03271             -14.00     1400.00
03272             -10.00     1200.00
03273              -6.00     1000.00
03274               0.00      800.00
03275              -2.00      600.00
03276              -2.00      400.00
03277              -8.00      200.00
03278               0.00      200.00
03279               6.00        0.00
03280              30.00     -200.00
03281              26.00     -400.00
03282             -10.00     -600.00
03283             -26.00     -800.00
03284              -6.00     -800.00
03285              18.00    -1200.00
03286              34.00    -1200.00
03287             150.00    -1400.00
03288             246.00    -2000.00
03289             -94.00    -2400.00
03290            -254.00    -2400.00
03291            -254.00    -2600.00
03292             174.00    -2600.00
03293             246.00    -2400.00
03294             246.00    -2800.00
03295            -162.00    -3400.00
03296            -254.00    -3200.00
03297             202.00    -3600.00
03298             246.00    -3600.00
03299              30.00    -3800.00
03300             -92.00    -4400.00
03301            -206.00    -4000.00
03302             158.00    -4600.00
03303             136.00    -4600.00
03304             -98.00    -4800.00
03305            -150.00    -5200.00
03306             -28.00    -5000.00
03307             228.00    -5600.00
03308              22.00    -5400.00
03309             -98.00    -5800.00
03310            -114.00    -6200.00
03311               0.00    -5600.00
03312             190.00    -6400.00
03313               6.00    -6400.00
03314             -78.00    -6600.00
03315             -72.00    -7000.00
03316              30.00    -6800.00
03317              66.00    -7400.00
03318             -10.00    -7200.00
03319              -6.00    -7400.00
03320             -26.00    -7600.00
03321              20.00    -7600.00
03322              16.00    -8000.00
03323             -22.00    -8000.00
03324              16.00    -8400.00
03325               8.00    -8400.00
03326              -2.00    -8600.00
03327              -2.00    -8600.00
03328               4.00    -8800.00
03329              14.00    -9200.00
03330              16.00    -9000.00
03331               2.00    -9200.00
03332             -16.00    -9400.00
03333               4.00    -9400.00
03334              16.00    -9600.00
03335              16.00    -9600.00
03336              18.00    -9600.00
03337              -2.00   -10000.00
03338              -8.00   -10200.00
03339               2.00   -10000.00
03340              10.00   -10200.00
03341              24.00   -10400.00
03342              24.00   -10400.00
03343               2.00   -10600.00
03344              -8.00   -10600.00
03345               6.00   -10800.00
03346              16.00   -11000.00
03347              16.00   -11000.00
03348              14.00   -11000.00
03349               8.00   -11000.00
03350              18.00   -11200.00
03351              22.00   -11200.00
03352               8.00   -11200.00
03353               6.00   -11400.00
03354              10.00   -11200.00
03355              22.00   -11600.00
03356              38.00   -11600.00
03357              20.00   -11600.00
03358               0.00   -11600.00
03359               2.00   -11600.00
03360              16.00   -11800.00
03361              30.00   -11800.00
03362              38.00   -11800.00
03363              24.00   -11800.00
03364              12.00   -11800.00
03365              14.00   -12000.00
03366              10.00   -12000.00
03367              18.00   -12000.00
03368              34.00   -12000.00
03369              32.00   -12000.00
03370              30.00   -12000.00
03371              22.00   -12000.00
03372               8.00   -12000.00
03373              16.00   -12000.00
03374              32.00   -12000.00
03375              38.00   -12000.00
03376              34.00   -12000.00
03377              24.00   -12000.00
03378              14.00   -12000.00
03379              18.00   -12000.00
03380              32.00   -12000.00
03381              38.00   -12000.00
03382              38.00   -12000.00
03383              30.00   -11800.00
03384              18.00   -12000.00
03385              22.00   -11800.00
03386              30.00   -11600.00
03387              34.00   -11600.00
03388              34.00   -11800.00
03389              30.00   -11600.00
03390              18.00   -11800.00
03391              22.00   -11600.00
03392              24.00   -11600.00
03393              30.00   -11400.00
03394              26.00   -11200.00
03395              24.00   -11200.00
03396              16.00   -11200.00
03397              22.00   -11200.00
03398              18.00   -11000.00
03399              22.00   -11000.00
03400              24.00   -10800.00
03401              18.00   -10800.00
03402              16.00   -10800.00
03403              14.00   -10600.00
03404              14.00   -10400.00
03405              16.00   -10400.00
03406              16.00   -10200.00
03407              16.00   -10200.00
03408              14.00   -10000.00
03409              14.00   -10000.00
03410               8.00    -9800.00
03411              10.00    -9600.00
03412              10.00    -9600.00
03413              10.00    -9400.00
03414              12.00    -9200.00
03415              10.00    -9200.00
03416               8.00    -9200.00
03417               8.00    -9000.00
03418               6.00    -8800.00
03419               6.00    -8800.00
03420               6.00    -8600.00
03421              10.00    -8400.00
03422               8.00    -8400.00
03423               8.00    -8000.00
03424               2.00    -8000.00
03425               4.00    -7800.00
03426               2.00    -7800.00
03427               6.00    -7400.00
03428               8.00    -7400.00
03429              10.00    -7200.00
03430               6.00    -7200.00
03431               0.00    -7000.00
03432              -2.00    -6800.00
03433               2.00    -6600.00
03434               4.00    -6400.00
03435               8.00    -6400.00
03436               2.00    -6200.00
03437              -2.00    -6000.00
03438              -2.00    -5600.00
03439               0.00    -5600.00
03440               0.00    -5400.00
03441               2.00    -5200.00
03442               4.00    -5200.00
03443               2.00    -4800.00
03444              -2.00    -4600.00
03445              -2.00    -4400.00
03446              -2.00    -4200.00
03447               0.00    -4200.00
03448               2.00    -3800.00
03449               0.00    -3800.00
03450               0.00    -3600.00
03451              -2.00    -3400.00
03452              -4.00    -3200.00
03453               0.00    -3000.00
03454               0.00    -2800.00
03455               0.00    -2600.00
03456               0.00    -2400.00
03457              -2.00    -2200.00
03458              -6.00    -2200.00
03459              -6.00    -2000.00
03460              -2.00    -1600.00
03461               2.00    -1400.00
03462               0.00    -1200.00
03463               2.00    -1000.00
03464              -2.00    -1000.00
03465              -6.00     -600.00
03466              -4.00     -600.00
03467              -4.00     -400.00
03468               0.00        0.00
03469               2.00      200.00
03470               2.00      200.00
03471               6.00      400.00
03472              32.00      800.00
03473              24.00      800.00
03474              -8.00     1000.00
03475             -24.00     1200.00
03476               0.00     1600.00
03477              28.00     1600.00
03478             118.00     1800.00
03479             246.00     2200.00
03480              34.00     2400.00
03481            -254.00     2600.00
03482            -254.00     2800.00
03483              46.00     2800.00
03484             246.00     3000.00
03485             246.00     3400.00
03486            -254.00     3400.00
03487            -254.00     3400.00
03488             246.00     4000.00
03489             246.00     4000.00
03490              90.00     4200.00
03491             -78.00     4400.00
03492            -254.00     4400.00
03493             246.00     4600.00
03494             176.00     5000.00
03495            -184.00     5200.00
03496            -114.00     5400.00
03497             -14.00     5800.00
03498             170.00     5600.00
03499              38.00     5600.00
03500             -46.00     6000.00
03501            -186.00     5800.00
03502              24.00     6400.00
03503             190.00     6600.00
03504             -90.00     6400.00
03505             -26.00     6800.00
03506             -56.00     7000.00
03507              12.00     7200.00
03508              66.00     7400.00
03509             -48.00     7600.00
03510             -56.00     7600.00
03511              22.00     7800.00
03512              38.00     8000.00
03513             -46.00     8000.00
03514              -4.00     8400.00
03515             -38.00     8400.00
03516              -2.00     8800.00
03517              24.00     8800.00
03518             -24.00     8800.00
03519             -42.00     9000.00
03520               6.00     9200.00
03521               6.00     9400.00
03522             -14.00     9600.00
03523               2.00     9600.00
03524             -56.00     9600.00
03525             -10.00     9800.00
03526              14.00    10000.00
03527             -10.00    10000.00
03528              -8.00    10400.00
03529             -24.00    10200.00
03530             -46.00    10400.00
03531             -10.00    10400.00
03532              22.00    10800.00
03533             -14.00    10600.00
03534             -14.00    10600.00
03535             -32.00    11000.00
03536             -40.00    11000.00
03537             -10.00    11200.00
03538               0.00    11200.00
03539             -14.00    11400.00
03540             -10.00    11400.00
03541             -26.00    11600.00
03542             -32.00    11600.00
03543             -14.00    11600.00
03544             -24.00    11800.00
03545             -20.00    11800.00
03546              -6.00    12000.00
03547             -18.00    12000.00
03548             -30.00    12000.00
03549             -26.00    12000.00
03550             -30.00    12000.00
03551             -22.00    12000.00
03552             -10.00    12200.00
03553             -22.00    12200.00
03554             -24.00    12200.00
03555             -26.00    12200.00
03556             -32.00    12400.00
03557             -26.00    12200.00
03558             -24.00    12400.00
03559             -26.00    12400.00
03560             -22.00    12400.00
03561             -26.00    12400.00
03562             -38.00    12400.00
03563             -36.00    12400.00
03564             -34.00    12400.00
03565             -34.00    12400.00
03566             -24.00    12400.00
03567             -26.00    12400.00
03568             -38.00    12200.00
03569             -40.00    12400.00
03570             -46.00    12400.00
03571             -36.00    12200.00
03572             -26.00    12400.00
03573             -26.00    12200.00
03574             -32.00    12200.00
03575             -38.00    12200.00
03576             -50.00    12200.00
03577             -46.00    12400.00
03578             -34.00    12200.00
03579             -30.00    12000.00
03580             -26.00    12000.00
03581             -38.00    12000.00
03582             -44.00    12000.00
03583             -40.00    11800.00
03584             -32.00    11800.00
03585             -26.00    11800.00
03586             -26.00    11600.00
03587             -30.00    11600.00
03588             -32.00    11400.00
03589             -32.00    11600.00
03590             -30.00    11400.00
03591             -30.00    11200.00
03592             -24.00    11200.00
03593             -18.00    11200.00
03594             -20.00    11000.00
03595             -24.00    11000.00
03596             -30.00    10800.00
03597             -30.00    10600.00
03598             -18.00    10400.00
03599             -16.00    10400.00
03600             -16.00    10400.00
03601             -22.00    10400.00
03602             -24.00    10200.00
03603             -24.00    10000.00
03604             -18.00     9800.00
03605             -14.00     9800.00
03606             -10.00     9800.00
03607             -10.00     9600.00
03608             -18.00     9400.00
03609             -24.00     9400.00
03610             -18.00     9200.00
03611             -16.00     9200.00
03612              -8.00     9000.00
03613              -4.00     8800.00
03614             -14.00     8400.00
03615             -16.00     8400.00
03616             -16.00     8200.00
03617             -16.00     8200.00
03618             -14.00     8000.00
03619             -10.00     8000.00
03620              -6.00     7600.00
03621              -2.00     7600.00
03622             -10.00     7400.00
03623             -30.00     7200.00
03624             -22.00     7200.00
03625              -2.00     6800.00
03626               8.00     6600.00
03627              -2.00     6600.00
03628             -24.00     6400.00
03629             -22.00     6200.00
03630              -8.00     6000.00
03631              -6.00     5800.00
03632             -10.00     5600.00
03633             -12.00     5600.00
03634              -8.00     5400.00
03635               2.00     5000.00
03636              -6.00     5000.00
03637             -24.00     4800.00
03638             -20.00     4400.00
03639              -8.00     4400.00
03640               8.00     4200.00
03641               2.00     4000.00
03642             -16.00     4000.00
03643             -24.00     3600.00
03644             -10.00     3400.00
03645               2.00     3400.00
03646               0.00     3000.00
03647             -12.00     2800.00
03648             -16.00     2800.00
03649              -8.00     2600.00
03650               4.00     2600.00
03651              -6.00     2000.00
03652             -14.00     2000.00
03653             -10.00     1800.00
03654              -2.00     1600.00
03655              -2.00     1600.00
03656             -10.00     1200.00
03657             -16.00     1000.00
03658              -2.00      800.00
03659              10.00      600.00
03660               2.00      400.00
03661             -10.00      200.00
03662             -10.00        0.00
03663              16.00     -200.00
03664              48.00     -400.00
03665              14.00     -600.00
03666             -34.00     -600.00
03667             -26.00    -1000.00
03668              10.00    -1000.00
03669              34.00    -1200.00
03670              72.00    -1400.00
03671             246.00    -1600.00
03672             190.00    -2200.00
03673            -254.00    -2400.00
03674            -254.00    -2400.00
03675             -42.00    -2600.00
03676             246.00    -2600.00
03677             246.00    -2400.00
03678             246.00    -3200.00
03679            -254.00    -3200.00
03680            -216.00    -3200.00
03681             246.00    -4000.00
03682              94.00    -3600.00
03683               6.00    -4000.00
03684            -196.00    -4400.00
03685             -42.00    -4400.00
03686             232.00    -4800.00
03687              -4.00    -4600.00
03688            -142.00    -5200.00
03689            -142.00    -5200.00
03690             138.00    -5200.00
03691             176.00    -5600.00
03692             -72.00    -5400.00
03693             -90.00    -6200.00
03694             -98.00    -6000.00
03695             122.00    -6200.00
03696             118.00    -6400.00
03697             -74.00    -6400.00
03698             -64.00    -7000.00
03699             -18.00    -6800.00
03700              82.00    -7000.00
03701              10.00    -7200.00
03702             -34.00    -7200.00
03703             -22.00    -7800.00
03704              12.00    -7600.00
03705              58.00    -8000.00
03706             -18.00    -8000.00
03707             -22.00    -8000.00
03708              10.00    -8400.00
03709               6.00    -8400.00
03710               6.00    -8600.00
03711               0.00    -8800.00
03712               6.00    -9000.00
03713              10.00    -9000.00
03714              14.00    -9200.00
03715              -2.00    -9400.00
03716              -6.00    -9400.00
03717              14.00    -9600.00
03718               6.00    -9600.00
03719               8.00    -9600.00
03720              14.00    -9800.00
03721              -2.00   -10000.00
03722               6.00   -10000.00
03723               2.00   -10200.00
03724               8.00   -10400.00
03725              28.00   -10200.00
03726              20.00   -10600.00
03727               0.00   -10600.00
03728              -6.00   -10800.00
03729               6.00   -10800.00
03730              14.00   -11000.00
03731              24.00   -11000.00
03732              16.00   -11200.00
03733               6.00   -11200.00
03734              10.00   -11200.00
03735              10.00   -11200.00
03736              16.00   -11200.00
03737              18.00   -11400.00
03738              16.00   -11600.00
03739              18.00   -11600.00
03740              18.00   -11600.00
03741              10.00   -11600.00
03742              14.00   -11800.00
03743              20.00   -11800.00
03744              20.00   -11800.00
03745              22.00   -11800.00
03746              24.00   -12000.00
03747              16.00   -11800.00
03748              18.00   -12000.00
03749              16.00   -12000.00
03750              18.00   -12000.00
03751              28.00   -11800.00
03752              30.00   -12000.00
03753              22.00   -12000.00
03754              22.00   -12000.00
03755              16.00   -12000.00
03756              22.00   -12000.00
03757              32.00   -12000.00
03758              32.00   -12000.00
03759              30.00   -12000.00
03760              26.00   -12000.00
03761              24.00   -12000.00
03762              22.00   -12000.00
03763              26.00   -12000.00
03764              32.00   -12000.00
03765              34.00   -11800.00
03766              32.00   -12000.00
03767              26.00   -11800.00
03768              24.00   -12000.00
03769              22.00   -11800.00
03770              26.00   -11800.00
03771              34.00   -11600.00
03772              34.00   -11600.00
03773              26.00   -11800.00
03774              22.00   -11600.00
03775              22.00   -11600.00
03776              22.00   -11400.00
03777              26.00   -11400.00
03778              30.00   -11200.00
03779              24.00   -11200.00
03780              22.00   -11200.00
03781              16.00   -11000.00
03782              14.00   -11000.00
03783              16.00   -11000.00
03784              22.00   -11000.00
03785              22.00   -10800.00
03786              18.00   -10800.00
03787              16.00   -10400.00
03788               8.00   -10400.00
03789              10.00   -10200.00
03790              14.00   -10200.00
03791              16.00   -10000.00
03792              16.00   -10000.00
03793              14.00   -10000.00
03794               8.00    -9800.00
03795               6.00    -9600.00
03796               6.00    -9600.00
03797              10.00    -9600.00
03798              16.00    -9200.00
03799              14.00    -9200.00
03800               8.00    -9200.00
03801               6.00    -8800.00
03802               2.00    -8800.00
03803               8.00    -8600.00
03804              10.00    -8600.00
03805              10.00    -8400.00
03806               8.00    -8000.00
03807               6.00    -8000.00
03808               6.00    -7800.00
03809               2.00    -7800.00
03810               6.00    -7600.00
03811               8.00    -7400.00
03812               8.00    -7200.00
03813               6.00    -7200.00
03814               2.00    -7000.00
03815              -2.00    -7000.00
03816               0.00    -6800.00
03817               2.00    -6400.00
03818               8.00    -6400.00
03819               6.00    -6200.00
03820               4.00    -6000.00
03821               0.00    -5600.00
03822              -2.00    -5800.00
03823               0.00    -5400.00
03824               2.00    -5200.00
03825               4.00    -5200.00
03826               2.00    -4800.00
03827               0.00    -4800.00
03828              -2.00    -4600.00
03829              -6.00    -4400.00
03830               0.00    -4200.00
03831               0.00    -4000.00
03832               2.00    -3800.00
03833               0.00    -3800.00
03834              -2.00    -3400.00
03835              -6.00    -3200.00
03836              -6.00    -3000.00
03837              -2.00    -3000.00
03838               2.00    -2800.00
03839               6.00    -2600.00
03840               0.00    -2400.00
03841              -6.00    -2200.00
03842             -10.00    -2000.00
03843              -6.00    -2000.00
03844               2.00    -1400.00
03845               6.00    -1400.00
03846               2.00    -1200.00
03847             -10.00    -1000.00
03848             -14.00     -800.00
03849              -8.00     -600.00
03850               8.00     -400.00
03851               8.00        0.00
03852               0.00        0.00
03853             -10.00      200.00
03854              -2.00      400.00
03855              22.00      800.00
03856              46.00      800.00
03857              10.00      800.00
03858             -30.00     1000.00
03859             -24.00     1200.00
03860              16.00     1600.00
03861              56.00     1800.00
03862             246.00     2000.00
03863             246.00     2400.00
03864            -254.00     2400.00
03865            -254.00     2600.00
03866            -208.00     2800.00
03867             246.00     2800.00
03868             246.00     3200.00
03869             246.00     3400.00
03870            -254.00     3200.00
03871            -154.00     3600.00
03872             246.00     4000.00
03873              68.00     4000.00
03874             106.00     4400.00
03875            -254.00     4400.00
03876            -114.00     4400.00
03877             246.00     4800.00
03878             -46.00     5200.00
03879            -152.00     5200.00
03880             -98.00     5400.00
03881              86.00     5800.00
03882             128.00     5600.00
03883              -2.00     6000.00
03884             -96.00     6200.00
03885            -162.00     6000.00
03886             182.00     6600.00
03887              48.00     6400.00
03888             -88.00     6800.00
03889             -14.00     7200.00
03890             -62.00     7200.00
03891              70.00     7200.00
03892              14.00     7400.00
03893             -64.00     7600.00
03894             -26.00     7600.00
03895              58.00     8000.00
03896              -6.00     8000.00
03897             -34.00     8200.00
03898             -22.00     8400.00
03899             -48.00     8400.00
03900              32.00     8800.00
03901              18.00     8800.00
03902             -30.00     9000.00
03903             -26.00     9200.00
03904               8.00     9400.00
03905             -34.00     9200.00
03906               2.00     9600.00
03907             -10.00     9800.00
03908             -32.00     9600.00
03909              22.00     9800.00
03910             -14.00    10000.00
03911             -24.00    10000.00
03912             -22.00    10400.00
03913             -26.00    10400.00
03914             -24.00    10400.00
03915              18.00    10600.00
03916              -6.00    10800.00
03917             -26.00    10600.00
03918             -22.00    10800.00
03919             -38.00    11000.00
03920             -16.00    11000.00
03921               6.00    11200.00
03922             -14.00    11400.00
03923             -24.00    11400.00
03924             -16.00    11800.00
03925             -26.00    11600.00
03926              -8.00    11400.00
03927             -16.00    11800.00
03928             -40.00    11600.00
03929             -24.00    11800.00
03930              -2.00    12000.00
03931             -10.00    12000.00
03932             -16.00    12000.00
03933             -32.00    12200.00
03934             -46.00    12000.00
03935             -18.00    12000.00
03936              -6.00    12200.00
03937             -14.00    12200.00
03938             -18.00    12200.00
03939             -40.00    12400.00
03940             -46.00    12400.00
03941             -24.00    12200.00
03942             -16.00    12200.00
03943             -18.00    12200.00
03944             -16.00    12400.00
03945             -34.00    12400.00
03946             -46.00    12400.00
03947             -34.00    12400.00
03948             -30.00    12400.00
03949             -24.00    12400.00
03950             -22.00    12400.00
03951             -32.00    12400.00
03952             -38.00    12400.00
03953             -38.00    12200.00
03954             -40.00    12400.00
03955             -34.00    12200.00
03956             -30.00    12400.00
03957             -34.00    12200.00
03958             -34.00    12200.00
03959             -40.00    12200.00
03960             -46.00    12000.00
03961             -40.00    12000.00
03962             -32.00    12000.00
03963             -32.00    12000.00
03964             -30.00    12000.00
03965             -38.00    12000.00
03966             -42.00    12000.00
03967             -40.00    11800.00
03968             -34.00    11800.00
03969             -24.00    11600.00
03970             -24.00    11600.00
03971             -32.00    11600.00
03972             -34.00    11400.00
03973             -34.00    11400.00
03974             -30.00    11400.00
03975             -22.00    11200.00
03976             -18.00    10800.00
03977             -24.00    11200.00
03978             -28.00    11000.00
03979             -30.00    10800.00
03980             -26.00    10800.00
03981             -24.00    10600.00
03982             -18.00    10400.00
03983             -16.00    10400.00
03984             -20.00    10400.00
03985             -22.00    10400.00
03986             -24.00    10200.00
03987             -20.00    10000.00
03988             -16.00     9800.00
03989             -10.00     9800.00
03990             -14.00     9600.00
03991             -18.00     9600.00
03992             -26.00     9600.00
03993             -22.00     9400.00
03994             -10.00     9200.00
03995              -2.00     9000.00
03996             -10.00     8800.00
03997             -24.00     8800.00
03998             -24.00     8600.00
03999             -10.00     8400.00
04000               0.00     8400.00
04001             -10.00     8200.00
04002             -20.00     8000.00
04003             -22.00     8000.00
04004              -8.00     7600.00
04005               2.00     7400.00
04006              -4.00     7400.00
04007             -16.00     7200.00
04008             -22.00     7000.00
04009             -12.00     6800.00
04010               0.00     6600.00
04011               0.00     6600.00
04012             -14.00     6400.00
04013             -18.00     6000.00
04014             -10.00     6000.00
04015              -6.00     5800.00
04016              -2.00     5600.00
04017              -2.00     5600.00
04018             -12.00     5200.00
04019             -10.00     5200.00
04020             -10.00     5000.00
04021             -10.00     4800.00
04022              -6.00     4600.00
04023              -2.00     4400.00
04024              -6.00     4200.00
04025              -8.00     4000.00
04026             -10.00     3800.00
04027             -12.00     3600.00
04028              -8.00     3400.00
04029              -6.00     3200.00
04030              -2.00     3000.00
04031              -2.00     2800.00
04032              -6.00     2600.00
04033             -10.00     2600.00
04034             -10.00     2200.00
04035              -6.00     2000.00
04036              -2.00     1800.00
04037               0.00     1600.00
04038              -8.00     1600.00
04039             -10.00     1200.00
04040             -10.00     1000.00
04041              -6.00      800.00
04042              -2.00      800.00
04043               0.00      400.00
04044              -2.00      400.00
04045              -2.00        0.00
04046               4.00        0.00
04047              24.00        0.00
04048              26.00     -600.00
04049              -8.00     -600.00
04050             -26.00     -800.00
04051              -8.00     -800.00
04052              22.00    -1200.00
04053              38.00    -1400.00
04054             138.00    -1400.00
04055             246.00    -1800.00
04056             -62.00    -2400.00
04057            -254.00    -2400.00
04058            -254.00    -2600.00
04059             160.00    -2600.00
04060             246.00    -2600.00
04061             246.00    -2800.00
04062            -112.00    -3400.00
04063            -254.00    -3000.00
04064             176.00    -3800.00
04065             246.00    -3600.00
04066              24.00    -3600.00
04067             -80.00    -4400.00
04068            -206.00    -4000.00
04069             152.00    -4600.00
04070             158.00    -4800.00
04071             -94.00    -4800.00
04072            -160.00    -5200.00
04073             -42.00    -5000.00
04074             230.00    -5600.00
04075              42.00    -5400.00
04076             -90.00    -5600.00
04077            -104.00    -6200.00
04078             -14.00    -6000.00
04079             180.00    -6400.00
04080               8.00    -6400.00
04081             -76.00    -6600.00
04082             -50.00    -6800.00
04083              38.00    -6800.00
04084              62.00    -7200.00
04085             -26.00    -7200.00
04086             -16.00    -7400.00
04087             -10.00    -7600.00
04088              40.00    -7800.00
04089              18.00    -8000.00
04090             -40.00    -7800.00
04091               4.00    -8200.00
04092              18.00    -8400.00
04093              10.00    -8600.00
04094              -2.00    -8800.00
04095              -8.00    -8600.00
04096               8.00    -9000.00
04097              20.00    -9000.00
04098              14.00    -9200.00
04099             -10.00    -9400.00
04100              -2.00    -9400.00
04101              10.00    -9600.00
04102               8.00    -9600.00
04103              16.00    -9800.00
04104               0.00   -10000.00
04105              -2.00   -10000.00
04106               6.00   -10200.00
04107               2.00   -10000.00
04108              20.00   -10400.00
04109              24.00   -10200.00
04110               6.00   -10600.00
04111              -6.00   -10800.00
04112               0.00   -10800.00
04113              10.00   -10800.00
04114              22.00   -11000.00
04115              22.00   -11000.00
04116               6.00   -11200.00
04117               8.00   -11200.00
04118              14.00   -11200.00
04119               6.00   -11200.00
04120              16.00   -11400.00
04121              16.00   -11400.00
04122              16.00   -11400.00
04123              22.00   -11600.00
04124              14.00   -11600.00
04125               8.00   -11600.00
04126              16.00   -11600.00
04127              22.00   -11800.00
04128              22.00   -11600.00
04129              26.00   -11800.00
04130              22.00   -11800.00
04131              14.00   -12000.00
04132              18.00   -11800.00
04133              16.00   -12000.00
04134              22.00   -11800.00
04135              32.00   -12000.00
04136              26.00   -12000.00
04137              22.00   -12000.00
04138              20.00   -12000.00
04139              16.00   -12000.00
04140              26.00   -12000.00
04141              34.00   -12000.00
04142              32.00   -12000.00
04143              30.00   -11800.00
04144              26.00   -12000.00
04145              22.00   -12000.00
04146              24.00   -12000.00
04147              32.00   -12000.00
04148              34.00   -11800.00
04149              38.00   -11800.00
04150              32.00   -11800.00
04151              26.00   -11800.00
04152              24.00   -11800.00
04153              22.00   -11600.00
04154              30.00   -11600.00
04155              36.00   -11800.00
04156              32.00   -11600.00
04157              24.00   -11600.00
04158              22.00   -11600.00
04159              16.00   -11400.00
04160              26.00   -11200.00
04161              30.00   -11200.00
04162              28.00   -11200.00
04163              16.00   -11200.00
04164              20.00   -11200.00
04165              18.00   -11000.00
04166              18.00   -11000.00
04167              16.00   -11000.00
04168              22.00   -10800.00
04169              20.00   -10600.00
04170              16.00   -10600.00
04171              10.00   -10400.00
04172              16.00   -10400.00
04173              14.00   -10400.00
04174              14.00   -10200.00
04175              10.00   -10000.00
04176              14.00   -10000.00
04177              12.00    -9800.00
04178              10.00    -9800.00
04179               6.00    -9600.00
04180               6.00    -9600.00
04181               6.00    -9200.00
04182              14.00    -9200.00
04183              16.00    -9200.00
04184              10.00    -8800.00
04185              -2.00    -8800.00
04186               0.00    -8800.00
04187               6.00    -8600.00
04188              16.00    -8400.00
04189              14.00    -8400.00
04190               6.00    -8000.00
04191               0.00    -7800.00
04192               0.00    -8000.00
04193               2.00    -7800.00
04194               8.00    -7400.00
04195              12.00    -7400.00
04196               8.00    -7200.00
04197               2.00    -7000.00
04198               0.00    -7000.00
04199               0.00    -6800.00
04200               0.00    -6600.00
04201               6.00    -6400.00
04202               8.00    -6200.00
04203               2.00    -6200.00
04204               0.00    -5800.00
04205               0.00    -5800.00
04206               2.00    -5600.00
04207               2.00    -5400.00
04208               6.00    -5200.00
04209               6.00    -5200.00
04210               2.00    -4800.00
04211               0.00    -4600.00
04212              -2.00    -4600.00
04213               0.00    -4400.00
04214               2.00    -4000.00
04215               0.00    -4000.00
04216               2.00    -3800.00
04217               0.00    -3600.00
04218              -2.00    -3200.00
04219              -2.00    -3000.00
04220               0.00    -3000.00
04221               0.00    -2800.00
04222               0.00    -2400.00
04223               0.00    -2400.00
04224              -2.00    -2200.00
04225              -2.00    -2000.00
04226              -8.00    -1800.00
04227              -6.00    -1600.00
04228              -2.00    -1400.00
04229               2.00    -1400.00
04230               2.00    -1000.00
04231              -6.00     -800.00
04232              -8.00     -600.00
04233              -6.00     -400.00
04234               0.00     -200.00
04235               2.00        0.00
04236               0.00      200.00
04237              -2.00      400.00
04238               0.00      400.00
04239              32.00      800.00
04240              26.00     1000.00
04241              -8.00     1000.00
04242             -22.00     1200.00
04243               2.00     1400.00
04244              26.00     1600.00
04245             104.00     1800.00
04246             246.00     2000.00
04247              66.00     2400.00
04248            -254.00     2600.00
04249            -254.00     2600.00
04250              30.00     2800.00
04251             246.00     3000.00
04252             246.00     3400.00
04253            -254.00     3400.00
04254            -254.00     3400.00
04255             246.00     4000.00
04256             246.00     4000.00
04257              78.00     4200.00
04258             -58.00     4400.00
04259            -254.00     4400.00
04260             240.00     4600.00
04261             214.00     5000.00
04262            -178.00     5200.00
04263            -126.00     5400.00
04264             -30.00     5600.00
04265             172.00     5600.00
04266              48.00     5600.00
04267             -38.00     6200.00
04268            -182.00     6000.00
04269               6.00     6400.00
04270             206.00     6600.00
04271             -80.00     6600.00
04272             -32.00     7000.00
04273             -56.00     6800.00
04274               0.00     7400.00
04275              72.00     7400.00
04276             -36.00     7600.00
04277             -50.00     7600.00
04278              16.00     8000.00
04279              40.00     8000.00
04280             -46.00     8200.00
04281              -8.00     8400.00
04282             -32.00     8400.00
04283              -4.00     8400.00
04284              26.00     9000.00
04285             -26.00     8800.00
04286             -46.00     8800.00
04287               0.00     9200.00
04288              10.00     9400.00
04289             -12.00     9400.00
04290               8.00     9600.00
04291             -58.00     9600.00
04292             -18.00     9800.00
04293              10.00    10000.00
04294             -10.00    10200.00
04295              -8.00    10000.00
04296             -22.00    10400.00
04297             -46.00    10400.00
04298             -14.00    10400.00
04299              18.00    10800.00
04300             -14.00    10600.00
04301             -14.00    10800.00
04302             -32.00    10800.00
04303             -38.00    10800.00
04304              -8.00    11200.00
04305              -2.00    11200.00
04306             -22.00    11200.00
04307             -16.00    11200.00
04308             -22.00    11600.00
04309             -26.00    11600.00
04310             -10.00    11600.00
04311             -26.00    11800.00
04312             -26.00    11600.00
04313              -8.00    11800.00
04314             -16.00    12000.00
04315             -26.00    12000.00
04316             -24.00    12000.00
04317             -32.00    12000.00
04318             -26.00    12200.00
04319             -14.00    12200.00
04320             -22.00    12200.00
04321             -24.00    12400.00
04322             -24.00    12200.00
04323             -34.00    12200.00
04324             -30.00    12200.00
04325             -22.00    12400.00
04326             -26.00    12400.00
04327             -24.00    12400.00
04328             -26.00    12400.00
04329             -34.00    12400.00
04330             -34.00    12200.00
04331             -32.00    12600.00
04332             -32.00    12200.00
04333             -26.00    12400.00
04334             -26.00    12200.00
04335             -34.00    12400.00
04336             -38.00    12400.00
04337             -42.00    12400.00
04338             -38.00    12400.00
04339             -30.00    12200.00
04340             -28.00    12400.00
04341             -32.00    12200.00
04342             -34.00    12200.00
04343             -44.00    12400.00
04344             -42.00    12200.00
04345             -34.00    12200.00
04346             -30.00    12000.00
04347             -32.00    12000.00
04348             -34.00    12000.00
04349             -38.00    12000.00
04350             -40.00    11800.00
04351             -34.00    11600.00
04352             -30.00    11800.00
04353             -26.00    11800.00
04354             -26.00    11600.00
04355             -34.00    11400.00
04356             -32.00    11400.00
04357             -32.00    11400.00
04358             -30.00    11400.00
04359             -22.00    11200.00
04360             -18.00    11200.00
04361             -26.00    11000.00
04362             -26.00    11000.00
04363             -30.00    10800.00
04364             -26.00    10600.00
04365             -22.00    10400.00
04366             -18.00    10600.00
04367             -18.00    10400.00
04368             -18.00    10400.00
04369             -22.00    10000.00
04370             -24.00    10000.00
04371             -22.00    10000.00
04372             -20.00    10000.00
04373             -14.00     9600.00
04374             -10.00     9600.00
04375             -10.00     9600.00
04376             -16.00     9200.00
04377             -20.00     9200.00
04378             -18.00     9000.00
04379             -16.00     8800.00
04380              -8.00     8800.00
04381             -10.00     8600.00
04382             -14.00     8400.00
04383             -18.00     8200.00
04384             -22.00     8200.00
04385             -10.00     8000.00
04386              -2.00     7800.00
04387              -4.00     7600.00
04388              -8.00     7600.00
04389             -14.00     7400.00
04390             -16.00     7200.00
04391             -16.00     7200.00
04392             -10.00     7000.00
04393              -2.00     6800.00
04394              -2.00     6400.00
04395              -8.00     6400.00
04396             -18.00     6400.00
04397             -14.00     6000.00
04398              -8.00     6000.00
04399              -2.00     5600.00
04400              -6.00     5600.00
04401             -10.00     5200.00
04402             -10.00     5400.00
04403              -8.00     5000.00
04404              -8.00     4800.00
04405              -6.00     4800.00
04406              -2.00     4400.00
04407              -4.00     4200.00
04408              -8.00     4000.00
04409             -10.00     3800.00
04410             -10.00     3600.00
04411              -8.00     3400.00
04412              -2.00     3400.00
04413              -6.00     3000.00
04414              -2.00     2800.00
04415              -8.00     2800.00
04416             -10.00     2600.00
04417             -10.00     2400.00
04418              -6.00     2000.00
04419              -6.00     2000.00
04420               0.00     1600.00
04421              -4.00     1600.00
04422              -8.00     1200.00
04423              -8.00     1000.00
04424              -6.00      800.00
04425              -6.00      800.00
04426              -2.00      400.00
04427              -2.00      400.00
04428              -2.00      200.00
04429              -2.00        0.00
04430               8.00     -200.00
04431              32.00     -400.00
04432              12.00     -600.00
04433             -18.00     -600.00
04434             -20.00     -800.00
04435               8.00    -1200.00
04436              22.00    -1400.00
04437              62.00    -1000.00
04438             240.00    -1600.00
04439             216.00    -2200.00
04440            -254.00    -2400.00
04441            -254.00    -2400.00
04442             -74.00    -2800.00
04443             246.00    -2800.00
04444             246.00    -2800.00
04445             246.00    -3200.00
04446            -254.00    -3200.00
04447            -254.00    -3200.00
04448             246.00    -4000.00
04449             112.00    -3600.00
04450               8.00    -4200.00
04451            -190.00    -4400.00
04452             -64.00    -4000.00
04453             232.00    -4800.00
04454              16.00    -4600.00
04455            -136.00    -5000.00
04456            -150.00    -5200.00
04457             118.00    -5200.00
04458             186.00    -5600.00
04459             -66.00    -5200.00
04460             -88.00    -6200.00
04461            -104.00    -6000.00
04462             112.00    -6200.00
04463             128.00    -6600.00
04464             -70.00    -6200.00
04465             -64.00    -6800.00
04466             -24.00    -6800.00
04467              80.00    -7000.00
04468              14.00    -7200.00
04469             -32.00    -7200.00
04470             -16.00    -7400.00
04471              10.00    -7600.00
04472              62.00    -7800.00
04473             -10.00    -8000.00
04474             -32.00    -8200.00
04475               0.00    -8400.00
04476              16.00    -8400.00
04477              18.00    -8800.00
04478               0.00    -8600.00
04479             -14.00    -8800.00
04480               0.00    -9000.00
04481              24.00    -9200.00
04482              18.00    -9200.00
04483              -6.00    -9400.00
04484             -10.00    -9400.00
04485              -2.00    -9600.00
04486              24.00    -9600.00
04487              34.00    -9800.00
04488             -10.00   -10000.00
04489             -22.00   -10200.00
04490              -8.00   -10000.00
04491              18.00   -10200.00
04492              40.00   -10400.00
04493              22.00   -10400.00
04494             -10.00   -10600.00
04495             -10.00   -10800.00
04496               4.00   -10800.00
04497              14.00   -10800.00
04498              22.00   -11000.00
04499              16.00   -11000.00
04500              10.00   -11200.00
04501              16.00   -11200.00
04502               6.00   -11200.00
04503              -6.00   -11200.00
04504              14.00   -11200.00
04505              30.00   -11600.00
04506              32.00   -11600.00
04507              14.00   -11600.00
04508             -10.00   -11600.00
04509               2.00   -11600.00
04510              30.00   -11600.00
04511              30.00   -11800.00
04512              20.00   -11800.00
04513              10.00   -11800.00
04514               8.00   -11800.00
04515              20.00   -11800.00
04516              26.00   -11800.00
04517              22.00   -11800.00
04518              22.00   -12000.00
04519              22.00   -12000.00
04520              22.00   -12000.00
04521              26.00   -12000.00
04522              22.00   -12000.00
04523              22.00   -12000.00
04524              26.00   -12000.00
04525              30.00   -12000.00
04526              32.00   -12000.00
04527              32.00   -12000.00
04528              24.00   -12000.00
04529              16.00   -11800.00
04530              26.00   -12000.00
04531              38.00   -11800.00
04532              38.00   -11800.00
04533              32.00   -11800.00
04534              22.00   -12000.00
04535              24.00   -11800.00
04536              30.00   -11800.00
04537              32.00   -11600.00
04538              32.00   -11600.00
04539              30.00   -11600.00
04540              28.00   -11600.00
04541              26.00   -11600.00
04542              26.00   -11600.00
04543              22.00   -11400.00
04544              22.00   -11200.00
04545              30.00   -11200.00
04546              30.00   -11200.00
04547              24.00   -11200.00
04548              16.00   -11000.00
04549              10.00   -11000.00
04550              16.00   -10800.00
04551              24.00   -10800.00
04552              22.00   -10800.00
04553              18.00   -10600.00
04554              12.00   -10400.00
04555              10.00   -10400.00
04556              10.00   -10400.00
04557              18.00   -10200.00
04558              14.00   -10200.00
04559              18.00   -10000.00
04560              14.00    -9800.00
04561               8.00    -9800.00
04562               6.00    -9600.00
04563               8.00    -9600.00
04564              10.00    -9400.00
04565              14.00    -9400.00
04566              10.00    -9200.00
04567               6.00    -9200.00
04568               6.00    -9000.00
04569               0.00    -8800.00
04570               6.00    -8800.00
04571              10.00    -8600.00
04572              10.00    -8400.00
04573              10.00    -8400.00
04574               6.00    -8000.00
04575               2.00    -8000.00
04576               6.00    -7800.00
04577               6.00    -7600.00
04578               6.00    -7400.00
04579              10.00    -7200.00
04580               6.00    -7000.00
04581               2.00    -7000.00
04582               2.00    -7000.00
04583               2.00    -6800.00
04584               2.00    -6600.00
04585               6.00    -6400.00
04586               6.00    -6200.00
04587               6.00    -6000.00
04588               2.00    -6000.00
04589               0.00    -5600.00
04590               0.00    -5400.00
04591               4.00    -5200.00
04592               6.00    -5200.00
04593               4.00    -4800.00
04594               0.00    -4800.00
04595              -2.00    -4600.00
04596              -2.00    -4400.00
04597               2.00    -4200.00
04598               2.00    -4000.00
04599               6.00    -4000.00
04600               2.00    -3600.00
04601              -2.00    -3600.00
04602              -2.00    -3200.00
04603               0.00    -3200.00
04604               0.00    -3000.00
04605               0.00    -2600.00
04606               0.00    -2800.00
04607              -2.00    -2400.00
04608               0.00    -2200.00
04609              -4.00    -2000.00
04610              -6.00    -2000.00
04611              -2.00    -1400.00
04612              -2.00    -1400.00
04613               0.00    -1200.00
04614              -2.00    -1000.00
04615              -8.00     -800.00
04616              -6.00     -400.00
04617              -4.00     -400.00
04618              -2.00        0.00
04619               2.00        0.00
04620               2.00      200.00
04621               0.00      400.00
04622              14.00      600.00
04623              38.00      800.00
04624              10.00     1000.00
04625             -22.00     1200.00
04626             -16.00     1200.00
04627              10.00     1600.00
04628              42.00     1600.00
04629             230.00     2000.00
04630             246.00     2400.00
04631            -254.00     2400.00
04632            -254.00     2600.00
04633            -252.00     2600.00
04634             218.00     3000.00
04635             246.00     3200.00
04636             246.00     3400.00
04637            -254.00     3200.00
04638            -224.00     3600.00
04639             246.00     4000.00
04640              80.00     4000.00
04641             114.00     4200.00
04642            -254.00     4400.00
04643            -150.00     4400.00
04644             246.00     4800.00
04645             -40.00     5200.00
04646            -168.00     5200.00
04647             -98.00     5400.00
04648              82.00     5800.00
04649             144.00     5600.00
04650               0.00     6000.00
04651             -88.00     6000.00
04652            -162.00     6200.00
04653             178.00     6600.00
04654              64.00     6400.00
04655            -102.00     6600.00
04656             -24.00     7000.00
04657             -74.00     7000.00
04658              58.00     7400.00
04659              16.00     7400.00
04660             -56.00     7600.00
04661             -16.00     7600.00
04662              64.00     8000.00
04663               0.00     8000.00
04664             -34.00     8200.00
04665             -12.00     8400.00
04666             -50.00     8400.00
04667              16.00     8800.00
04668              -2.00     8800.00
04669             -42.00     8800.00
04670             -18.00     9000.00
04671              32.00     9200.00
04672               0.00     9400.00
04673              10.00     9600.00
04674             -28.00     9600.00
04675             -56.00     9600.00
04676               6.00    10000.00
04677             -10.00    10000.00
04678             -12.00    10000.00
04679             -16.00    10200.00
04680             -34.00    10400.00
04681             -32.00    10400.00
04682              26.00    10600.00
04683              14.00    10600.00
04684             -10.00    10600.00
04685             -22.00    10800.00
04686             -50.00    10800.00
04687             -34.00    11000.00
04688             -10.00    11200.00
04689             -18.00    11200.00
04690             -18.00    11200.00
04691              -8.00    11200.00
04692             -18.00    11400.00
04693              -8.00    11800.00
04694             -14.00    11600.00
04695             -36.00    11800.00
04696             -26.00    11800.00
04697             -16.00    12000.00
04698             -32.00    11800.00
04699             -26.00    12000.00
04700             -26.00    12000.00
04701             -28.00    12000.00
04702             -10.00    12000.00
04703              -8.00    12200.00
04704             -22.00    12200.00
04705             -26.00    12200.00
04706             -42.00    12200.00
04707             -44.00    12200.00
04708             -26.00    12200.00
04709             -24.00    12400.00
04710             -22.00    12400.00
04711             -14.00    12400.00
04712             -26.00    12400.00
04713             -34.00    12400.00
04714             -32.00    12400.00
04715             -34.00    12400.00
04716             -32.00    12400.00
04717             -28.00    12400.00
04718             -34.00    12400.00
04719             -40.00    12400.00
04720             -36.00    12400.00
04721             -38.00    12200.00
04722             -30.00    12400.00
04723             -26.00    12200.00
04724             -32.00    12200.00
04725             -36.00    12200.00
04726             -42.00    12200.00
04727             -46.00    12200.00
04728             -38.00    12200.00
04729             -28.00    12000.00
04730             -28.00    12000.00
04731             -26.00    12000.00
04732             -34.00    12000.00
04733             -38.00    11800.00
04734             -38.00    11800.00
04735             -34.00    11800.00
04736             -30.00    11800.00
04737             -26.00    11600.00
04738             -32.00    11600.00
04739             -32.00    11400.00
04740             -32.00    11400.00
04741             -30.00    11400.00
04742             -24.00    11200.00
04743             -16.00    11200.00
04744             -22.00    11000.00
04745             -26.00    11200.00
04746             -32.00    10800.00
04747             -32.00    10800.00
04748             -26.00    10600.00
04749             -16.00    10600.00
04750             -10.00    10400.00
04751             -14.00    10400.00
04752             -26.00    10200.00
04753             -30.00    10000.00
04754             -20.00    10000.00
04755             -16.00    10000.00
04756             -18.00     9800.00
04757             -14.00     9600.00
04758             -10.00     9600.00
04759             -16.00     9600.00
04760             -18.00     9200.00
04761             -22.00     9200.00
04762             -22.00     9000.00
04763             -10.00     8800.00
04764              -2.00     8800.00
04765             -10.00     8400.00
04766             -24.00     8400.00
04767             -32.00     8200.00
04768             -22.00     8200.00
04769               2.00     8000.00
04770              14.00     7800.00
04771              -2.00     7600.00
04772             -24.00     7400.00
04773             -28.00     7400.00
04774             -18.00     7200.00
04775              -2.00     7200.00
04776               2.00     6800.00
04777              -2.00     6800.00
04778             -16.00     6600.00
04779             -26.00     6400.00
04780             -16.00     6200.00
04781               2.00     6000.00
04782              16.00     5800.00
04783               0.00     5800.00
04784             -24.00     5400.00
04785             -34.00     5400.00
04786             -14.00     5200.00
04787               6.00     5000.00
04788               8.00     4800.00
04789             -10.00     4400.00
04790             -16.00     4400.00
04791              -8.00     4000.00
04792               2.00     4000.00
04793              -6.00     3800.00
04794             -16.00     3600.00
04795             -14.00     3400.00
04796             -10.00     3200.00
04797              -2.00     3200.00
04798               0.00     3000.00
04799              -6.00     2600.00
04800              -4.00     2400.00
04801              -8.00     2200.00
04802              -6.00     2000.00
04803              -6.00     1800.00
04804              -6.00     1600.00
04805             -10.00     1600.00
04806              -8.00     1200.00
04807               0.00     1000.00
04808               0.00      800.00
04809              -8.00      600.00
04810             -10.00      400.00
04811              -6.00      400.00
04812               8.00        0.00
04813               6.00        0.00
04814              20.00     -400.00
04815              18.00     -400.00
04816             -10.00     -800.00
04817             -22.00     -800.00
04818               0.00    -1000.00
04819              18.00    -1200.00
04820              32.00    -1400.00
04821             122.00    -1400.00
04822             246.00    -2000.00
04823             -26.00    -2400.00
04824            -254.00    -2400.00
04825            -254.00    -2800.00
04826             144.00    -2600.00
04827             246.00    -2600.00
04828             246.00    -2800.00
04829             -66.00    -3400.00
04830            -254.00    -3200.00
04831             136.00    -3600.00
04832             246.00    -3800.00
04833              24.00    -3600.00
04834             -70.00    -4200.00
04835            -214.00    -4000.00
04836             134.00    -4600.00
04837             170.00    -4800.00
04838             -88.00    -4800.00
04839            -160.00    -5200.00
04840             -56.00    -5000.00
04841             224.00    -5600.00
04842              56.00    -5400.00
04843             -90.00    -5600.00
04844            -104.00    -6200.00
04845             -30.00    -5800.00
04846             178.00    -6400.00
04847              18.00    -6200.00
04848             -78.00    -6800.00
04849             -54.00    -6800.00
04850              30.00    -6800.00
04851              66.00    -7200.00
04852             -22.00    -7000.00
04853             -16.00    -7600.00
04854             -12.00    -7600.00
04855              40.00    -7600.00
04856              24.00    -8000.00
04857             -38.00    -8000.00
04858               2.00    -8400.00
04859              16.00    -8400.00
04860              10.00    -8600.00
04861               0.00    -8600.00
04862              -8.00    -8800.00
04863               6.00    -9000.00
04864              18.00    -9000.00
04865              18.00    -9200.00
04866              -6.00    -9200.00
04867              -2.00    -9400.00
04868               6.00    -9600.00
04869               4.00    -9600.00
04870              16.00   -10000.00
04871               8.00   -10000.00
04872               0.00   -10000.00
04873               4.00   -10200.00
04874              -2.00   -10200.00
04875              14.00   -10400.00
04876              24.00   -10200.00
04877              10.00   -10600.00
04878              -2.00   -10600.00
04879              -2.00   -10800.00
04880              10.00   -10800.00
04881              20.00   -11000.00
04882              24.00   -11000.00
04883               6.00   -11000.00
04884               8.00   -11200.00
04885              12.00   -11200.00
04886               8.00   -11200.00
04887              14.00   -11200.00
04888              16.00   -11600.00
04889              16.00   -11600.00
04890              22.00   -11600.00
04891              10.00   -11600.00
04892               6.00   -11800.00
04893              14.00   -11600.00
04894              18.00   -11800.00
04895              22.00   -11800.00
04896              24.00   -11800.00
04897              22.00   -11800.00
04898              14.00   -11800.00
04899              22.00   -12000.00
04900              18.00   -12000.00
04901              22.00   -11800.00
04902              26.00   -12000.00
04903              24.00   -12000.00
04904              24.00   -12000.00
04905              22.00   -12000.00
04906              14.00   -12000.00
04907              18.00   -12000.00
04908              32.00   -12000.00
04909              34.00   -12000.00
04910              32.00   -12000.00
04911              26.00   -12000.00
04912              22.00   -12000.00
04913              24.00   -12000.00
04914              32.00   -11800.00
04915              34.00   -12000.00
04916              38.00   -11800.00
04917              32.00   -11800.00
04918              30.00   -11800.00
04919              24.00   -11800.00
04920              26.00   -11800.00
04921              30.00   -11600.00
04922              32.00   -11600.00
04923              34.00   -11600.00
04924              26.00   -11600.00
04925              26.00   -11600.00
04926              24.00   -11600.00
04927              22.00   -11400.00
04928              24.00   -11200.00
04929              36.00   -11200.00
04930              24.00   -11200.00
04931              18.00   -11000.00
04932              10.00   -11000.00
04933              22.00   -11000.00
04934              30.00   -10800.00
04935              26.00   -10800.00
04936              14.00   -10800.00
04937               8.00   -10600.00
04938              10.00   -10400.00
04939              18.00   -10400.00
04940              22.00   -10400.00
04941              14.00   -10200.00
04942               8.00   -10000.00
04943              16.00   -10000.00
04944              22.00   -10000.00
04945              10.00    -9600.00
04946               6.00    -9600.00
04947               2.00    -9600.00
04948              14.00    -9400.00
04949              16.00    -9200.00
04950               8.00    -9200.00
04951               4.00    -9200.00
04952               2.00    -8800.00
04953               2.00    -8800.00
04954              12.00    -8800.00
04955              14.00    -8400.00
04956               8.00    -8400.00
04957               6.00    -8200.00
04958               2.00    -8000.00
04959              -2.00    -7800.00
04960               0.00    -7800.00
04961               6.00    -7600.00
04962               8.00    -7400.00
04963              10.00    -7200.00
04964               6.00    -7200.00
04965               0.00    -7000.00
04966               0.00    -7000.00
04967               2.00    -6400.00
04968               2.00    -6400.00
04969               2.00    -6400.00
04970               6.00    -6200.00
04971               6.00    -6000.00
04972               2.00    -5800.00
04973              -6.00    -5600.00
04974               0.00    -5400.00
04975               8.00    -5400.00
04976              12.00    -5000.00
04977               8.00    -4800.00
04978              -4.00    -4600.00
04979             -12.00    -4400.00
04980              -2.00    -4400.00
04981               8.00    -4200.00
04982              10.00    -4000.00
04983               2.00    -3800.00
04984              -8.00    -3600.00
04985              -6.00    -3400.00
04986               0.00    -3200.00
04987               0.00    -3000.00
04988               0.00    -2800.00
04989               0.00    -2800.00
04990               0.00    -2400.00
04991               2.00    -2400.00
04992               2.00    -2200.00
04993              -8.00    -1800.00
04994             -10.00    -1600.00
04995               0.00    -1400.00
04996               6.00    -1200.00
04997               4.00    -1000.00
04998              -4.00     -800.00
04999             -10.00     -800.00
05000              -8.00     -400.00
