Unit:(mV)
                     CH1         CH2
Frequency              ? 260.724 kHz
00001              -2.00    -2800.00
00002               0.00    -2800.00
00003               0.00    -2400.00
00004               2.00    -2400.00
00005              -2.00    -2200.00
00006              -2.00    -2000.00
00007              -2.00    -1600.00
00008               0.00    -1400.00
00009               0.00    -1400.00
00010               0.00    -1200.00
00011              -2.00    -1000.00
00012               0.00     -800.00
00013               0.00     -600.00
00014              -2.00     -600.00
00015              -2.00     -200.00
00016              -6.00        0.00
00017               2.00        0.00
00018               6.00      200.00
00019               4.00      400.00
00020              22.00      600.00
00021              24.00      800.00
00022               0.00     1000.00
00023             -10.00     1200.00
00024              -2.00     1400.00
00025              10.00     1600.00
00026              54.00     1600.00
00027             246.00     2000.00
00028             170.00     2400.00
00029            -254.00     2400.00
00030            -254.00     2600.00
00031            -112.00     2600.00
00032             122.00     2800.00
00033             246.00     3200.00
00034             -22.00     3200.00
00035            -254.00     3200.00
00036             246.00     3800.00
00037              40.00     3600.00
00038            -182.00     4000.00
00039             170.00     4200.00
00040            -112.00     4200.00
00041              88.00     4400.00
00042              54.00     4800.00
00043            -200.00     5000.00
00044              54.00     5000.00
00045              24.00     5400.00
00046              34.00     5600.00
00047             -26.00     5600.00
00048             -22.00     5800.00
00049             -10.00     6000.00
00050             -46.00     6000.00
00051              96.00     6400.00
00052             -80.00     6400.00
00053             -16.00     6600.00
00054              36.00     6800.00
00055             -32.00     6800.00
00056              16.00     7200.00
00057             -46.00     7400.00
00058              -2.00     7400.00
00059              16.00     7600.00
00060              16.00     7800.00
00061             -42.00     7600.00
00062             -18.00     8000.00
00063               6.00     8200.00
00064             -18.00     8200.00
00065               4.00     8400.00
00066             -18.00     8400.00
00067             -22.00     8400.00
00068             -10.00     9000.00
00069              10.00     9000.00
00070             -24.00     9000.00
00071               0.00     9400.00
00072             -18.00     9400.00
00073             -24.00     9600.00
00074               0.00     9600.00
00075             -14.00     9800.00
00076              -2.00     9800.00
00077             -16.00    10000.00
00078             -26.00    10000.00
00079             -26.00    10000.00
00080               4.00    10400.00
00081              -6.00    10400.00
00082             -14.00    10400.00
00083             -14.00    10600.00
00084             -32.00    10600.00
00085             -20.00    10800.00
00086             -10.00    10800.00
00087             -14.00    10800.00
00088             -14.00    10800.00
00089             -14.00    11200.00
00090             -26.00    11200.00
00091             -18.00    11200.00
00092             -18.00    11400.00
00093             -24.00    11200.00
00094             -16.00    11400.00
00095             -18.00    11400.00
00096             -24.00    11800.00
00097             -22.00    11800.00
00098             -26.00    11800.00
00099             -32.00    11800.00
00100             -22.00    11600.00
00101             -18.00    11800.00
00102             -20.00    12000.00
00103             -22.00    11800.00
00104             -34.00    12000.00
00105             -30.00    12000.00
00106             -28.00    12000.00
00107             -30.00    11800.00
00108             -24.00    12000.00
00109             -24.00    12000.00
00110             -32.00    12000.00
00111             -34.00    12000.00
00112             -34.00    12000.00
00113             -32.00    12000.00
00114             -26.00    12000.00
00115             -28.00    12000.00
00116             -32.00    12000.00
00117             -36.00    12000.00
00118             -40.00    12000.00
00119             -40.00    12000.00
00120             -34.00    12000.00
00121             -30.00    11800.00
00122             -32.00    12000.00
00123             -34.00    12000.00
00124             -42.00    12000.00
00125             -40.00    11600.00
00126             -34.00    12000.00
00127             -34.00    11600.00
00128             -30.00    11800.00
00129             -34.00    11600.00
00130             -34.00    11600.00
00131             -38.00    11600.00
00132             -34.00    11400.00
00133             -32.00    11400.00
00134             -26.00    11200.00
00135             -26.00    11400.00
00136             -26.00    11200.00
00137             -32.00    11200.00
00138             -34.00    11200.00
00139             -28.00    10800.00
00140             -24.00    11000.00
00141             -24.00    10800.00
00142             -24.00    10600.00
00143             -24.00    10600.00
00144             -26.00    10400.00
00145             -30.00    10400.00
00146             -22.00    10400.00
00147             -18.00    10400.00
00148             -16.00    10000.00
00149             -22.00    10000.00
00150             -24.00    10000.00
00151             -20.00     9800.00
00152             -16.00     9600.00
00153             -16.00     9600.00
00154             -16.00     9400.00
00155             -18.00     9400.00
00156             -24.00     9200.00
00157             -22.00     9000.00
00158             -10.00     9000.00
00159              -8.00     9000.00
00160             -10.00     8400.00
00161             -20.00     8400.00
00162             -26.00     8400.00
00163             -22.00     8200.00
00164             -14.00     8000.00
00165             -10.00     8000.00
00166              -6.00     8000.00
00167             -12.00     7600.00
00168             -16.00     7400.00
00169             -16.00     7400.00
00170             -14.00     7200.00
00171             -16.00     7000.00
00172             -14.00     6800.00
00173             -16.00     6600.00
00174             -10.00     6600.00
00175              -8.00     6400.00
00176             -10.00     6200.00
00177             -16.00     6000.00
00178             -18.00     6000.00
00179             -14.00     5600.00
00180              -2.00     5600.00
00181               0.00     5400.00
00182             -10.00     5200.00
00183             -14.00     5000.00
00184             -14.00     5000.00
00185             -10.00     4800.00
00186              -6.00     4400.00
00187              -8.00     4400.00
00188              -8.00     4200.00
00189              -6.00     4000.00
00190             -10.00     3800.00
00191             -12.00     3600.00
00192             -10.00     3400.00
00193             -10.00     3400.00
00194              -4.00     3000.00
00195               0.00     2800.00
00196              -4.00     2800.00
00197             -10.00     2600.00
00198             -10.00     2200.00
00199             -10.00     2000.00
00200              -4.00     1800.00
00201              -2.00     1600.00
00202               0.00     1600.00
00203              -2.00     1200.00
00204              -8.00     1200.00
00205              -8.00      800.00
00206              -6.00      800.00
00207              -2.00      600.00
00208              -2.00      400.00
00209               2.00      400.00
00210               0.00        0.00
00211               6.00        0.00
00212              26.00     -400.00
00213              16.00     -600.00
00214             -10.00     -600.00
00215             -10.00     -800.00
00216               0.00    -1000.00
00217              10.00    -1200.00
00218              34.00    -1400.00
00219             162.00    -1600.00
00220             232.00    -2200.00
00221            -138.00    -2400.00
00222            -254.00    -2400.00
00223            -150.00    -2600.00
00224              34.00    -2400.00
00225             136.00    -2400.00
00226             246.00    -3000.00
00227            -162.00    -3200.00
00228            -214.00    -3000.00
00229             226.00    -3800.00
00230             -40.00    -3600.00
00231             -24.00    -3800.00
00232              22.00    -4200.00
00233             -18.00    -4000.00
00234             112.00    -4800.00
00235             -58.00    -4600.00
00236             -74.00    -4800.00
00237             -30.00    -4800.00
00238              42.00    -5000.00
00239             104.00    -5400.00
00240             -74.00    -5200.00
00241              -8.00    -6000.00
00242             -10.00    -5600.00
00243               6.00    -6000.00
00244              62.00    -6400.00
00245             -48.00    -6000.00
00246               0.00    -6600.00
00247              16.00    -6400.00
00248              16.00    -6800.00
00249             -26.00    -7000.00
00250             -10.00    -7000.00
00251              32.00    -7200.00
00252               0.00    -7400.00
00253              22.00    -7600.00
00254             -22.00    -7600.00
00255             -10.00    -7800.00
00256              40.00    -8000.00
00257              -6.00    -8000.00
00258             -10.00    -8400.00
00259               8.00    -8400.00
00260               6.00    -8600.00
00261              16.00    -8600.00
00262              12.00    -8800.00
00263              -6.00    -9200.00
00264               2.00    -9000.00
00265              16.00    -9200.00
00266               2.00    -9200.00
00267               8.00    -9200.00
00268              22.00    -9600.00
00269               0.00    -9600.00
00270               8.00    -9600.00
00271               2.00    -9600.00
00272              -2.00   -10000.00
00273              30.00   -10000.00
00274              18.00   -10200.00
00275               6.00   -10200.00
00276               6.00   -10200.00
00277               2.00   -10400.00
00278               6.00   -10400.00
00279              22.00   -10400.00
00280              18.00   -10600.00
00281              10.00   -10800.00
00282              16.00   -10800.00
00283               8.00   -10800.00
00284               8.00   -11000.00
00285              18.00   -11000.00
00286              16.00   -11200.00
00287              18.00   -11000.00
00288              20.00   -11200.00
00289               6.00   -11200.00
00290              14.00   -11200.00
00291              16.00   -11200.00
00292              16.00   -11400.00
00293              22.00   -11600.00
00294              24.00   -11200.00
00295              14.00   -11600.00
00296              16.00   -11400.00
00297              18.00   -11600.00
00298              14.00   -11600.00
00299              20.00   -11600.00
00300              30.00   -11600.00
00301              24.00   -11600.00
00302              24.00   -11600.00
00303              16.00   -11600.00
00304              16.00   -11600.00
00305              30.00   -11600.00
00306              26.00   -11600.00
00307              30.00   -11600.00
00308              26.00   -11600.00
00309              22.00   -11600.00
00310              22.00   -11600.00
00311              26.00   -11600.00
00312              26.00   -11600.00
00313              32.00   -11400.00
00314              32.00   -11600.00
00315              28.00   -11400.00
00316              26.00   -11400.00
00317              24.00   -11600.00
00318              26.00   -11400.00
00319              32.00   -11200.00
00320              28.00   -11200.00
00321              32.00   -11200.00
00322              28.00   -11200.00
00323              22.00   -11200.00
00324              22.00   -11200.00
00325              20.00   -11000.00
00326              26.00   -10800.00
00327              32.00   -11000.00
00328              22.00   -10800.00
00329              14.00   -10800.00
00330              20.00   -10600.00
00331              18.00   -10600.00
00332              22.00   -10400.00
00333              22.00   -10400.00
00334              16.00   -10400.00
00335              20.00   -10200.00
00336              22.00   -10000.00
00337               6.00   -10000.00
00338              10.00   -10000.00
00339              16.00    -9600.00
00340              18.00    -9600.00
00341              22.00    -9600.00
00342              12.00    -9400.00
00343               8.00    -9400.00
00344              10.00    -9200.00
00345               8.00    -9000.00
00346               8.00    -9000.00
00347              16.00    -8800.00
00348              10.00    -8800.00
00349               8.00    -8800.00
00350              12.00    -8400.00
00351               6.00    -8400.00
00352               6.00    -8400.00
00353               8.00    -8000.00
00354               6.00    -8000.00
00355              10.00    -7800.00
00356               6.00    -7800.00
00357               0.00    -7400.00
00358               6.00    -7400.00
00359               8.00    -7200.00
00360               0.00    -7000.00
00361               2.00    -7000.00
00362               6.00    -6800.00
00363               6.00    -6800.00
00364               6.00    -6400.00
00365               0.00    -6400.00
00366               0.00    -6200.00
00367               6.00    -6000.00
00368               6.00    -5600.00
00369               0.00    -5600.00
00370               0.00    -5600.00
00371               0.00    -5400.00
00372               0.00    -5200.00
00373               0.00    -5000.00
00374               0.00    -4800.00
00375               2.00    -4800.00
00376               2.00    -4400.00
00377              -6.00    -4200.00
00378              -8.00    -4000.00
00379              -2.00    -3800.00
00380               6.00    -3800.00
00381               6.00    -3600.00
00382               0.00    -3200.00
00383              -2.00    -3200.00
00384              -2.00    -3000.00
00385              -2.00    -2800.00
00386               0.00    -2600.00
00387               2.00    -2400.00
00388               2.00    -2200.00
00389               0.00    -2000.00
00390             -10.00    -2000.00
00391              -6.00    -1600.00
00392              -2.00    -1400.00
00393               2.00    -1400.00
00394               2.00    -1000.00
00395               0.00     -800.00
00396              -6.00     -800.00
00397              -2.00     -600.00
00398              -4.00     -400.00
00399              -4.00        0.00
00400               0.00        0.00
00401               2.00      200.00
00402               4.00      200.00
00403              10.00      400.00
00404              26.00      800.00
00405              10.00     1000.00
00406             -10.00     1200.00
00407              -8.00     1200.00
00408               8.00     1600.00
00409              20.00     1600.00
00410             130.00     2000.00
00411             246.00     2400.00
00412             -62.00     2400.00
00413            -254.00     2400.00
00414            -254.00     2600.00
00415             -32.00     2800.00
00416             246.00     3200.00
00417             246.00     3400.00
00418            -254.00     3200.00
00419            -138.00     3600.00
00420             246.00     3600.00
00421            -216.00     3800.00
00422              40.00     4200.00
00423              74.00     4200.00
00424             -98.00     4400.00
00425             178.00     4600.00
00426            -132.00     4800.00
00427            -100.00     5000.00
00428              78.00     5200.00
00429              10.00     5400.00
00430              32.00     5600.00
00431             -56.00     5800.00
00432              16.00     5800.00
00433             -62.00     6000.00
00434              40.00     6400.00
00435              38.00     6400.00
00436            -106.00     6400.00
00437              50.00     6800.00
00438             -12.00     6800.00
00439              -2.00     7200.00
00440             -14.00     7200.00
00441             -40.00     7400.00
00442              10.00     7400.00
00443              14.00     7600.00
00444              -8.00     7800.00
00445             -50.00     7800.00
00446              14.00     8200.00
00447             -10.00     8200.00
00448             -10.00     8400.00
00449              -6.00     8400.00
00450             -24.00     8600.00
00451             -18.00     8800.00
00452               6.00     9000.00
00453             -10.00     9000.00
00454             -22.00     9200.00
00455               0.00     9200.00
00456             -34.00     9400.00
00457              -8.00     9600.00
00458             -10.00     9600.00
00459              -8.00     9800.00
00460              -2.00     9800.00
00461             -18.00    10000.00
00462             -32.00    10000.00
00463             -12.00    10200.00
00464               6.00    10400.00
00465             -16.00    10400.00
00466             -10.00    10400.00
00467             -26.00    10600.00
00468             -30.00    10600.00
00469             -16.00    10800.00
00470             -10.00    10800.00
00471             -16.00    10800.00
00472              -8.00    11200.00
00473             -22.00    11200.00
00474             -24.00    11200.00
00475             -18.00    11400.00
00476             -26.00    11400.00
00477             -20.00    11600.00
00478             -10.00    11400.00
00479             -18.00    11600.00
00480             -26.00    11800.00
00481             -24.00    11600.00
00482             -32.00    11800.00
00483             -26.00    11800.00
00484             -18.00    11800.00
00485             -22.00    12000.00
00486             -22.00    11800.00
00487             -26.00    12000.00
00488             -38.00    12000.00
00489             -32.00    12000.00
00490             -26.00    12000.00
00491             -24.00    12000.00
00492             -18.00    12000.00
00493             -26.00    12000.00
00494             -38.00    12000.00
00495             -36.00    12000.00
00496             -32.00    12000.00
00497             -30.00    12000.00
00498             -26.00    12000.00
00499             -34.00    12000.00
00500             -38.00    11800.00
00501             -40.00    12000.00
00502             -36.00    12000.00
00503             -34.00    12000.00
00504             -32.00    11800.00
00505             -30.00    12000.00
00506             -38.00    11800.00
00507             -40.00    11800.00
00508             -40.00    11800.00
00509             -38.00    11600.00
00510             -34.00    11600.00
00511             -32.00    11800.00
00512             -34.00    11600.00
00513             -34.00    11800.00
00514             -36.00    11400.00
00515             -38.00    11800.00
00516             -34.00    11400.00
00517             -30.00    11400.00
00518             -26.00    11400.00
00519             -28.00    11200.00
00520             -32.00    11200.00
00521             -32.00    11000.00
00522             -30.00    11000.00
00523             -30.00    10800.00
00524             -26.00    10800.00
00525             -22.00    10800.00
00526             -22.00    10600.00
00527             -24.00    10600.00
00528             -26.00    10400.00
00529             -30.00    10400.00
00530             -18.00    10200.00
00531             -18.00    10200.00
00532             -18.00     9800.00
00533             -16.00    10000.00
00534             -24.00     9800.00
00535             -24.00     9600.00
00536             -16.00     9600.00
00537             -18.00     9600.00
00538             -14.00     9200.00
00539             -14.00     9200.00
00540             -18.00     9200.00
00541             -22.00     9000.00
00542             -22.00     8800.00
00543             -16.00     8600.00
00544             -10.00     8400.00
00545              -8.00     8400.00
00546             -10.00     8400.00
00547             -16.00     8200.00
00548             -18.00     8000.00
00549             -16.00     7800.00
00550             -10.00     7600.00
00551             -10.00     7600.00
00552             -14.00     7400.00
00553             -10.00     7400.00
00554             -14.00     7200.00
00555             -12.00     6800.00
00556             -10.00     6800.00
00557             -10.00     6800.00
00558             -10.00     6600.00
00559             -10.00     6200.00
00560             -12.00     6400.00
00561             -10.00     6000.00
00562             -10.00     5800.00
00563             -14.00     5600.00
00564             -10.00     5400.00
00565              -8.00     5200.00
00566              -6.00     5200.00
00567              -8.00     5000.00
00568             -14.00     4600.00
00569             -16.00     4400.00
00570             -12.00     4200.00
00571              -2.00     4200.00
00572              -2.00     4000.00
00573              -6.00     4000.00
00574             -10.00     3600.00
00575             -14.00     3400.00
00576              -8.00     3200.00
00577              -6.00     3200.00
00578              -2.00     3200.00
00579              -4.00     2800.00
00580              -8.00     2600.00
00581             -10.00     2200.00
00582             -10.00     2000.00
00583              -6.00     1800.00
00584              -2.00     1800.00
00585              -2.00     1600.00
00586              -6.00     1400.00
00587              -8.00     1200.00
00588              -6.00     1000.00
00589              -6.00      800.00
00590              -6.00      600.00
00591              -2.00      400.00
00592               0.00      400.00
00593               2.00      200.00
00594               2.00        0.00
00595              16.00     -400.00
00596              24.00     -400.00
00597               0.00     -600.00
00598             -16.00     -800.00
00599              -6.00     -800.00
00600               8.00    -1000.00
00601              14.00    -1200.00
00602              72.00    -1400.00
00603             240.00    -1600.00
00604             102.00    -2200.00
00605            -254.00    -2400.00
00606            -254.00    -2400.00
00607             -22.00    -2600.00
00608              46.00    -2400.00
00609             246.00    -2800.00
00610             190.00    -3200.00
00611            -254.00    -3000.00
00612              46.00    -3600.00
00613             166.00    -3800.00
00614            -106.00    -3400.00
00615              50.00    -4200.00
00616             -34.00    -4000.00
00617              54.00    -4400.00
00618              54.00    -4600.00
00619            -104.00    -4600.00
00620             -32.00    -4800.00
00621             -26.00    -5000.00
00622             108.00    -5200.00
00623              16.00    -5200.00
00624             -74.00    -5400.00
00625              22.00    -6000.00
00626             -30.00    -5600.00
00627              56.00    -6200.00
00628               6.00    -6200.00
00629             -42.00    -6200.00
00630              16.00    -6800.00
00631              14.00    -6400.00
00632               2.00    -7000.00
00633             -34.00    -7000.00
00634              22.00    -7000.00
00635              14.00    -7400.00
00636               6.00    -7400.00
00637              14.00    -7600.00
00638             -34.00    -7800.00
00639              22.00    -8000.00
00640              20.00    -8000.00
00641             -16.00    -8400.00
00642               0.00    -8400.00
00643               8.00    -8400.00
00644               6.00    -8800.00
00645              14.00    -8800.00
00646               6.00    -8800.00
00647              -2.00    -9000.00
00648              14.00    -9200.00
00649              10.00    -9200.00
00650              -6.00    -9400.00
00651              14.00    -9400.00
00652              12.00    -9400.00
00653               0.00    -9600.00
00654              10.00    -9600.00
00655              -2.00   -10000.00
00656              10.00   -10000.00
00657              30.00   -10000.00
00658              10.00   -10200.00
00659               6.00   -10200.00
00660               6.00   -10400.00
00661               2.00   -10400.00
00662               8.00   -10400.00
00663              20.00   -10600.00
00664              14.00   -10800.00
00665              16.00   -10800.00
00666              16.00   -10800.00
00667               2.00   -10800.00
00668              10.00   -11000.00
00669              16.00   -11200.00
00670              16.00   -11000.00
00671              22.00   -11200.00
00672              16.00   -11200.00
00673               8.00   -11200.00
00674              16.00   -11200.00
00675              16.00   -11200.00
00676              18.00   -11400.00
00677              24.00   -11600.00
00678              22.00   -11600.00
00679              18.00   -11600.00
00680              18.00   -11600.00
00681              14.00   -11600.00
00682              14.00   -11600.00
00683              22.00   -11600.00
00684              24.00   -11600.00
00685              24.00   -11600.00
00686              24.00   -11600.00
00687              14.00   -11600.00
00688              22.00   -11600.00
00689              26.00   -11600.00
00690              26.00   -11800.00
00691              30.00   -11600.00
00692              30.00   -11600.00
00693              22.00   -11600.00
00694              22.00   -11600.00
00695              24.00   -11600.00
00696              30.00   -11600.00
00697              34.00   -11400.00
00698              32.00   -11600.00
00699              28.00   -11400.00
00700              26.00   -11600.00
00701              22.00   -11600.00
00702              26.00   -11200.00
00703              32.00   -11400.00
00704              32.00   -11200.00
00705              30.00   -11200.00
00706              22.00   -11200.00
00707              16.00   -11200.00
00708              22.00   -11000.00
00709              24.00   -11000.00
00710              32.00   -10800.00
00711              32.00   -10800.00
00712              18.00   -10800.00
00713              14.00   -10800.00
00714              16.00   -10800.00
00715              16.00   -10600.00
00716              22.00   -10400.00
00717              18.00   -10200.00
00718              22.00   -10200.00
00719              22.00   -10200.00
00720              16.00   -10000.00
00721               6.00   -10000.00
00722              10.00   -10000.00
00723              18.00    -9600.00
00724              22.00    -9600.00
00725              16.00    -9600.00
00726               8.00    -9400.00
00727               6.00    -9400.00
00728              10.00    -9200.00
00729              14.00    -9200.00
00730              12.00    -9000.00
00731              10.00    -8800.00
00732               6.00    -8800.00
00733              10.00    -8800.00
00734              14.00    -8400.00
00735               8.00    -8400.00
00736               2.00    -8000.00
00737               6.00    -8000.00
00738              12.00    -8000.00
00739              14.00    -7800.00
00740               6.00    -7400.00
00741              -2.00    -7400.00
00742               0.00    -7400.00
00743               8.00    -7200.00
00744              10.00    -7200.00
00745               6.00    -7000.00
00746               0.00    -6800.00
00747               0.00    -6600.00
00748               6.00    -6400.00
00749               8.00    -6200.00
00750               6.00    -6200.00
00751               2.00    -6000.00
00752               0.00    -5800.00
00753              -4.00    -5600.00
00754              -6.00    -5400.00
00755               0.00    -5200.00
00756               6.00    -5200.00
00757              10.00    -5000.00
00758               6.00    -4600.00
00759              -6.00    -4600.00
00760              -8.00    -4400.00
00761              -2.00    -4000.00
00762               6.00    -4200.00
00763               8.00    -3800.00
00764               0.00    -3600.00
00765              -8.00    -3600.00
00766              -8.00    -3200.00
00767               0.00    -3200.00
00768               2.00    -3000.00
00769               2.00    -2800.00
00770              -2.00    -2600.00
00771              -6.00    -2400.00
00772               0.00    -2200.00
00773              -8.00    -2000.00
00774              -6.00    -1800.00
00775               0.00    -1600.00
00776              -2.00    -1400.00
00777               0.00    -1000.00
00778               0.00     -800.00
00779               0.00    -1000.00
00780              -2.00     -800.00
00781              -6.00     -600.00
00782              -8.00     -400.00
00783               0.00        0.00
00784               6.00        0.00
00785               2.00      200.00
00786               2.00      400.00
00787              16.00      600.00
00788              18.00      800.00
00789               2.00     1000.00
00790              -8.00     1200.00
00791               0.00     1200.00
00792               8.00     1600.00
00793              40.00     1800.00
00794             242.00     2000.00
00795             208.00     2400.00
00796            -254.00     2400.00
00797            -254.00     2400.00
00798            -132.00     2800.00
00799              88.00     2800.00
00800             246.00     3200.00
00801              70.00     3200.00
00802            -254.00     3200.00
00803             230.00     3600.00
00804              94.00     3800.00
00805            -214.00     4000.00
00806             170.00     4200.00
00807             -86.00     4200.00
00808              64.00     4400.00
00809              86.00     4800.00
00810            -210.00     4800.00
00811              24.00     5200.00
00812              32.00     5400.00
00813              40.00     5400.00
00814              -8.00     5400.00
00815             -26.00     5800.00
00816              -6.00     5800.00
00817             -64.00     6000.00
00818              88.00     6400.00
00819             -66.00     6400.00
00820             -26.00     6600.00
00821              54.00     6600.00
00822             -34.00     6800.00
00823               6.00     7200.00
00824             -56.00     7200.00
00825             -10.00     7400.00
00826              18.00     7400.00
00827              20.00     7800.00
00828             -34.00     7600.00
00829             -26.00     8000.00
00830               6.00     8200.00
00831             -26.00     8200.00
00832               0.00     8400.00
00833             -14.00     8400.00
00834             -24.00     8800.00
00835             -10.00     9000.00
00836               6.00     9000.00
00837             -30.00     9200.00
00838              -6.00     9200.00
00839             -16.00     9400.00
00840             -24.00     9600.00
00841               2.00     9600.00
00842             -16.00     9800.00
00843              -6.00     9800.00
00844             -10.00    10000.00
00845             -30.00    10000.00
00846             -34.00    10200.00
00847               0.00    10200.00
00848              -8.00    10400.00
00849             -14.00    10400.00
00850             -10.00    10600.00
00851             -30.00    10600.00
00852             -18.00    10800.00
00853             -14.00    10800.00
00854             -16.00    10800.00
00855             -18.00    10800.00
00856             -18.00    11000.00
00857             -26.00    11200.00
00858             -16.00    11200.00
00859             -16.00    11400.00
00860             -24.00    11400.00
00861             -16.00    11400.00
00862             -16.00    11400.00
00863             -24.00    11800.00
00864             -26.00    11800.00
00865             -28.00    11800.00
00866             -26.00    11800.00
00867             -18.00    11800.00
00868             -16.00    11800.00
00869             -20.00    11800.00
00870             -24.00    12000.00
00871             -32.00    12000.00
00872             -34.00    12000.00
00873             -26.00    12000.00
00874             -24.00    12000.00
00875             -24.00    12000.00
00876             -28.00    12000.00
00877             -38.00    12000.00
00878             -34.00    12000.00
00879             -32.00    12000.00
00880             -26.00    12000.00
00881             -32.00    12000.00
00882             -30.00    12000.00
00883             -32.00    12000.00
00884             -38.00    12200.00
00885             -40.00    12000.00
00886             -38.00    12000.00
00887             -30.00    12000.00
00888             -30.00    12000.00
00889             -34.00    12000.00
00890             -40.00    11800.00
00891             -42.00    11800.00
00892             -42.00    11800.00
00893             -34.00    11800.00
00894             -30.00    11600.00
00895             -32.00    11800.00
00896             -34.00    11600.00
00897             -38.00    11400.00
00898             -38.00    11600.00
00899             -34.00    11400.00
00900             -32.00    11400.00
00901             -30.00    11200.00
00902             -26.00    11400.00
00903             -32.00    11200.00
00904             -32.00    11200.00
00905             -32.00    10800.00
00906             -30.00    11000.00
00907             -24.00    10800.00
00908             -22.00    10800.00
00909             -22.00    10600.00
00910             -26.00    10600.00
00911             -26.00    10600.00
00912             -26.00    10400.00
00913             -24.00    10400.00
00914             -18.00    10200.00
00915             -18.00    10000.00
00916             -16.00    10000.00
00917             -22.00    10000.00
00918             -24.00     9800.00
00919             -24.00     9600.00
00920             -22.00     9600.00
00921             -10.00     9400.00
00922             -14.00     9400.00
00923             -18.00     9200.00
00924             -22.00     9000.00
00925             -18.00     9000.00
00926             -18.00     8800.00
00927             -14.00     8600.00
00928             -14.00     8800.00
00929             -10.00     8400.00
00930             -10.00     8200.00
00931             -18.00     8000.00
00932             -16.00     8000.00
00933             -10.00     8000.00
00934              -8.00     7600.00
00935             -10.00     7600.00
00936             -16.00     7400.00
00937             -14.00     7200.00
00938             -10.00     7200.00
00939             -14.00     6800.00
00940             -14.00     6600.00
00941             -10.00     6600.00
00942             -10.00     6400.00
00943             -10.00     6200.00
00944             -14.00     6000.00
00945             -14.00     5800.00
00946             -12.00     5800.00
00947              -8.00     5600.00
00948             -10.00     5400.00
00949              -8.00     5400.00
00950             -10.00     5000.00
00951             -10.00     4800.00
00952             -14.00     4600.00
00953             -10.00     4400.00
00954             -10.00     4200.00
00955              -8.00     4200.00
00956              -8.00     4000.00
00957             -10.00     3800.00
00958             -10.00     3400.00
00959             -12.00     3400.00
00960              -8.00     3200.00
00961              -8.00     3200.00
00962              -6.00     3000.00
00963              -6.00     2600.00
00964              -8.00     2600.00
00965             -10.00     2400.00
00966              -8.00     2000.00
00967              -8.00     1800.00
00968              -6.00     1800.00
00969              -6.00     1600.00
00970              -6.00     1400.00
00971              -8.00     1000.00
00972             -10.00     1000.00
00973             -10.00      800.00
00974              -6.00      400.00
00975               0.00      400.00
00976               0.00      200.00
00977              -2.00      200.00
00978              -2.00        0.00
00979              24.00     -400.00
00980              18.00     -600.00
00981              -2.00     -800.00
00982             -12.00     -800.00
00983               0.00    -1000.00
00984               8.00    -1200.00
00985              24.00    -1400.00
00986             146.00    -1600.00
00987             246.00    -2000.00
00988             -98.00    -2400.00
00989            -254.00    -2400.00
00990            -176.00    -2400.00
00991              32.00    -2400.00
00992             114.00    -2400.00
00993             246.00    -3000.00
00994            -110.00    -3400.00
00995            -250.00    -3000.00
00996             218.00    -3600.00
00997              -8.00    -3600.00
00998             -40.00    -3800.00
00999              32.00    -4400.00
01000             -26.00    -3800.00
01001             104.00    -4600.00
01002             -46.00    -4600.00
01003             -74.00    -4800.00
01004             -24.00    -4800.00
01005              34.00    -4800.00
01006             112.00    -5400.00
01007             -72.00    -5200.00
01008             -16.00    -5600.00
01009              -2.00    -5800.00
01010              -2.00    -5800.00
01011              64.00    -6400.00
01012             -46.00    -6200.00
01013             -10.00    -6400.00
01014              18.00    -6600.00
01015              18.00    -6800.00
01016             -22.00    -7000.00
01017             -24.00    -7000.00
01018              30.00    -7400.00
01019               0.00    -7200.00
01020              26.00    -7600.00
01021             -10.00    -7400.00
01022             -18.00    -7800.00
01023              30.00    -8000.00
01024             -10.00    -8000.00
01025             -16.00    -8400.00
01026              14.00    -8400.00
01027              10.00    -8600.00
01028              10.00    -8600.00
01029               8.00    -8800.00
01030             -10.00    -9000.00
01031               0.00    -9000.00
01032              18.00    -9200.00
01033               2.00    -9400.00
01034               2.00    -9200.00
01035              16.00    -9400.00
01036               0.00    -9600.00
01037              10.00    -9600.00
01038               8.00    -9600.00
01039              -2.00    -9800.00
01040              22.00   -10000.00
01041              18.00   -10000.00
01042               2.00   -10200.00
01043               6.00   -10200.00
01044               2.00   -10400.00
01045               2.00   -10600.00
01046              22.00   -10400.00
01047              16.00   -10800.00
01048              10.00   -10600.00
01049              16.00   -10800.00
01050              10.00   -10800.00
01051               6.00   -10800.00
01052              16.00   -11000.00
01053              16.00   -11000.00
01054              18.00   -11200.00
01055              22.00   -11000.00
01056              14.00   -11200.00
01057              14.00   -11200.00
01058              14.00   -11200.00
01059              12.00   -11200.00
01060              22.00   -11400.00
01061              24.00   -11600.00
01062              22.00   -11400.00
01063              26.00   -11600.00
01064              16.00   -11600.00
01065              14.00   -11600.00
01066              16.00   -11600.00
01067              22.00   -11800.00
01068              24.00   -11600.00
01069              32.00   -11600.00
01070              32.00   -11600.00
01071              22.00   -11600.00
01072              12.00   -11600.00
01073              16.00   -11600.00
01074              32.00   -11600.00
01075              46.00   -11600.00
01076              30.00   -11600.00
01077              16.00   -11600.00
01078              14.00   -11600.00
01079              18.00   -11600.00
01080              36.00   -11400.00
01081              42.00   -11600.00
01082              32.00   -11600.00
01083              22.00   -11200.00
01084              20.00   -11400.00
01085              22.00   -11200.00
01086              32.00   -11200.00
01087              34.00   -11400.00
01088              30.00   -11200.00
01089              22.00   -11200.00
01090              18.00   -11200.00
01091              24.00   -11000.00
01092              26.00   -11200.00
01093              24.00   -11000.00
01094              24.00   -11000.00
01095              22.00   -10800.00
01096              22.00   -10800.00
01097              16.00   -10800.00
01098              18.00   -10400.00
01099              22.00   -10800.00
01100              22.00   -10400.00
01101              22.00   -10400.00
01102              18.00   -10200.00
01103              16.00   -10200.00
01104               8.00   -10000.00
01105               6.00    -9800.00
01106              10.00   -10000.00
01107              22.00    -9600.00
01108              22.00    -9600.00
01109              14.00    -9600.00
01110               8.00    -9400.00
01111               2.00    -9200.00
01112              10.00    -9200.00
01113              18.00    -9000.00
01114              18.00    -8800.00
01115              10.00    -8800.00
01116               2.00    -8800.00
01117               0.00    -8400.00
01118               6.00    -8400.00
01119              10.00    -8400.00
01120              10.00    -8000.00
01121              16.00    -8000.00
01122               6.00    -7800.00
01123              -2.00    -7800.00
01124               0.00    -7400.00
01125               4.00    -7400.00
01126              10.00    -7200.00
01127              12.00    -7000.00
01128              10.00    -7000.00
01129               8.00    -7000.00
01130              -2.00    -6800.00
01131             -10.00    -6600.00
01132               2.00    -6400.00
01133              12.00    -6200.00
01134              14.00    -6000.00
01135              10.00    -6000.00
01136              -8.00    -5800.00
01137             -14.00    -5600.00
01138               0.00    -5400.00
01139              10.00    -5200.00
01140               8.00    -5000.00
01141              -2.00    -4800.00
01142             -10.00    -4600.00
01143               0.00    -4600.00
01144              14.00    -4400.00
01145              -2.00    -4200.00
01146             -14.00    -3800.00
01147              -6.00    -3800.00
01148               4.00    -3600.00
01149              10.00    -3400.00
01150               2.00    -3200.00
01151              -6.00    -3000.00
01152             -10.00    -2800.00
01153              -8.00    -2800.00
01154              -2.00    -2400.00
01155               8.00    -2200.00
01156               8.00    -2200.00
01157              -4.00    -2000.00
01158              -8.00    -2000.00
01159             -10.00    -1600.00
01160             -10.00    -1400.00
01161               0.00    -1000.00
01162               6.00     -800.00
01163               6.00     -800.00
01164              -2.00     -600.00
01165             -14.00     -400.00
01166             -10.00     -200.00
01167               2.00      200.00
01168               6.00      200.00
01169               2.00      400.00
01170               6.00      400.00
01171              22.00      800.00
01172              16.00     1000.00
01173               0.00     1000.00
01174              -8.00     1200.00
01175               0.00     1400.00
01176              10.00     1600.00
01177             112.00     1800.00
01178             246.00     2200.00
01179              -8.00     2400.00
01180            -254.00     2400.00
01181            -254.00     2600.00
01182             -50.00     2800.00
01183             246.00     3200.00
01184             246.00     3400.00
01185            -254.00     3200.00
01186            -216.00     3600.00
01187             246.00     4000.00
01188            -182.00     3800.00
01189               0.00     4200.00
01190             104.00     4200.00
01191            -118.00     4200.00
01192             174.00     4400.00
01193             -98.00     4800.00
01194            -120.00     5000.00
01195              78.00     5200.00
01196               8.00     5400.00
01197              36.00     5400.00
01198             -56.00     5800.00
01199              18.00     6000.00
01200             -50.00     5800.00
01201              24.00     6400.00
01202              54.00     6400.00
01203            -110.00     6400.00
01204              40.00     6800.00
01205              -6.00     6600.00
01206              -6.00     7000.00
01207              -2.00     7200.00
01208             -42.00     7400.00
01209               6.00     7600.00
01210              14.00     7600.00
01211               0.00     8000.00
01212             -50.00     7600.00
01213               8.00     8200.00
01214             -12.00     8200.00
01215             -10.00     8400.00
01216              -2.00     8400.00
01217             -24.00     8600.00
01218             -22.00     8800.00
01219               2.00     9000.00
01220              -6.00     9000.00
01221             -24.00     9200.00
01222               0.00     9200.00
01223             -34.00     9400.00
01224              -8.00     9600.00
01225              -6.00     9600.00
01226              -8.00     9800.00
01227              -6.00    10000.00
01228             -26.00    10000.00
01229             -38.00    10000.00
01230             -14.00    10400.00
01231              10.00    10400.00
01232             -10.00    10400.00
01233             -10.00    10600.00
01234             -26.00    10600.00
01235             -32.00    10800.00
01236             -16.00    10800.00
01237             -10.00    10800.00
01238             -16.00    10800.00
01239             -10.00    11000.00
01240             -16.00    11200.00
01241             -24.00    11200.00
01242             -18.00    11400.00
01243             -26.00    11400.00
01244             -22.00    11400.00
01245             -14.00    11400.00
01246             -22.00    11600.00
01247             -26.00    11800.00
01248             -20.00    11600.00
01249             -26.00    11800.00
01250             -26.00    11800.00
01251             -16.00    11600.00
01252             -22.00    12000.00
01253             -22.00    12000.00
01254             -24.00    12000.00
01255             -32.00    12000.00
01256             -32.00    12000.00
01257             -26.00    12000.00
01258             -26.00    12000.00
01259             -22.00    12000.00
01260             -24.00    12000.00
01261             -34.00    12000.00
01262             -32.00    12000.00
01263             -32.00    12000.00
01264             -32.00    12000.00
01265             -26.00    12000.00
01266             -26.00    12000.00
01267             -32.00    12000.00
01268             -32.00    12000.00
01269             -38.00    12000.00
01270             -36.00    12000.00
01271             -32.00    12000.00
01272             -30.00    12000.00
01273             -34.00    11800.00
01274             -38.00    11800.00
01275             -46.00    11600.00
01276             -42.00    11800.00
01277             -32.00    11800.00
01278             -30.00    11600.00
01279             -30.00    11800.00
01280             -34.00    11600.00
01281             -42.00    11600.00
01282             -38.00    11400.00
01283             -30.00    11400.00
01284             -30.00    11400.00
01285             -32.00    11400.00
01286             -32.00    11200.00
01287             -30.00    11200.00
01288             -26.00    11200.00
01289             -26.00    11000.00
01290             -32.00    10800.00
01291             -28.00    10800.00
01292             -24.00    10800.00
01293             -26.00    10600.00
01294             -24.00    10600.00
01295             -32.00    10400.00
01296             -32.00    10400.00
01297             -24.00    10200.00
01298             -14.00    10200.00
01299             -10.00    10000.00
01300             -16.00    10000.00
01301             -26.00     9800.00
01302             -30.00     9800.00
01303             -24.00     9600.00
01304             -16.00     9400.00
01305             -10.00     9200.00
01306             -14.00     9200.00
01307             -18.00     9000.00
01308             -22.00     9000.00
01309             -20.00     8800.00
01310             -16.00     8600.00
01311             -10.00     8600.00
01312             -10.00     8400.00
01313             -18.00     8400.00
01314             -22.00     8200.00
01315             -18.00     8000.00
01316             -10.00     7800.00
01317              -8.00     7600.00
01318             -10.00     7600.00
01319             -14.00     7400.00
01320             -12.00     7200.00
01321             -14.00     7200.00
01322             -14.00     6800.00
01323             -10.00     6800.00
01324             -10.00     6600.00
01325             -10.00     6400.00
01326             -10.00     6400.00
01327             -14.00     6200.00
01328             -10.00     6000.00
01329             -10.00     5800.00
01330             -10.00     5600.00
01331             -10.00     5600.00
01332              -8.00     5200.00
01333             -10.00     5000.00
01334             -10.00     5000.00
01335             -10.00     4400.00
01336             -14.00     4600.00
01337             -10.00     4200.00
01338              -8.00     4200.00
01339              -2.00     4000.00
01340              -6.00     4000.00
01341             -10.00     3600.00
01342             -14.00     3400.00
01343             -10.00     3400.00
01344              -8.00     3200.00
01345              -6.00     2800.00
01346              -4.00     2800.00
01347             -10.00     2600.00
01348             -10.00     2400.00
01349              -8.00     2000.00
01350              -8.00     1800.00
01351              -6.00     1800.00
01352              -6.00     1600.00
01353              -6.00     1400.00
01354              -6.00     1200.00
01355              -6.00     1200.00
01356             -10.00      800.00
01357             -10.00      800.00
01358              -2.00      400.00
01359              -2.00      200.00
01360               0.00      200.00
01361               0.00        0.00
01362              14.00     -400.00
01363              24.00     -400.00
01364               2.00     -600.00
01365             -16.00     -800.00
01366              -8.00    -1000.00
01367               0.00    -1200.00
01368              10.00    -1200.00
01369              62.00    -1400.00
01370             226.00    -1600.00
01371             134.00    -2200.00
01372            -254.00    -2400.00
01373            -254.00    -2600.00
01374             -38.00    -2400.00
01375              42.00    -2400.00
01376             246.00    -2600.00
01377             234.00    -3200.00
01378            -254.00    -3000.00
01379              -2.00    -3400.00
01380             190.00    -3800.00
01381            -106.00    -3600.00
01382              42.00    -4200.00
01383             -26.00    -4000.00
01384              42.00    -4000.00
01385              70.00    -4600.00
01386             -98.00    -4600.00
01387             -34.00    -4800.00
01388             -24.00    -4800.00
01389             102.00    -5400.00
01390              32.00    -5200.00
01391             -74.00    -5200.00
01392              22.00    -6000.00
01393             -28.00    -5600.00
01394              46.00    -6200.00
01395              22.00    -6200.00
01396             -46.00    -6200.00
01397              16.00    -6800.00
01398              16.00    -6400.00
01399               8.00    -7000.00
01400             -38.00    -7000.00
01401              16.00    -7200.00
01402              18.00    -7400.00
01403               6.00    -7400.00
01404              18.00    -7600.00
01405             -32.00    -7800.00
01406              16.00    -8000.00
01407              28.00    -8000.00
01408             -16.00    -8400.00
01409               0.00    -8400.00
01410               8.00    -8400.00
01411               6.00    -8800.00
01412              16.00    -8800.00
01413               6.00    -8800.00
01414             -10.00    -9000.00
01415              10.00    -9200.00
01416              10.00    -9400.00
01417               0.00    -9200.00
01418              14.00    -9400.00
01419              10.00    -9600.00
01420               0.00    -9600.00
01421              14.00    -9600.00
01422              -2.00    -9800.00
01423               6.00   -10000.00
01424              26.00   -10200.00
01425              10.00   -10200.00
01426               6.00   -10400.00
01427               8.00   -10200.00
01428               0.00   -10400.00
01429              10.00   -10400.00
01430              22.00   -10800.00
01431              10.00   -10800.00
01432              14.00   -10800.00
01433              14.00   -10800.00
01434               6.00   -11000.00
01435              14.00   -11200.00
01436              16.00   -11000.00
01437              14.00   -11000.00
01438              24.00   -11200.00
01439              18.00   -11200.00
01440               8.00   -11200.00
01441              16.00   -11200.00
01442              18.00   -11200.00
01443              14.00   -11400.00
01444              26.00   -11200.00
01445              22.00   -11400.00
01446              16.00   -11600.00
01447              18.00   -11400.00
01448              16.00   -11600.00
01449              16.00   -11600.00
01450              30.00   -11600.00
01451              24.00   -11400.00
01452              26.00   -11600.00
01453              24.00   -11600.00
01454              18.00   -11600.00
01455              22.00   -11800.00
01456              30.00   -11600.00
01457              26.00   -11600.00
01458              30.00   -11600.00
01459              30.00   -11400.00
01460              22.00   -11600.00
01461              22.00   -11600.00
01462              24.00   -11400.00
01463              28.00   -11600.00
01464              32.00   -11600.00
01465              32.00   -11600.00
01466              30.00   -11600.00
01467              26.00   -11400.00
01468              22.00   -11400.00
01469              24.00   -11200.00
01470              32.00   -11200.00
01471              34.00   -11200.00
01472              26.00   -11200.00
01473              22.00   -11200.00
01474              22.00   -11000.00
01475              22.00   -11200.00
01476              26.00   -11000.00
01477              24.00   -11000.00
01478              24.00   -10800.00
01479              24.00   -10800.00
01480              18.00   -10800.00
01481              14.00   -10400.00
01482              18.00   -10600.00
01483              16.00   -10400.00
01484              22.00   -10400.00
01485              22.00   -10200.00
01486              16.00   -10200.00
01487              14.00   -10000.00
01488              14.00   -10000.00
01489              14.00   -10000.00
01490              16.00    -9800.00
01491              18.00    -9600.00
01492              14.00    -9600.00
01493              12.00    -9400.00
01494               8.00    -9400.00
01495               8.00    -9400.00
01496              10.00    -9200.00
01497              14.00    -8800.00
01498              10.00    -8800.00
01499              10.00    -8600.00
01500               6.00    -8600.00
01501               6.00    -8400.00
01502               8.00    -8400.00
01503               8.00    -8200.00
01504              10.00    -8000.00
01505              10.00    -8000.00
01506               6.00    -7800.00
01507               2.00    -7600.00
01508               6.00    -7400.00
01509               6.00    -7400.00
01510               6.00    -7200.00
01511               8.00    -7000.00
01512               6.00    -7000.00
01513               4.00    -6800.00
01514               2.00    -6800.00
01515               2.00    -6400.00
01516               0.00    -6400.00
01517               6.00    -6200.00
01518               4.00    -6200.00
01519               4.00    -5800.00
01520               2.00    -5600.00
01521               0.00    -5400.00
01522               0.00    -5200.00
01523               2.00    -5200.00
01524               2.00    -4800.00
01525               2.00    -4800.00
01526               0.00    -4600.00
01527               0.00    -4400.00
01528              -2.00    -4200.00
01529              -2.00    -4000.00
01530               2.00    -4000.00
01531               0.00    -3600.00
01532               0.00    -3600.00
01533               0.00    -3400.00
01534              -2.00    -3200.00
01535              -8.00    -3000.00
01536              -2.00    -2800.00
01537               2.00    -2800.00
01538               2.00    -2400.00
01539              -2.00    -2200.00
01540              -6.00    -2200.00
01541              -6.00    -2000.00
01542              -4.00    -1600.00
01543               0.00    -1400.00
01544               0.00    -1000.00
01545               0.00    -1000.00
01546              -4.00     -800.00
01547              -6.00     -600.00
01548              -6.00     -600.00
01549              -2.00     -200.00
01550              -2.00        0.00
01551              -2.00      200.00
01552              -2.00      200.00
01553               0.00      400.00
01554              18.00      600.00
01555              26.00      800.00
01556               0.00     1000.00
01557             -16.00     1200.00
01558              -4.00     1200.00
01559              10.00     1600.00
01560              38.00     1600.00
01561             222.00     2000.00
01562             232.00     2400.00
01563            -254.00     2400.00
01564            -254.00     2400.00
01565            -148.00     2600.00
01566              62.00     3000.00
01567             246.00     3200.00
01568             154.00     3200.00
01569            -254.00     3200.00
01570             176.00     3600.00
01571             152.00     3800.00
01572            -230.00     4000.00
01573             162.00     4400.00
01574             -62.00     4200.00
01575              26.00     4400.00
01576             118.00     4800.00
01577            -202.00     5000.00
01578               8.00     5000.00
01579              42.00     5400.00
01580              32.00     5600.00
01581              -4.00     5600.00
01582             -36.00     5800.00
01583               8.00     5800.00
01584             -66.00     6000.00
01585              90.00     6400.00
01586             -46.00     6200.00
01587             -42.00     6600.00
01588              56.00     6600.00
01589             -40.00     6800.00
01590               2.00     7200.00
01591             -42.00     7200.00
01592              -2.00     7600.00
01593              26.00     7400.00
01594              16.00     7600.00
01595             -38.00     7800.00
01596             -34.00     8000.00
01597              10.00     8200.00
01598             -22.00     8200.00
01599               6.00     8600.00
01600             -14.00     8400.00
01601             -28.00     8600.00
01602             -22.00     8800.00
01603              14.00     9000.00
01604             -10.00     9200.00
01605               0.00     9200.00
01606             -18.00     9200.00
01607             -42.00     9400.00
01608              -6.00     9600.00
01609             -10.00     9600.00
01610               0.00     9800.00
01611             -14.00    10000.00
01612             -32.00    10000.00
01613             -34.00    10000.00
01614               0.00    10200.00
01615               2.00    10200.00
01616             -10.00    10400.00
01617             -18.00    10400.00
01618             -38.00    10600.00
01619             -32.00    10600.00
01620             -10.00    10800.00
01621              -8.00    10800.00
01622             -14.00    11000.00
01623             -10.00    11200.00
01624             -18.00    11200.00
01625             -16.00    11200.00
01626             -24.00    11200.00
01627             -40.00    11400.00
01628             -24.00    11400.00
01629             -10.00    11400.00
01630             -16.00    11400.00
01631             -22.00    11800.00
01632             -30.00    11600.00
01633             -32.00    11800.00
01634             -18.00    11800.00
01635             -14.00    11800.00
01636             -20.00    12000.00
01637             -24.00    12000.00
01638             -32.00    12000.00
01639             -34.00    12000.00
01640             -26.00    12000.00
01641             -22.00    12000.00
01642             -24.00    12000.00
01643             -22.00    12000.00
01644             -30.00    12000.00
01645             -34.00    12000.00
01646             -36.00    12000.00
01647             -34.00    12000.00
01648             -30.00    12000.00
01649             -22.00    12000.00
01650             -26.00    12000.00
01651             -36.00    12000.00
01652             -42.00    12000.00
01653             -40.00    12000.00
01654             -32.00    12000.00
01655             -26.00    12000.00
01656             -30.00    12000.00
01657             -38.00    12000.00
01658             -46.00    11600.00
01659             -46.00    11800.00
01660             -40.00    11800.00
01661             -26.00    11800.00
01662             -26.00    11800.00
01663             -30.00    11600.00
01664             -40.00    11600.00
01665             -46.00    11600.00
01666             -38.00    11400.00
01667             -32.00    11400.00
01668             -26.00    11200.00
01669             -26.00    11200.00
01670             -32.00    11000.00
01671             -34.00    11200.00
01672             -38.00    11200.00
01673             -32.00    10800.00
01674             -24.00    10800.00
01675             -18.00    10800.00
01676             -24.00    10600.00
01677             -30.00    10600.00
01678             -30.00    10400.00
01679             -26.00    10400.00
01680             -24.00    10400.00
01681             -18.00    10200.00
01682             -16.00    10200.00
01683             -22.00    10000.00
01684             -24.00     9800.00
01685             -26.00     9800.00
01686             -24.00     9800.00
01687             -18.00     9600.00
01688             -18.00     9400.00
01689             -16.00     9200.00
01690             -16.00     9200.00
01691             -16.00     9000.00
01692             -22.00     9000.00
01693             -22.00     8800.00
01694             -16.00     8600.00
01695             -10.00     8400.00
01696             -10.00     8200.00
01697             -16.00     8200.00
01698             -18.00     8000.00
01699             -16.00     8000.00
01700             -16.00     7800.00
01701              -8.00     7600.00
01702              -8.00     7400.00
01703             -14.00     7400.00
01704             -10.00     7200.00
01705             -16.00     7200.00
01706             -14.00     6800.00
01707             -16.00     6800.00
01708             -10.00     6400.00
01709             -10.00     6600.00
01710             -10.00     6400.00
01711             -14.00     6000.00
01712              -8.00     6000.00
01713             -10.00     5800.00
01714              -8.00     5600.00
01715             -10.00     5400.00
01716              -6.00     5200.00
01717             -10.00     5000.00
01718             -10.00     4800.00
01719             -10.00     4800.00
01720              -8.00     4400.00
01721             -10.00     4200.00
01722              -8.00     4200.00
01723              -8.00     4000.00
01724              -8.00     3800.00
01725             -10.00     3600.00
01726             -10.00     3400.00
01727             -10.00     3200.00
01728              -8.00     3200.00
01729              -6.00     2800.00
01730              -6.00     2600.00
01731              -6.00     2600.00
01732              -8.00     2200.00
01733              -8.00     2000.00
01734              -8.00     1800.00
01735              -2.00     1600.00
01736               0.00     1600.00
01737              -8.00     1200.00
01738             -10.00     1200.00
01739             -10.00     1000.00
01740              -8.00      800.00
01741              -2.00      600.00
01742              -2.00      400.00
01743              -2.00      400.00
01744               0.00        0.00
01745               0.00     -200.00
01746              24.00     -200.00
01747              18.00     -400.00
01748              -8.00     -800.00
01749             -14.00     -800.00
01750               0.00    -1000.00
01751              10.00    -1200.00
01752              24.00    -1400.00
01753             128.00    -1400.00
01754             246.00    -2000.00
01755             -64.00    -2200.00
01756            -254.00    -2400.00
01757            -200.00    -2400.00
01758              26.00    -2600.00
01759              90.00    -2600.00
01760             246.00    -3000.00
01761             -52.00    -3200.00
01762            -254.00    -3200.00
01763             198.00    -3800.00
01764              20.00    -3600.00
01765             -58.00    -3600.00
01766              40.00    -4400.00
01767             -34.00    -4000.00
01768             106.00    -4600.00
01769             -24.00    -4600.00
01770             -78.00    -4800.00
01771             -24.00    -4800.00
01772              10.00    -5200.00
01773             114.00    -5200.00
01774             -56.00    -5200.00
01775             -24.00    -5600.00
01776               8.00    -5800.00
01777             -10.00    -5800.00
01778              70.00    -6200.00
01779             -32.00    -6000.00
01780             -14.00    -6400.00
01781              18.00    -6800.00
01782              18.00    -6400.00
01783             -16.00    -7000.00
01784             -22.00    -7000.00
01785              38.00    -7400.00
01786               2.00    -7200.00
01787              22.00    -7600.00
01788              -8.00    -7800.00
01789             -24.00    -7800.00
01790              34.00    -8200.00
01791               2.00    -8000.00
01792             -14.00    -8400.00
01793               8.00    -8400.00
01794               4.00    -8600.00
01795               8.00    -8800.00
01796              14.00    -8800.00
01797              -6.00    -9000.00
01798               0.00    -9200.00
01799              18.00    -9200.00
01800               4.00    -9400.00
01801               0.00    -9400.00
01802              16.00    -9400.00
01803               2.00    -9600.00
01804               8.00    -9600.00
01805               8.00    -9600.00
01806              -6.00   -10000.00
01807              20.00   -10000.00
01808              22.00   -10000.00
01809               2.00   -10200.00
01810               6.00   -10400.00
01811               6.00   -10400.00
01812               6.00   -10400.00
01813              20.00   -10600.00
01814              18.00   -10800.00
01815               6.00   -10800.00
01816              16.00   -10800.00
01817              10.00   -10800.00
01818               6.00   -11000.00
01819              16.00   -11000.00
01820              14.00   -11200.00
01821              22.00   -11200.00
01822              22.00   -11000.00
01823              14.00   -11200.00
01824              14.00   -11400.00
01825              16.00   -11200.00
01826              14.00   -11600.00
01827              16.00   -11400.00
01828              26.00   -11600.00
01829              22.00   -11600.00
01830              18.00   -11400.00
01831              18.00   -11600.00
01832              14.00   -11600.00
01833              22.00   -11600.00
01834              30.00   -11600.00
01835              26.00   -11600.00
01836              26.00   -11600.00
01837              22.00   -11800.00
01838              16.00   -11800.00
01839              24.00   -11600.00
01840              30.00   -11600.00
01841              30.00   -11600.00
01842              30.00   -11600.00
01843              24.00   -11600.00
01844              22.00   -11600.00
01845              24.00   -11600.00
01846              30.00   -11600.00
01847              32.00   -11600.00
01848              32.00   -11600.00
01849              32.00   -11400.00
01850              24.00   -11400.00
01851              30.00   -11600.00
01852              26.00   -11400.00
01853              26.00   -11200.00
01854              32.00   -11200.00
01855              30.00   -11200.00
01856              26.00   -11200.00
01857              24.00   -11200.00
01858              18.00   -11200.00
01859              22.00   -11200.00
01860              26.00   -11000.00
01861              30.00   -11000.00
01862              22.00   -10800.00
01863              22.00   -10800.00
01864              12.00   -10800.00
01865              14.00   -10600.00
01866              16.00   -10600.00
01867              20.00   -10400.00
01868              22.00   -10400.00
01869              18.00   -10400.00
01870              10.00   -10200.00
01871              10.00   -10000.00
01872              14.00   -10000.00
01873              16.00   -10000.00
01874              16.00    -9600.00
01875              14.00    -9600.00
01876              10.00    -9600.00
01877              10.00    -9600.00
01878               6.00    -9400.00
01879               8.00    -9200.00
01880              14.00    -9200.00
01881              10.00    -9000.00
01882              12.00    -8800.00
01883               8.00    -8800.00
01884               6.00    -8600.00
01885               6.00    -8400.00
01886               6.00    -8400.00
01887               6.00    -8200.00
01888               8.00    -8000.00
01889               8.00    -8000.00
01890               2.00    -7800.00
01891               2.00    -7400.00
01892               6.00    -7400.00
01893               8.00    -7200.00
01894               8.00    -7200.00
01895               4.00    -6800.00
01896               2.00    -6800.00
01897               2.00    -6800.00
01898               2.00    -6400.00
01899               6.00    -6400.00
01900               2.00    -6200.00
01901               4.00    -6000.00
01902               2.00    -5800.00
01903               6.00    -5600.00
01904               0.00    -5600.00
01905               0.00    -5400.00
01906               0.00    -5200.00
01907               6.00    -5000.00
01908               2.00    -4800.00
01909               2.00    -4600.00
01910               0.00    -4600.00
01911               0.00    -4400.00
01912               0.00    -4000.00
01913               0.00    -4000.00
01914               2.00    -3800.00
01915               2.00    -3600.00
01916               0.00    -3400.00
01917              -2.00    -3200.00
01918              -2.00    -3200.00
01919              -2.00    -3000.00
01920               0.00    -2800.00
01921               2.00    -2400.00
01922              -2.00    -2400.00
01923              -2.00    -2000.00
01924              -2.00    -2000.00
01925              -2.00    -2000.00
01926              -2.00    -1400.00
01927              -2.00    -1200.00
01928               0.00    -1000.00
01929               0.00     -800.00
01930              -6.00     -800.00
01931              -6.00     -600.00
01932              -8.00     -400.00
01933              -2.00     -400.00
01934              -2.00        0.00
01935               2.00        0.00
01936               6.00      200.00
01937               4.00      400.00
01938              22.00      800.00
01939              12.00     1000.00
01940              -6.00     1000.00
01941              -6.00     1200.00
01942               6.00     1400.00
01943              14.00     1600.00
01944              94.00     1800.00
01945             246.00     2200.00
01946              32.00     2200.00
01947            -254.00     2400.00
01948            -254.00     2600.00
01949             -62.00     2600.00
01950             246.00     2800.00
01951             246.00     3400.00
01952            -254.00     3000.00
01953            -254.00     3400.00
01954             246.00     4000.00
01955            -142.00     3800.00
01956             -62.00     4000.00
01957             136.00     4400.00
01958            -140.00     4200.00
01959             176.00     4400.00
01960             -96.00     4800.00
01961            -144.00     5000.00
01962             114.00     5400.00
01963              30.00     5400.00
01964              56.00     5600.00
01965             -70.00     5600.00
01966              22.00     6000.00
01967             -64.00     6000.00
01968             -18.00     6200.00
01969              48.00     6400.00
01970             -96.00     6400.00
01971              54.00     6800.00
01972               6.00     6600.00
01973              -6.00     7200.00
01974               8.00     7200.00
01975             -26.00     7200.00
01976              -4.00     7600.00
01977               8.00     7600.00
01978               2.00     8000.00
01979             -62.00     7600.00
01980             -10.00     8200.00
01981             -10.00     8200.00
01982               2.00     8400.00
01983              16.00     8400.00
01984             -22.00     8400.00
01985             -18.00     8800.00
01986               8.00     9000.00
01987             -10.00     9000.00
01988             -38.00     9200.00
01989             -10.00     9400.00
01990             -40.00     9200.00
01991             -10.00     9600.00
01992               2.00     9600.00
01993             -10.00     9800.00
01994               8.00    10000.00
01995              -8.00    10000.00
01996             -34.00    10000.00
01997             -28.00    10000.00
01998              -6.00    10200.00
01999             -24.00    10400.00
02000             -16.00    10400.00
02001             -22.00    10600.00
02002             -32.00    10600.00
02003              -2.00    10800.00
02004              -8.00    10800.00
02005             -16.00    10800.00
02006             -14.00    10800.00
02007             -24.00    11000.00
02008             -30.00    11200.00
02009             -24.00    11200.00
02010             -28.00    11200.00
02011             -18.00    11400.00
02012              -2.00    11400.00
02013             -16.00    11400.00
02014             -24.00    11800.00
02015             -24.00    11600.00
02016             -32.00    11800.00
02017             -30.00    11600.00
02018             -22.00    11800.00
02019             -24.00    11800.00
02020             -22.00    12000.00
02021             -26.00    11800.00
02022             -34.00    12000.00
02023             -26.00    11800.00
02024             -18.00    12000.00
02025             -26.00    12000.00
02026             -26.00    12000.00
02027             -30.00    12000.00
02028             -36.00    12000.00
02029             -34.00    12000.00
02030             -32.00    12000.00
02031             -30.00    12000.00
02032             -24.00    12000.00
02033             -26.00    12000.00
02034             -34.00    12000.00
02035             -38.00    12000.00
02036             -40.00    12000.00
02037             -38.00    11800.00
02038             -30.00    12000.00
02039             -30.00    11800.00
02040             -32.00    11800.00
02041             -32.00    11600.00
02042             -40.00    11800.00
02043             -40.00    12000.00
02044             -34.00    11600.00
02045             -32.00    11800.00
02046             -32.00    11800.00
02047             -34.00    11600.00
02048             -38.00    11600.00
02049             -38.00    11600.00
02050             -32.00    11400.00
02051             -30.00    11200.00
02052             -26.00    11200.00
02053             -28.00    11200.00
02054             -32.00    11200.00
02055             -32.00    11000.00
02056             -34.00    10800.00
02057             -32.00    10800.00
02058             -24.00    10800.00
02059             -22.00    10600.00
02060             -26.00    10600.00
02061             -30.00    10600.00
02062             -26.00    10400.00
02063             -30.00    10400.00
02064             -24.00    10000.00
02065             -18.00    10000.00
02066             -20.00    10000.00
02067             -24.00     9800.00
02068             -22.00     9800.00
02069             -24.00     9600.00
02070             -22.00     9600.00
02071             -18.00     9600.00
02072             -18.00     9200.00
02073             -14.00     9200.00
02074             -14.00     9000.00
02075             -24.00     9000.00
02076             -24.00     9000.00
02077             -16.00     8800.00
02078             -10.00     8400.00
02079              -8.00     8200.00
02080             -10.00     8200.00
02081             -22.00     8200.00
02082             -24.00     8000.00
02083             -24.00     8000.00
02084             -10.00     7800.00
02085               0.00     7600.00
02086              -2.00     7400.00
02087             -10.00     7200.00
02088             -22.00     7200.00
02089             -24.00     7000.00
02090             -16.00     6800.00
02091              -6.00     6800.00
02092               0.00     6400.00
02093              -8.00     6400.00
02094             -16.00     6000.00
02095             -16.00     6000.00
02096             -10.00     5800.00
02097             -10.00     5800.00
02098             -10.00     5600.00
02099              -8.00     5200.00
02100              -8.00     5200.00
02101              -6.00     5000.00
02102             -10.00     4800.00
02103             -16.00     4400.00
02104             -16.00     4400.00
02105              -8.00     4200.00
02106              -2.00     4000.00
02107               2.00     3800.00
02108              -2.00     3800.00
02109             -16.00     3600.00
02110             -16.00     3400.00
02111              -8.00     3200.00
02112               0.00     2800.00
02113              -2.00     2800.00
02114              -8.00     2600.00
02115             -12.00     2400.00
02116             -10.00     2200.00
02117              -8.00     2000.00
02118              -6.00     1800.00
02119              -4.00     1600.00
02120              -6.00     1600.00
02121              -6.00     1200.00
02122              -8.00     1000.00
02123              -8.00     1000.00
02124              -8.00      800.00
02125              -8.00      600.00
02126              -2.00      400.00
02127               0.00      200.00
02128               0.00        0.00
02129              12.00     -200.00
02130              26.00     -400.00
02131               6.00     -600.00
02132             -14.00     -800.00
02133              -8.00     -800.00
02134               6.00    -1200.00
02135              10.00    -1200.00
02136              50.00    -1400.00
02137             214.00    -1600.00
02138             160.00    -2200.00
02139            -254.00    -2400.00
02140            -254.00    -2400.00
02141             -62.00    -2800.00
02142              40.00    -2400.00
02143             224.00    -2400.00
02144             246.00    -3200.00
02145            -254.00    -3200.00
02146             -50.00    -3200.00
02147             210.00    -3800.00
02148            -102.00    -3200.00
02149              32.00    -4000.00
02150             -18.00    -4200.00
02151              28.00    -4000.00
02152              86.00    -4800.00
02153             -94.00    -4600.00
02154             -40.00    -5200.00
02155             -26.00    -4800.00
02156              88.00    -5200.00
02157              50.00    -5200.00
02158             -80.00    -5200.00
02159              20.00    -6000.00
02160             -24.00    -5600.00
02161              42.00    -6200.00
02162              32.00    -6000.00
02163             -50.00    -6200.00
02164              16.00    -6800.00
02165              16.00    -6400.00
02166              14.00    -6800.00
02167             -34.00    -7000.00
02168              10.00    -7000.00
02169              24.00    -7200.00
02170               0.00    -7200.00
02171              22.00    -7800.00
02172             -32.00    -7600.00
02173              14.00    -8000.00
02174              32.00    -8000.00
02175             -14.00    -8000.00
02176              -2.00    -8400.00
02177               8.00    -8400.00
02178               6.00    -8600.00
02179              16.00    -8800.00
02180               8.00    -9000.00
02181             -10.00    -9000.00
02182              10.00    -9200.00
02183              14.00    -9200.00
02184               0.00    -9400.00
02185              14.00    -9400.00
02186              14.00    -9600.00
02187              -2.00    -9600.00
02188              10.00    -9800.00
02189               0.00    -9800.00
02190               6.00   -10000.00
02191              26.00   -10000.00
02192              14.00   -10200.00
02193               0.00   -10200.00
02194               6.00   -10400.00
02195               6.00   -10600.00
02196              10.00   -10400.00
02197              18.00   -10800.00
02198               8.00   -10800.00
02199              12.00   -10800.00
02200              18.00   -10800.00
02201               6.00   -11000.00
02202               8.00   -10800.00
02203              16.00   -11000.00
02204              14.00   -11000.00
02205              20.00   -11200.00
02206              18.00   -11200.00
02207               8.00   -11400.00
02208              16.00   -11400.00
02209              14.00   -11200.00
02210              14.00   -11400.00
02211              22.00   -11600.00
02212              26.00   -11600.00
02213              18.00   -11600.00
02214              14.00   -11600.00
02215              16.00   -11600.00
02216              16.00   -11600.00
02217              26.00   -11600.00
02218              24.00   -11600.00
02219              24.00   -11600.00
02220              28.00   -11600.00
02221              18.00   -11600.00
02222              18.00   -11800.00
02223              30.00   -11600.00
02224              26.00   -11600.00
02225              32.00   -11600.00
02226              30.00   -11600.00
02227              22.00   -11600.00
02228              20.00   -11600.00
02229              28.00   -11600.00
02230              30.00   -11600.00
02231              32.00   -11600.00
02232              32.00   -11400.00
02233              26.00   -11600.00
02234              24.00   -11400.00
02235              24.00   -11200.00
02236              26.00   -11400.00
02237              32.00   -11400.00
02238              32.00   -11200.00
02239              28.00   -11200.00
02240              26.00   -11200.00
02241              22.00   -11200.00
02242              22.00   -11000.00
02243              24.00   -11000.00
02244              26.00   -11000.00
02245              24.00   -10800.00
02246              22.00   -10800.00
02247              20.00   -10800.00
02248              16.00   -10800.00
02249              18.00   -10400.00
02250              22.00   -10600.00
02251              22.00   -10400.00
02252              18.00   -10200.00
02253              16.00   -10200.00
02254              14.00   -10200.00
02255              10.00   -10000.00
02256              14.00   -10000.00
02257              16.00    -9800.00
02258              16.00    -9800.00
02259              14.00    -9600.00
02260              10.00    -9600.00
02261               8.00    -9400.00
02262               6.00    -9200.00
02263               8.00    -9200.00
02264              12.00    -9200.00
02265              14.00    -8800.00
02266              10.00    -8800.00
02267               6.00    -8600.00
02268               2.00    -8400.00
02269               6.00    -8400.00
02270              10.00    -8400.00
02271               8.00    -8000.00
02272               8.00    -8000.00
02273               2.00    -7800.00
02274               2.00    -7600.00
02275               2.00    -7600.00
02276               6.00    -7200.00
02277               8.00    -7200.00
02278               8.00    -7200.00
02279               2.00    -7000.00
02280               2.00    -7000.00
02281               2.00    -6600.00
02282               2.00    -6400.00
02283               4.00    -6400.00
02284               6.00    -6400.00
02285               4.00    -6000.00
02286               6.00    -5800.00
02287               4.00    -5600.00
02288               0.00    -5400.00
02289               0.00    -5400.00
02290               0.00    -5000.00
02291               6.00    -4800.00
02292               2.00    -4800.00
02293               2.00    -4600.00
02294               2.00    -4400.00
02295              -4.00    -4400.00
02296               0.00    -4000.00
02297               2.00    -3800.00
02298               6.00    -3600.00
02299               2.00    -3600.00
02300               0.00    -3400.00
02301              -6.00    -3000.00
02302               4.00    -3000.00
02303               0.00    -2800.00
02304              -2.00    -2600.00
02305               2.00    -2400.00
02306               0.00    -2200.00
02307               0.00    -2000.00
02308               0.00    -1800.00
02309              -8.00    -1600.00
02310              -2.00    -1400.00
02311              10.00    -1200.00
02312               0.00    -1000.00
02313              -6.00     -800.00
02314              -2.00     -600.00
02315              -8.00     -600.00
02316              -2.00     -400.00
02317               0.00        0.00
02318              -2.00      200.00
02319               0.00      200.00
02320               2.00      400.00
02321               8.00      600.00
02322              26.00      800.00
02323               8.00     1000.00
02324             -10.00     1000.00
02325               0.00     1200.00
02326               8.00     1600.00
02327              26.00     1800.00
02328             200.00     2000.00
02329             246.00     2200.00
02330            -218.00     2400.00
02331            -254.00     2600.00
02332            -170.00     2600.00
02333              34.00     2800.00
02334             246.00     3200.00
02335             232.00     3200.00
02336            -254.00     3200.00
02337             112.00     3600.00
02338             208.00     3600.00
02339            -242.00     3800.00
02340             144.00     4200.00
02341             -36.00     4200.00
02342              -6.00     4400.00
02343             138.00     4600.00
02344            -200.00     5000.00
02345              -8.00     5200.00
02346              54.00     5200.00
02347              24.00     5400.00
02348               6.00     5400.00
02349             -46.00     5800.00
02350              16.00     5800.00
02351             -64.00     6000.00
02352              86.00     6400.00
02353             -32.00     6200.00
02354             -66.00     6600.00
02355              60.00     6800.00
02356             -32.00     6800.00
02357              12.00     7200.00
02358             -36.00     7200.00
02359             -18.00     7400.00
02360              14.00     7400.00
02361              18.00     8000.00
02362             -24.00     7600.00
02363             -32.00     8000.00
02364              14.00     8200.00
02365             -26.00     8000.00
02366               0.00     8400.00
02367             -10.00     8400.00
02368             -20.00     8600.00
02369             -14.00     9000.00
02370               8.00     9000.00
02371             -24.00     9200.00
02372             -10.00     9200.00
02373              -8.00     9400.00
02374             -32.00     9400.00
02375               0.00     9800.00
02376             -14.00     9600.00
02377              -6.00     9800.00
02378             -10.00    10000.00
02379             -26.00    10000.00
02380             -34.00    10000.00
02381              -2.00    10200.00
02382               0.00    10400.00
02383             -14.00    10400.00
02384             -14.00    10600.00
02385             -32.00    10800.00
02386             -26.00    10600.00
02387             -10.00    10800.00
02388             -16.00    10800.00
02389             -18.00    10800.00
02390             -12.00    11200.00
02391             -26.00    11200.00
02392             -22.00    11200.00
02393             -22.00    11400.00
02394             -28.00    11400.00
02395             -14.00    11400.00
02396             -16.00    11600.00
02397             -24.00    11400.00
02398             -22.00    11800.00
02399             -24.00    11600.00
02400             -32.00    11800.00
02401             -30.00    11800.00
02402             -24.00    11800.00
02403             -20.00    11800.00
02404             -16.00    12000.00
02405             -22.00    12000.00
02406             -32.00    11800.00
02407             -38.00    12000.00
02408             -38.00    12000.00
02409             -26.00    12000.00
02410             -14.00    12000.00
02411             -24.00    12000.00
02412             -40.00    12000.00
02413             -42.00    12000.00
02414             -36.00    12000.00
02415             -26.00    12000.00
02416             -20.00    12000.00
02417             -26.00    12000.00
02418             -34.00    12000.00
02419             -40.00    12200.00
02420             -40.00    12000.00
02421             -38.00    12000.00
02422             -38.00    12000.00
02423             -30.00    12000.00
02424             -26.00    12000.00
02425             -32.00    12000.00
02426             -46.00    11800.00
02427             -48.00    11800.00
02428             -34.00    11800.00
02429             -22.00    11800.00
02430             -26.00    11600.00
02431             -34.00    11600.00
02432             -46.00    11400.00
02433             -42.00    11600.00
02434             -30.00    11400.00
02435             -24.00    11400.00
02436             -24.00    11400.00
02437             -28.00    11200.00
02438             -34.00    11200.00
02439             -34.00    11200.00
02440             -26.00    11000.00
02441             -24.00    10800.00
02442             -24.00    10800.00
02443             -24.00    10600.00
02444             -32.00    10600.00
02445             -30.00    10400.00
02446             -26.00    10400.00
02447             -22.00    10200.00
02448             -16.00    10200.00
02449             -18.00    10000.00
02450             -22.00    10000.00
02451             -24.00    10000.00
02452             -26.00     9600.00
02453             -24.00     9600.00
02454             -18.00     9600.00
02455             -16.00     9600.00
02456             -16.00     9400.00
02457             -16.00     9200.00
02458             -22.00     9000.00
02459             -18.00     9000.00
02460             -18.00     8800.00
02461             -16.00     8800.00
02462             -14.00     8400.00
02463             -14.00     8400.00
02464             -16.00     8400.00
02465             -16.00     8000.00
02466             -18.00     8000.00
02467             -14.00     7600.00
02468             -10.00     7600.00
02469             -10.00     7600.00
02470             -14.00     7400.00
02471             -14.00     7200.00
02472             -16.00     7200.00
02473             -14.00     6800.00
02474             -10.00     6800.00
02475             -10.00     6600.00
02476             -10.00     6400.00
02477             -10.00     6400.00
02478             -10.00     6000.00
02479             -10.00     5800.00
02480             -12.00     5800.00
02481              -8.00     5600.00
02482              -8.00     5600.00
02483              -8.00     5400.00
02484             -10.00     5200.00
02485              -8.00     5000.00
02486             -12.00     4800.00
02487             -10.00     4400.00
02488              -6.00     4400.00
02489              -4.00     4200.00
02490              -2.00     4000.00
02491              -8.00     3800.00
02492             -10.00     3600.00
02493             -10.00     3400.00
02494              -6.00     3200.00
02495               0.00     3200.00
02496              -2.00     2800.00
02497              -6.00     2800.00
02498             -10.00     2600.00
02499              -8.00     2400.00
02500              -8.00     2000.00
02501              -6.00     2000.00
02502              -2.00     1800.00
02503              -2.00     1600.00
02504              -8.00     1600.00
02505              -8.00     1200.00
02506              -6.00     1000.00
02507              -6.00      800.00
02508              -6.00      600.00
02509              -2.00      400.00
02510              -2.00      200.00
02511               0.00      200.00
02512               0.00        0.00
02513              22.00     -400.00
02514              18.00     -600.00
02515              -6.00     -600.00
02516             -14.00     -800.00
02517               0.00    -1000.00
02518               6.00    -1200.00
02519              22.00    -1200.00
02520             112.00    -1400.00
02521             246.00    -1800.00
02522             -26.00    -2400.00
02523            -254.00    -2400.00
02524            -232.00    -2600.00
02525              18.00    -2400.00
02526              74.00    -2600.00
02527             246.00    -2800.00
02528               8.00    -3400.00
02529            -254.00    -3000.00
02530             174.00    -3800.00
02531              52.00    -3600.00
02532             -78.00    -3600.00
02533              46.00    -4400.00
02534             -38.00    -4000.00
02535              98.00    -4600.00
02536             -10.00    -4600.00
02537             -92.00    -4800.00
02538             -26.00    -5000.00
02539               6.00    -4800.00
02540             122.00    -5400.00
02541             -46.00    -5400.00
02542             -40.00    -5800.00
02543              10.00    -6000.00
02544             -18.00    -5600.00
02545              70.00    -6400.00
02546             -26.00    -6200.00
02547             -18.00    -6400.00
02548              20.00    -6600.00
02549              18.00    -6600.00
02550             -10.00    -7000.00
02551             -26.00    -7000.00
02552              30.00    -7200.00
02553               2.00    -7200.00
02554              20.00    -7600.00
02555              -2.00    -7600.00
02556             -26.00    -7800.00
02557              34.00    -8000.00
02558               8.00    -8000.00
02559             -14.00    -8000.00
02560               8.00    -8400.00
02561               8.00    -8400.00
02562              10.00    -8800.00
02563              16.00    -8800.00
02564              -2.00    -9000.00
02565              -6.00    -9200.00
02566              16.00    -9200.00
02567               8.00    -9400.00
02568               2.00    -9400.00
02569              18.00    -9400.00
02570               4.00    -9600.00
02571               4.00    -9600.00
02572               8.00    -9600.00
02573              -2.00   -10000.00
02574              18.00   -10000.00
02575              24.00   -10000.00
02576               4.00   -10200.00
02577               4.00   -10200.00
02578               0.00   -10400.00
02579               4.00   -10600.00
02580              16.00   -10400.00
02581              18.00   -10600.00
02582               8.00   -10800.00
02583              16.00   -10800.00
02584               8.00   -10800.00
02585               0.00   -10800.00
02586              16.00   -11000.00
02587              16.00   -11200.00
02588              16.00   -11200.00
02589              24.00   -11200.00
02590               8.00   -11200.00
02591               8.00   -11400.00
02592              14.00   -11200.00
02593              14.00   -11400.00
02594              18.00   -11400.00
02595              24.00   -11600.00
02596              20.00   -11600.00
02597              16.00   -11600.00
02598              14.00   -11600.00
02599              10.00   -11800.00
02600              18.00   -11600.00
02601              30.00   -11600.00
02602              24.00   -11600.00
02603              26.00   -11800.00
02604              20.00   -11600.00
02605              16.00   -11600.00
02606              24.00   -11600.00
02607              26.00   -11600.00
02608              26.00   -11600.00
02609              30.00   -11600.00
02610              28.00   -11600.00
02611              22.00   -11600.00
02612              24.00   -11600.00
02613              26.00   -11600.00
02614              26.00   -11400.00
02615              34.00   -11400.00
02616              34.00   -11400.00
02617              30.00   -11600.00
02618              30.00   -11400.00
02619              22.00   -11200.00
02620              24.00   -11200.00
02621              32.00   -11200.00
02622              32.00   -11200.00
02623              32.00   -11200.00
02624              26.00   -11200.00
02625              18.00   -11200.00
02626              22.00   -11000.00
02627              30.00   -11000.00
02628              30.00   -11000.00
02629              24.00   -10800.00
02630              24.00   -10800.00
02631              22.00   -10800.00
02632              22.00   -10600.00
02633              18.00   -10400.00
02634              16.00   -10400.00
02635              22.00   -10400.00
02636              24.00   -10200.00
02637              16.00   -10000.00
02638              10.00   -10200.00
02639              10.00   -10000.00
02640              12.00   -10000.00
02641              16.00    -9600.00
02642              18.00    -9400.00
02643              14.00    -9600.00
02644              10.00    -9600.00
02645               2.00    -9400.00
02646               6.00    -9200.00
02647              10.00    -9200.00
02648              10.00    -9000.00
02649              12.00    -8800.00
02650              10.00    -8800.00
02651               4.00    -8600.00
02652              -2.00    -8400.00
02653               2.00    -8400.00
02654               8.00    -8200.00
02655              14.00    -8000.00
02656              14.00    -7800.00
02657               2.00    -7800.00
02658               0.00    -7800.00
02659               0.00    -7400.00
02660               4.00    -7200.00
02661              10.00    -7200.00
02662              10.00    -7000.00
02663               0.00    -7000.00
02664              -2.00    -6800.00
02665              -2.00    -6600.00
02666               6.00    -6200.00
02667              14.00    -6400.00
02668               6.00    -6200.00
02669               0.00    -6000.00
02670               0.00    -5600.00
02671               0.00    -5600.00
02672              -2.00    -5400.00
02673               0.00    -5200.00
02674               2.00    -5200.00
02675              10.00    -4800.00
02676               6.00    -4800.00
02677              -8.00    -4600.00
02678              -8.00    -4400.00
02679               2.00    -4000.00
02680              10.00    -3800.00
02681              14.00    -3800.00
02682               2.00    -3600.00
02683             -10.00    -3400.00
02684             -10.00    -3200.00
02685              -2.00    -3200.00
02686               8.00    -2800.00
02687              10.00    -2600.00
02688               0.00    -2400.00
02689              -6.00    -2200.00
02690              -2.00    -2200.00
02691              -2.00    -1800.00
02692              -4.00    -1600.00
02693               0.00    -1600.00
02694               2.00    -1400.00
02695               6.00    -1200.00
02696               2.00     -800.00
02697              -6.00     -800.00
02698              -6.00     -600.00
02699              -2.00     -400.00
02700              -8.00     -400.00
02701              -2.00      200.00
02702               4.00      200.00
02703               6.00      200.00
02704               6.00      400.00
02705              22.00      600.00
02706              16.00     1000.00
02707              -6.00     1200.00
02708             -10.00     1200.00
02709              -2.00     1200.00
02710              16.00     1600.00
02711              82.00     1800.00
02712             246.00     2000.00
02713              70.00     2400.00
02714            -254.00     2400.00
02715            -254.00     2600.00
02716             -72.00     2600.00
02717             222.00     2800.00
02718             246.00     3400.00
02719            -238.00     3200.00
02720            -254.00     3400.00
02721             246.00     3800.00
02722             -98.00     3600.00
02723             -90.00     4200.00
02724             150.00     4400.00
02725            -114.00     4200.00
02726             154.00     4400.00
02727             -42.00     4800.00
02728            -180.00     5000.00
02729              70.00     5200.00
02730              22.00     5600.00
02731              50.00     5400.00
02732             -42.00     5600.00
02733              -2.00     6000.00
02734             -40.00     6000.00
02735             -14.00     6200.00
02736              80.00     6400.00
02737             -98.00     6400.00
02738              24.00     6800.00
02739              14.00     6800.00
02740             -24.00     7000.00
02741               6.00     7200.00
02742             -46.00     7400.00
02743               6.00     7400.00
02744              16.00     7600.00
02745              10.00     7800.00
02746             -48.00     7600.00
02747               2.00     8200.00
02748              -2.00     8400.00
02749             -20.00     8400.00
02750              -2.00     8800.00
02751             -22.00     8400.00
02752             -16.00     8800.00
02753              -2.00     9000.00
02754               0.00     9200.00
02755             -24.00     9200.00
02756               6.00     9400.00
02757             -30.00     9400.00
02758             -18.00     9600.00
02759              -8.00     9600.00
02760             -14.00     9800.00
02761               0.00     9800.00
02762             -12.00    10000.00
02763             -32.00    10000.00
02764             -22.00    10200.00
02765               2.00    10400.00
02766             -10.00    10400.00
02767             -10.00    10400.00
02768             -20.00    10600.00
02769             -34.00    10600.00
02770             -20.00    10800.00
02771             -10.00    11000.00
02772             -10.00    10800.00
02773             -14.00    10800.00
02774             -22.00    11200.00
02775             -30.00    11200.00
02776             -16.00    11200.00
02777             -22.00    11400.00
02778             -20.00    11400.00
02779             -16.00    11400.00
02780             -26.00    11600.00
02781             -30.00    11600.00
02782             -22.00    11800.00
02783             -22.00    11800.00
02784             -26.00    11600.00
02785             -24.00    11800.00
02786             -26.00    11800.00
02787             -24.00    11800.00
02788             -24.00    12000.00
02789             -26.00    11800.00
02790             -26.00    12000.00
02791             -26.00    12000.00
02792             -30.00    12000.00
02793             -30.00    12000.00
02794             -30.00    12000.00
02795             -32.00    12000.00
02796             -32.00    12000.00
02797             -30.00    12000.00
02798             -32.00    12000.00
02799             -30.00    11800.00
02800             -30.00    12000.00
02801             -32.00    12000.00
02802             -34.00    12000.00
02803             -40.00    12000.00
02804             -40.00    12000.00
02805             -32.00    12000.00
02806             -30.00    12000.00
02807             -32.00    12000.00
02808             -36.00    11800.00
02809             -42.00    12000.00
02810             -40.00    11800.00
02811             -34.00    11800.00
02812             -30.00    11800.00
02813             -30.00    11600.00
02814             -34.00    11600.00
02815             -34.00    11600.00
02816             -36.00    11600.00
02817             -34.00    11800.00
02818             -30.00    11400.00
02819             -24.00    11200.00
02820             -26.00    11000.00
02821             -28.00    11200.00
02822             -30.00    11200.00
02823             -30.00    11000.00
02824             -28.00    10800.00
02825             -26.00    10800.00
02826             -26.00    10600.00
02827             -24.00    10800.00
02828             -26.00    10600.00
02829             -24.00    10400.00
02830             -24.00    10400.00
02831             -22.00    10400.00
02832             -18.00    10000.00
02833             -18.00    10000.00
02834             -16.00    10000.00
02835             -22.00     9800.00
02836             -24.00     9800.00
02837             -22.00     9600.00
02838             -18.00     9600.00
02839             -16.00     9200.00
02840             -16.00     9200.00
02841             -16.00     9200.00
02842             -18.00     9000.00
02843             -18.00     9000.00
02844             -16.00     8800.00
02845             -14.00     8600.00
02846             -14.00     8400.00
02847             -14.00     8400.00
02848             -16.00     8200.00
02849             -16.00     8000.00
02850             -16.00     8000.00
02851             -14.00     7600.00
02852             -10.00     7600.00
02853             -10.00     7400.00
02854             -10.00     7200.00
02855             -14.00     7200.00
02856             -16.00     7000.00
02857             -14.00     6800.00
02858             -16.00     6600.00
02859             -10.00     6600.00
02860             -10.00     6400.00
02861              -8.00     6200.00
02862             -12.00     6000.00
02863             -10.00     5800.00
02864             -10.00     5600.00
02865              -8.00     5600.00
02866              -8.00     5400.00
02867              -8.00     5200.00
02868             -10.00     5000.00
02869             -10.00     4800.00
02870             -14.00     4400.00
02871             -10.00     4400.00
02872              -6.00     4200.00
02873              -2.00     4000.00
02874              -6.00     4000.00
02875              -8.00     3800.00
02876             -10.00     3600.00
02877              -8.00     3400.00
02878              -6.00     3200.00
02879              -6.00     3000.00
02880              -6.00     2800.00
02881              -6.00     2600.00
02882              -6.00     2600.00
02883              -8.00     2000.00
02884              -8.00     2200.00
02885              -6.00     1800.00
02886              -2.00     1600.00
02887              -2.00     1600.00
02888              -6.00     1200.00
02889              -8.00     1000.00
02890              -8.00     1000.00
02891              -6.00      800.00
02892               0.00      400.00
02893               0.00      400.00
02894              -2.00      200.00
02895              -4.00        0.00
02896              10.00     -200.00
02897              30.00     -400.00
02898              10.00     -600.00
02899             -16.00     -800.00
02900             -14.00     -800.00
02901               0.00    -1000.00
02902               8.00    -1200.00
02903              52.00    -1400.00
02904             202.00    -1600.00
02905             184.00    -2200.00
02906            -232.00    -2400.00
02907            -254.00    -2400.00
02908             -82.00    -2600.00
02909              38.00    -2600.00
02910             192.00    -2600.00
02911             246.00    -3200.00
02912            -254.00    -3000.00
02913             -96.00    -3200.00
02914             222.00    -3800.00
02915             -94.00    -3400.00
02916              16.00    -3800.00
02917              -8.00    -4200.00
02918              16.00    -3800.00
02919              96.00    -4800.00
02920             -90.00    -4600.00
02921             -56.00    -4800.00
02922             -30.00    -4800.00
02923              86.00    -5200.00
02924              66.00    -5400.00
02925             -88.00    -5200.00
02926              14.00    -6000.00
02927             -24.00    -5600.00
02928              26.00    -6000.00
02929              46.00    -6200.00
02930             -46.00    -6000.00
02931              14.00    -6600.00
02932              14.00    -6400.00
02933               6.00    -7000.00
02934             -42.00    -7000.00
02935               6.00    -7000.00
02936              38.00    -7400.00
02937              10.00    -7400.00
02938              18.00    -7800.00
02939             -48.00    -7600.00
02940              -2.00    -7800.00
02941              50.00    -8000.00
02942               8.00    -8000.00
02943              -2.00    -8400.00
02944              -4.00    -8400.00
02945             -10.00    -8600.00
02946              10.00    -8800.00
02947              22.00    -8800.00
02948               8.00    -9200.00
02949              12.00    -9000.00
02950              10.00    -9200.00
02951             -12.00    -9400.00
02952               8.00    -9400.00
02953              22.00    -9400.00
02954               6.00    -9600.00
02955              12.00    -9600.00
02956              -2.00    -9600.00
02957               0.00   -10000.00
02958              32.00   -10000.00
02959              20.00   -10200.00
02960               2.00   -10400.00
02961               6.00   -10200.00
02962              -2.00   -10400.00
02963               8.00   -10600.00
02964              22.00   -10400.00
02965              20.00   -10800.00
02966              16.00   -10800.00
02967              16.00   -10800.00
02968               0.00   -11000.00
02969               8.00   -11000.00
02970              18.00   -11000.00
02971              12.00   -11200.00
02972              18.00   -11200.00
02973              22.00   -11200.00
02974              10.00   -11200.00
02975              16.00   -11200.00
02976              14.00   -11200.00
02977              12.00   -11200.00
02978              20.00   -11200.00
02979              24.00   -11600.00
02980              22.00   -11600.00
02981              22.00   -11800.00
02982              14.00   -11600.00
02983              10.00   -11800.00
02984              22.00   -11600.00
02985              30.00   -11600.00
02986              26.00   -11600.00
02987              26.00   -11600.00
02988              22.00   -11600.00
02989              22.00   -11600.00
02990              24.00   -11600.00
02991              22.00   -11600.00
02992              28.00   -11800.00
02993              30.00   -11600.00
02994              32.00   -11600.00
02995              30.00   -11600.00
02996              24.00   -11600.00
02997              22.00   -11600.00
02998              28.00   -11400.00
02999              38.00   -11600.00
03000              32.00   -11600.00
03001              30.00   -11600.00
03002              24.00   -11200.00
03003              22.00   -11200.00
03004              32.00   -11400.00
03005              34.00   -11200.00
03006              32.00   -11200.00
03007              26.00   -11200.00
03008              22.00   -11000.00
03009              22.00   -11000.00
03010              26.00   -11000.00
03011              32.00   -10800.00
03012              26.00   -10800.00
03013              22.00   -11000.00
03014              18.00   -10800.00
03015              16.00   -10800.00
03016              24.00   -10400.00
03017              24.00   -10400.00
03018              24.00   -10400.00
03019              16.00   -10400.00
03020              14.00   -10200.00
03021              14.00   -10000.00
03022              14.00   -10000.00
03023              16.00    -9800.00
03024              18.00    -9600.00
03025              22.00    -9800.00
03026              10.00    -9600.00
03027               6.00    -9400.00
03028               8.00    -9400.00
03029              10.00    -9200.00
03030              22.00    -9200.00
03031              18.00    -9000.00
03032               2.00    -8800.00
03033               2.00    -8800.00
03034               8.00    -8600.00
03035              10.00    -8600.00
03036               6.00    -8400.00
03037               0.00    -8400.00
03038               8.00    -8000.00
03039              18.00    -7800.00
03040              14.00    -8000.00
03041              -6.00    -7600.00
03042              -8.00    -7400.00
03043               6.00    -7400.00
03044              16.00    -7200.00
03045              14.00    -7200.00
03046               6.00    -7000.00
03047              -2.00    -6800.00
03048              -8.00    -6800.00
03049              -6.00    -6400.00
03050               8.00    -6200.00
03051              14.00    -6200.00
03052               8.00    -6000.00
03053               0.00    -6000.00
03054              -4.00    -5600.00
03055              -8.00    -5600.00
03056               0.00    -5400.00
03057               6.00    -5200.00
03058              14.00    -5000.00
03059               6.00    -4800.00
03060              -2.00    -4800.00
03061             -10.00    -4600.00
03062               0.00    -4400.00
03063               6.00    -4000.00
03064               2.00    -3800.00
03065              -2.00    -3600.00
03066              -6.00    -3600.00
03067              -2.00    -3400.00
03068               4.00    -3000.00
03069               4.00    -3000.00
03070              -2.00    -2800.00
03071              -2.00    -2600.00
03072              -2.00    -2400.00
03073              -2.00    -2200.00
03074               6.00    -2000.00
03075               2.00    -2000.00
03076               0.00    -1400.00
03077              -6.00    -1400.00
03078              -6.00    -1400.00
03079               0.00    -1000.00
03080               2.00     -800.00
03081               4.00     -800.00
03082              -4.00     -400.00
03083              -6.00     -400.00
03084              -2.00        0.00
03085               0.00      200.00
03086               2.00      200.00
03087               0.00      400.00
03088              16.00      600.00
03089              32.00      800.00
03090               8.00     1000.00
03091             -14.00     1200.00
03092             -10.00     1200.00
03093               8.00     1400.00
03094              30.00     1600.00
03095             178.00     2000.00
03096             246.00     2400.00
03097            -170.00     2200.00
03098            -254.00     2400.00
03099            -192.00     2600.00
03100               8.00     2800.00
03101             246.00     3200.00
03102             246.00     3400.00
03103            -254.00     3200.00
03104              48.00     3600.00
03105             246.00     3800.00
03106            -254.00     4000.00
03107             114.00     4200.00
03108              -2.00     4200.00
03109             -30.00     4400.00
03110             160.00     4800.00
03111            -186.00     5000.00
03112             -42.00     5200.00
03113              58.00     5200.00
03114              22.00     5600.00
03115              16.00     5600.00
03116             -50.00     5600.00
03117              18.00     6000.00
03118             -70.00     6000.00
03119              72.00     6400.00
03120             -14.00     6200.00
03121             -78.00     6400.00
03122              62.00     6800.00
03123             -26.00     6800.00
03124              10.00     7200.00
03125             -34.00     7200.00
03126             -28.00     7600.00
03127              16.00     7600.00
03128              16.00     7800.00
03129             -18.00     7800.00
03130             -38.00     8000.00
03131              18.00     8000.00
03132             -20.00     8200.00
03133              -2.00     8400.00
03134             -12.00     8400.00
03135             -24.00     8800.00
03136             -14.00     8800.00
03137               8.00     9000.00
03138             -14.00     9200.00
03139             -10.00     9200.00
03140              -2.00     9400.00
03141             -32.00     9400.00
03142               2.00     9600.00
03143             -10.00     9800.00
03144              -6.00     9800.00
03145             -14.00    10000.00
03146             -24.00    10000.00
03147             -30.00    10200.00
03148              -2.00    10200.00
03149               2.00    10400.00
03150             -18.00    10400.00
03151             -10.00    10600.00
03152             -26.00    10600.00
03153             -26.00    10600.00
03154             -12.00    10800.00
03155             -14.00    10800.00
03156             -14.00    10800.00
03157             -10.00    11000.00
03158             -22.00    11200.00
03159             -22.00    11200.00
03160             -18.00    11400.00
03161             -26.00    11400.00
03162             -16.00    11400.00
03163             -16.00    11400.00
03164             -24.00    11600.00
03165             -26.00    11800.00
03166             -26.00    11600.00
03167             -30.00    11800.00
03168             -22.00    12000.00
03169             -16.00    11800.00
03170             -22.00    11800.00
03171             -22.00    11800.00
03172             -26.00    12000.00
03173             -34.00    12000.00
03174             -32.00    12000.00
03175             -30.00    12000.00
03176             -26.00    12000.00
03177             -24.00    12000.00
03178             -26.00    12000.00
03179             -32.00    12000.00
03180             -32.00    12000.00
03181             -34.00    12000.00
03182             -32.00    12000.00
03183             -26.00    12000.00
03184             -32.00    12000.00
03185             -34.00    12000.00
03186             -40.00    12000.00
03187             -40.00    11800.00
03188             -32.00    12000.00
03189             -30.00    12000.00
03190             -30.00    12000.00
03191             -34.00    11800.00
03192             -38.00    11800.00
03193             -42.00    11800.00
03194             -36.00    11600.00
03195             -34.00    11800.00
03196             -32.00    11600.00
03197             -32.00    11800.00
03198             -34.00    11600.00
03199             -38.00    11600.00
03200             -34.00    11600.00
03201             -32.00    11400.00
03202             -28.00    11400.00
03203             -30.00    11200.00
03204             -30.00    11400.00
03205             -32.00    11200.00
03206             -26.00    11200.00
03207             -26.00    10800.00
03208             -26.00    10800.00
03209             -24.00    10800.00
03210             -24.00    10600.00
03211             -22.00    10600.00
03212             -24.00    10600.00
03213             -30.00    10400.00
03214             -26.00    10200.00
03215             -24.00    10400.00
03216             -16.00    10000.00
03217             -14.00     9800.00
03218             -18.00    10000.00
03219             -24.00     9800.00
03220             -24.00     9600.00
03221             -18.00     9600.00
03222             -16.00     9600.00
03223             -14.00     9200.00
03224             -14.00     9200.00
03225             -18.00     9000.00
03226             -18.00     9000.00
03227             -22.00     8800.00
03228             -16.00     8600.00
03229             -14.00     8400.00
03230             -10.00     8400.00
03231             -16.00     8200.00
03232             -16.00     8000.00
03233             -18.00     8000.00
03234             -16.00     8000.00
03235             -10.00     7600.00
03236             -10.00     7600.00
03237             -14.00     7400.00
03238             -10.00     7200.00
03239             -16.00     7200.00
03240             -16.00     7000.00
03241             -16.00     6800.00
03242             -10.00     6600.00
03243             -10.00     6600.00
03244             -10.00     6200.00
03245             -14.00     6000.00
03246             -14.00     6000.00
03247             -12.00     5600.00
03248             -14.00     5600.00
03249             -10.00     5400.00
03250              -6.00     5200.00
03251             -10.00     5200.00
03252             -10.00     4800.00
03253             -14.00     4600.00
03254             -10.00     4400.00
03255              -8.00     4400.00
03256              -4.00     4200.00
03257              -6.00     4000.00
03258              -6.00     3800.00
03259              -8.00     3600.00
03260             -10.00     3600.00
03261              -8.00     3200.00
03262              -6.00     3200.00
03263              -6.00     2800.00
03264              -6.00     2800.00
03265              -8.00     2800.00
03266              -6.00     2400.00
03267              -6.00     2000.00
03268              -8.00     2000.00
03269              -6.00     1600.00
03270              -6.00     1600.00
03271              -4.00     1400.00
03272              -2.00     1200.00
03273              -8.00     1200.00
03274              -8.00      800.00
03275              -6.00      800.00
03276              -2.00      400.00
03277               0.00      200.00
03278               2.00        0.00
03279               0.00        0.00
03280              18.00     -400.00
03281              22.00     -400.00
03282              -2.00     -600.00
03283             -14.00     -800.00
03284              -2.00     -800.00
03285               8.00    -1200.00
03286              16.00    -1400.00
03287             102.00    -1400.00
03288             246.00    -2000.00
03289              10.00    -2400.00
03290            -254.00    -2400.00
03291            -254.00    -2600.00
03292              10.00    -2800.00
03293              62.00    -2600.00
03294             246.00    -2600.00
03295              62.00    -3200.00
03296            -254.00    -3000.00
03297             142.00    -3600.00
03298              86.00    -3800.00
03299             -90.00    -3600.00
03300              50.00    -4200.00
03301             -38.00    -4000.00
03302              88.00    -4400.00
03303               8.00    -4600.00
03304             -98.00    -4800.00
03305             -28.00    -5200.00
03306              -2.00    -4800.00
03307             122.00    -5400.00
03308             -30.00    -5400.00
03309             -48.00    -5600.00
03310              16.00    -6000.00
03311             -26.00    -5600.00
03312              66.00    -6400.00
03313             -16.00    -6000.00
03314             -26.00    -6400.00
03315              18.00    -6800.00
03316              16.00    -6600.00
03317              -6.00    -7000.00
03318             -32.00    -7000.00
03319              32.00    -7400.00
03320               6.00    -7400.00
03321              16.00    -7400.00
03322               0.00    -7600.00
03323             -30.00    -7600.00
03324              32.00    -8000.00
03325              10.00    -8000.00
03326             -16.00    -8400.00
03327               6.00    -8400.00
03328               8.00    -8400.00
03329              10.00    -8800.00
03330              14.00    -8800.00
03331               0.00    -8800.00
03332              -2.00    -9000.00
03333              18.00    -9200.00
03334               8.00    -9200.00
03335               0.00    -9400.00
03336              18.00    -9400.00
03337               6.00    -9600.00
03338               6.00    -9600.00
03339              10.00    -9600.00
03340               0.00    -9800.00
03341              16.00   -10000.00
03342              30.00   -10000.00
03343               6.00   -10200.00
03344               8.00   -10400.00
03345               6.00   -10200.00
03346               2.00   -10400.00
03347              16.00   -10400.00
03348              22.00   -10600.00
03349              10.00   -10800.00
03350              16.00   -10800.00
03351              10.00   -10800.00
03352               6.00   -11000.00
03353              16.00   -11000.00
03354              16.00   -11200.00
03355              18.00   -11200.00
03356              24.00   -11000.00
03357              14.00   -11200.00
03358               8.00   -11200.00
03359              16.00   -11200.00
03360              14.00   -11200.00
03361              16.00   -11200.00
03362              24.00   -11600.00
03363              22.00   -11600.00
03364              16.00   -11600.00
03365              18.00   -11600.00
03366              14.00   -11600.00
03367              18.00   -11600.00
03368              28.00   -11600.00
03369              22.00   -11600.00
03370              24.00   -11600.00
03371              22.00   -11600.00
03372              16.00   -11600.00
03373              22.00   -11800.00
03374              28.00   -11600.00
03375              30.00   -11600.00
03376              30.00   -11600.00
03377              24.00   -11600.00
03378              22.00   -11600.00
03379              22.00   -11600.00
03380              26.00   -11400.00
03381              30.00   -11600.00
03382              34.00   -11400.00
03383              30.00   -11600.00
03384              26.00   -11400.00
03385              26.00   -11600.00
03386              24.00   -11400.00
03387              30.00   -11200.00
03388              32.00   -11400.00
03389              32.00   -11200.00
03390              24.00   -11200.00
03391              24.00   -11200.00
03392              22.00   -11200.00
03393              24.00   -11000.00
03394              24.00   -11000.00
03395              30.00   -10800.00
03396              24.00   -11000.00
03397              22.00   -10800.00
03398              16.00   -10600.00
03399              16.00   -10800.00
03400              22.00   -10400.00
03401              18.00   -10400.00
03402              20.00   -10400.00
03403              22.00   -10200.00
03404              16.00   -10200.00
03405              14.00   -10000.00
03406              16.00   -10200.00
03407              16.00    -9600.00
03408              16.00    -9800.00
03409              18.00    -9600.00
03410              12.00    -9600.00
03411              10.00    -9400.00
03412               8.00    -9400.00
03413               8.00    -9200.00
03414              10.00    -9200.00
03415              14.00    -8800.00
03416              14.00    -8800.00
03417              10.00    -8800.00
03418               6.00    -8600.00
03419               6.00    -8400.00
03420               6.00    -8400.00
03421               8.00    -8200.00
03422              10.00    -8000.00
03423               8.00    -8000.00
03424               4.00    -7800.00
03425               2.00    -7800.00
03426               0.00    -7600.00
03427               6.00    -7400.00
03428               6.00    -7200.00
03429               6.00    -7000.00
03430               4.00    -7000.00
03431               2.00    -6600.00
03432               0.00    -6600.00
03433               2.00    -6400.00
03434               2.00    -6200.00
03435               4.00    -6200.00
03436               6.00    -6000.00
03437               2.00    -5800.00
03438               0.00    -5600.00
03439               0.00    -5400.00
03440               0.00    -5200.00
03441               2.00    -5200.00
03442               2.00    -4800.00
03443               2.00    -4800.00
03444               0.00    -4600.00
03445              -2.00    -4400.00
03446              -2.00    -4000.00
03447               2.00    -4000.00
03448               2.00    -3800.00
03449               0.00    -3600.00
03450               0.00    -3400.00
03451               0.00    -3200.00
03452              -2.00    -3000.00
03453              -2.00    -3000.00
03454              -2.00    -2800.00
03455               0.00    -2600.00
03456               0.00    -2400.00
03457               0.00    -2200.00
03458              -2.00    -2000.00
03459              -2.00    -1600.00
03460              -4.00    -1600.00
03461               0.00    -1400.00
03462               6.00    -1200.00
03463               0.00    -1000.00
03464              -6.00     -800.00
03465              -8.00     -600.00
03466               0.00     -400.00
03467              -2.00     -400.00
03468              -2.00        0.00
03469               4.00      200.00
03470               2.00      200.00
03471               6.00      600.00
03472              24.00      800.00
03473              18.00      800.00
03474              -4.00     1000.00
03475             -10.00     1200.00
03476               6.00     1600.00
03477              18.00     1600.00
03478              70.00     1800.00
03479             246.00     2200.00
03480             106.00     2400.00
03481            -254.00     2400.00
03482            -254.00     2600.00
03483             -80.00     2800.00
03484             176.00     2800.00
03485             246.00     3400.00
03486            -158.00     3200.00
03487            -254.00     3200.00
03488             246.00     3600.00
03489             -48.00     3800.00
03490            -128.00     4000.00
03491             158.00     4200.00
03492            -130.00     4200.00
03493             134.00     4400.00
03494              10.00     4800.00
03495            -176.00     5000.00
03496              64.00     5200.00
03497               6.00     5400.00
03498              32.00     5600.00
03499             -34.00     5600.00
03500               2.00     6000.00
03501             -26.00     5800.00
03502             -30.00     6400.00
03503              86.00     6400.00
03504             -96.00     6400.00
03505              14.00     6800.00
03506              24.00     6800.00
03507             -24.00     6800.00
03508              10.00     7200.00
03509             -56.00     7400.00
03510              -2.00     7400.00
03511              16.00     7600.00
03512              18.00     7800.00
03513             -40.00     8000.00
03514              -6.00     8000.00
03515               0.00     8200.00
03516             -24.00     8200.00
03517              -2.00     8400.00
03518             -22.00     8600.00
03519             -14.00     8800.00
03520               6.00     9000.00
03521               6.00     9000.00
03522             -34.00     9200.00
03523              -6.00     9200.00
03524             -26.00     9400.00
03525             -10.00     9400.00
03526               6.00     9600.00
03527             -14.00     9800.00
03528             -10.00     9800.00
03529             -26.00    10000.00
03530             -32.00    10000.00
03531             -16.00    10000.00
03532              14.00    10400.00
03533              -2.00    10400.00
03534             -16.00    10400.00
03535             -24.00    10800.00
03536             -38.00    10600.00
03537             -16.00    10800.00
03538               0.00    10800.00
03539             -10.00    11000.00
03540             -14.00    11000.00
03541             -18.00    11200.00
03542             -26.00    11200.00
03543             -14.00    11200.00
03544             -20.00    11200.00
03545             -22.00    11400.00
03546             -14.00    11400.00
03547             -16.00    11800.00
03548             -24.00    11600.00
03549             -22.00    11800.00
03550             -26.00    11800.00
03551             -32.00    11600.00
03552             -18.00    11800.00
03553             -16.00    11600.00
03554             -18.00    11800.00
03555             -24.00    12000.00
03556             -32.00    12000.00
03557             -32.00    11800.00
03558             -28.00    12000.00
03559             -26.00    12000.00
03560             -22.00    12000.00
03561             -24.00    12000.00
03562             -30.00    12000.00
03563             -34.00    12000.00
03564             -34.00    12000.00
03565             -34.00    11800.00
03566             -30.00    12000.00
03567             -24.00    12000.00
03568             -32.00    12000.00
03569             -34.00    12000.00
03570             -42.00    12000.00
03571             -40.00    12000.00
03572             -34.00    12000.00
03573             -30.00    12000.00
03574             -32.00    12000.00
03575             -34.00    12000.00
03576             -42.00    12000.00
03577             -42.00    11800.00
03578             -36.00    11800.00
03579             -34.00    11600.00
03580             -32.00    11800.00
03581             -32.00    11600.00
03582             -34.00    11600.00
03583             -38.00    11600.00
03584             -34.00    11400.00
03585             -32.00    11400.00
03586             -26.00    11400.00
03587             -32.00    11400.00
03588             -32.00    11200.00
03589             -34.00    11200.00
03590             -32.00    11000.00
03591             -26.00    10800.00
03592             -22.00    10800.00
03593             -22.00    10800.00
03594             -24.00    10600.00
03595             -24.00    10600.00
03596             -26.00    10600.00
03597             -26.00    10400.00
03598             -20.00    10400.00
03599             -18.00    10200.00
03600             -18.00    10200.00
03601             -22.00    10000.00
03602             -24.00    10000.00
03603             -22.00     9600.00
03604             -18.00     9600.00
03605             -16.00     9600.00
03606             -14.00     9600.00
03607             -14.00     9200.00
03608             -14.00     9200.00
03609             -16.00     9000.00
03610             -20.00     9000.00
03611             -18.00     8800.00
03612             -16.00     8600.00
03613             -14.00     8400.00
03614             -10.00     8200.00
03615             -10.00     8200.00
03616             -16.00     8000.00
03617             -18.00     8000.00
03618             -16.00     7800.00
03619             -10.00     7600.00
03620             -10.00     7400.00
03621              -8.00     7400.00
03622             -10.00     7200.00
03623             -16.00     7000.00
03624             -16.00     6800.00
03625             -14.00     6600.00
03626             -10.00     6400.00
03627              -8.00     6400.00
03628             -10.00     6400.00
03629             -14.00     6000.00
03630             -14.00     5800.00
03631             -12.00     5600.00
03632              -8.00     5600.00
03633              -8.00     5400.00
03634              -8.00     5200.00
03635             -10.00     5000.00
03636             -14.00     4800.00
03637             -12.00     4800.00
03638              -8.00     4400.00
03639              -6.00     4200.00
03640              -8.00     4200.00
03641             -10.00     4000.00
03642             -10.00     3600.00
03643             -10.00     3600.00
03644             -10.00     3400.00
03645              -8.00     3200.00
03646              -6.00     3000.00
03647              -6.00     2800.00
03648              -8.00     2800.00
03649              -8.00     2600.00
03650              -8.00     2200.00
03651              -8.00     2000.00
03652              -6.00     2000.00
03653              -6.00     1600.00
03654              -6.00     1600.00
03655              -4.00     1200.00
03656              -8.00     1200.00
03657             -10.00     1000.00
03658              -6.00      800.00
03659              -2.00      400.00
03660               0.00      400.00
03661               0.00      200.00
03662              -2.00        0.00
03663               6.00        0.00
03664              28.00     -400.00
03665              12.00     -400.00
03666             -10.00     -600.00
03667             -10.00     -800.00
03668               6.00    -1200.00
03669              14.00    -1000.00
03670              42.00    -1400.00
03671             184.00    -1600.00
03672             206.00    -2200.00
03673            -194.00    -2400.00
03674            -254.00    -2400.00
03675            -102.00    -2600.00
03676              38.00    -2600.00
03677             168.00    -2400.00
03678             246.00    -3000.00
03679            -224.00    -3200.00
03680            -138.00    -3200.00
03681             230.00    -3800.00
03682             -78.00    -3400.00
03683               2.00    -3800.00
03684               6.00    -4000.00
03685               2.00    -4000.00
03686             102.00    -4600.00
03687             -80.00    -4600.00
03688             -60.00    -4800.00
03689             -30.00    -4800.00
03690              64.00    -5200.00
03691              82.00    -5400.00
03692             -82.00    -5200.00
03693               6.00    -5800.00
03694             -16.00    -5800.00
03695              22.00    -6000.00
03696              50.00    -6400.00
03697             -50.00    -6000.00
03698               6.00    -6800.00
03699              14.00    -6400.00
03700              16.00    -6800.00
03701             -32.00    -7000.00
03702              -2.00    -7200.00
03703              30.00    -7400.00
03704              -2.00    -7200.00
03705              22.00    -7600.00
03706             -30.00    -7800.00
03707              -2.00    -7800.00
03708              34.00    -8000.00
03709             -10.00    -8000.00
03710             -10.00    -8400.00
03711               8.00    -8400.00
03712              10.00    -8600.00
03713              18.00    -8800.00
03714              14.00    -8800.00
03715              -8.00    -9000.00
03716               2.00    -9000.00
03717              14.00    -9200.00
03718               0.00    -9200.00
03719              14.00    -9400.00
03720              16.00    -9400.00
03721               2.00    -9600.00
03722              10.00    -9800.00
03723               0.00    -9800.00
03724               0.00   -10000.00
03725              28.00   -10000.00
03726              18.00   -10000.00
03727               6.00   -10200.00
03728               6.00   -10400.00
03729               2.00   -10400.00
03730              10.00   -10600.00
03731              22.00   -10600.00
03732              14.00   -10800.00
03733              12.00   -10800.00
03734              16.00   -10800.00
03735               6.00   -11000.00
03736              10.00   -11000.00
03737              18.00   -11000.00
03738              16.00   -11000.00
03739              18.00   -11200.00
03740              18.00   -11200.00
03741              10.00   -11200.00
03742              14.00   -11200.00
03743              22.00   -11200.00
03744              16.00   -11400.00
03745              22.00   -11400.00
03746              24.00   -11400.00
03747              16.00   -11600.00
03748              22.00   -11600.00
03749              16.00   -11600.00
03750              10.00   -11600.00
03751              22.00   -11600.00
03752              24.00   -11600.00
03753              24.00   -11800.00
03754              22.00   -11600.00
03755              18.00   -11600.00
03756              18.00   -11600.00
03757              24.00   -11600.00
03758              30.00   -11600.00
03759              32.00   -11600.00
03760              30.00   -11600.00
03761              18.00   -11600.00
03762              18.00   -11600.00
03763              26.00   -11600.00
03764              30.00   -11600.00
03765              32.00   -11600.00
03766              30.00   -11600.00
03767              26.00   -11400.00
03768              30.00   -11400.00
03769              24.00   -11600.00
03770              26.00   -11400.00
03771              30.00   -11200.00
03772              32.00   -11200.00
03773              26.00   -11200.00
03774              24.00   -11200.00
03775              22.00   -11200.00
03776              22.00   -11000.00
03777              22.00   -11000.00
03778              26.00   -11000.00
03779              26.00   -11000.00
03780              28.00   -10800.00
03781              22.00   -10800.00
03782              16.00   -10800.00
03783              14.00   -10600.00
03784              18.00   -10400.00
03785              22.00   -10400.00
03786              22.00   -10200.00
03787              18.00   -10200.00
03788              16.00   -10200.00
03789              14.00   -10000.00
03790              14.00   -10000.00
03791              14.00   -10000.00
03792              16.00    -9800.00
03793              18.00    -9600.00
03794              16.00    -9600.00
03795               6.00    -9400.00
03796               4.00    -9200.00
03797               8.00    -9200.00
03798              14.00    -8800.00
03799              14.00    -9000.00
03800              10.00    -8800.00
03801               8.00    -8600.00
03802               6.00    -8600.00
03803               8.00    -8400.00
03804               8.00    -8400.00
03805              10.00    -8000.00
03806               8.00    -8000.00
03807               6.00    -7800.00
03808               6.00    -7800.00
03809               2.00    -7600.00
03810               6.00    -7200.00
03811               6.00    -7400.00
03812               6.00    -7200.00
03813               6.00    -7000.00
03814               2.00    -7000.00
03815               0.00    -6800.00
03816               0.00    -6600.00
03817               2.00    -6400.00
03818               4.00    -6200.00
03819               6.00    -6000.00
03820               2.00    -5800.00
03821               0.00    -5600.00
03822               0.00    -5600.00
03823               2.00    -5200.00
03824               0.00    -5200.00
03825               0.00    -4800.00
03826               0.00    -4800.00
03827               2.00    -4600.00
03828               0.00    -4400.00
03829              -2.00    -4200.00
03830              -2.00    -4200.00
03831               0.00    -3800.00
03832               2.00    -3600.00
03833               0.00    -3600.00
03834               0.00    -3200.00
03835               0.00    -3200.00
03836              -2.00    -3000.00
03837              -2.00    -2800.00
03838               0.00    -2800.00
03839               2.00    -2400.00
03840              -2.00    -2200.00
03841              -2.00    -2000.00
03842              -2.00    -2000.00
03843              -2.00    -1600.00
03844               0.00    -1400.00
03845               0.00    -1200.00
03846              -2.00    -1000.00
03847               0.00     -800.00
03848              -2.00     -800.00
03849              -2.00     -600.00
03850              -2.00     -200.00
03851               0.00     -200.00
03852               0.00      200.00
03853               2.00      200.00
03854               4.00      400.00
03855              14.00      600.00
03856              26.00      800.00
03857              10.00      800.00
03858             -10.00     1200.00
03859              -8.00     1200.00
03860               6.00     1600.00
03861              22.00     1600.00
03862             162.00     2000.00
03863             246.00     2400.00
03864            -128.00     2400.00
03865            -254.00     2400.00
03866            -218.00     2800.00
03867              -6.00     2600.00
03868             246.00     3200.00
03869             246.00     3400.00
03870            -254.00     3000.00
03871             -22.00     3600.00
03872             246.00     3800.00
03873            -246.00     3800.00
03874              88.00     4200.00
03875              32.00     4200.00
03876             -54.00     4400.00
03877             174.00     4600.00
03878            -176.00     4800.00
03879             -66.00     5000.00
03880              72.00     5400.00
03881              24.00     5600.00
03882              22.00     5600.00
03883             -60.00     5800.00
03884              18.00     5800.00
03885             -66.00     5800.00
03886              64.00     6400.00
03887               6.00     6400.00
03888             -90.00     6400.00
03889              58.00     6800.00
03890             -26.00     6600.00
03891               2.00     7200.00
03892             -24.00     7200.00
03893             -28.00     7400.00
03894              14.00     7600.00
03895              14.00     7800.00
03896             -16.00     7600.00
03897             -46.00     7800.00
03898              14.00     8200.00
03899             -18.00     8200.00
03900              -6.00     8400.00
03901              -8.00     8400.00
03902             -20.00     8800.00
03903             -16.00     8800.00
03904               6.00     9000.00
03905             -14.00     9000.00
03906             -16.00     9200.00
03907              -2.00     9600.00
03908             -32.00     9200.00
03909              -2.00     9600.00
03910             -10.00     9800.00
03911              -8.00     9800.00
03912              -6.00     9800.00
03913             -24.00    10000.00
03914             -32.00    10000.00
03915              -8.00    10000.00
03916               0.00    10400.00
03917             -14.00    10400.00
03918             -10.00    10400.00
03919             -26.00    10600.00
03920             -26.00    10800.00
03921             -14.00    10800.00
03922             -14.00    10800.00
03923             -18.00    10800.00
03924             -10.00    11200.00
03925             -18.00    11200.00
03926             -18.00    11400.00
03927             -18.00    11200.00
03928             -32.00    11200.00
03929             -18.00    11400.00
03930             -10.00    11400.00
03931             -18.00    11600.00
03932             -24.00    11400.00
03933             -24.00    11800.00
03934             -30.00    11600.00
03935             -26.00    11800.00
03936             -18.00    11800.00
03937             -22.00    11800.00
03938             -18.00    11800.00
03939             -24.00    12000.00
03940             -34.00    11800.00
03941             -28.00    12000.00
03942             -26.00    12000.00
03943             -26.00    12000.00
03944             -24.00    12000.00
03945             -28.00    12000.00
03946             -38.00    12000.00
03947             -34.00    12000.00
03948             -34.00    12000.00
03949             -30.00    12000.00
03950             -24.00    12000.00
03951             -26.00    12000.00
03952             -38.00    12000.00
03953             -42.00    12000.00
03954             -42.00    12000.00
03955             -34.00    12000.00
03956             -30.00    12000.00
03957             -30.00    11800.00
03958             -34.00    11800.00
03959             -40.00    12000.00
03960             -42.00    11800.00
03961             -40.00    11600.00
03962             -32.00    11800.00
03963             -32.00    11600.00
03964             -32.00    11600.00
03965             -36.00    11600.00
03966             -40.00    11600.00
03967             -40.00    11400.00
03968             -32.00    11600.00
03969             -26.00    11400.00
03970             -24.00    11400.00
03971             -30.00    11200.00
03972             -32.00    11200.00
03973             -32.00    11200.00
03974             -32.00    10800.00
03975             -26.00    10800.00
03976             -22.00    10800.00
03977             -22.00    10800.00
03978             -24.00    10600.00
03979             -26.00    10600.00
03980             -26.00    10400.00
03981             -26.00    10400.00
03982             -22.00    10200.00
03983             -16.00    10000.00
03984             -16.00    10000.00
03985             -18.00    10000.00
03986             -22.00     9800.00
03987             -24.00     9800.00
03988             -24.00     9600.00
03989             -16.00     9600.00
03990             -14.00     9400.00
03991             -16.00     9200.00
03992             -16.00     9200.00
03993             -16.00     9000.00
03994             -20.00     8800.00
03995             -16.00     8600.00
03996             -12.00     8400.00
03997             -10.00     8400.00
03998             -10.00     8200.00
03999             -16.00     8000.00
04000             -16.00     8000.00
04001             -14.00     8000.00
04002             -10.00     7600.00
04003             -10.00     7600.00
04004             -10.00     7400.00
04005              -8.00     7200.00
04006             -16.00     7200.00
04007             -10.00     7000.00
04008             -10.00     6800.00
04009             -12.00     6400.00
04010             -10.00     6600.00
04011              -8.00     6400.00
04012             -10.00     6000.00
04013             -14.00     6000.00
04014             -12.00     5800.00
04015             -10.00     5600.00
04016             -10.00     5200.00
04017              -8.00     5400.00
04018              -8.00     5000.00
04019              -8.00     5000.00
04020             -12.00     4800.00
04021             -14.00     4600.00
04022             -10.00     4400.00
04023              -2.00     4200.00
04024               0.00     4000.00
04025              -6.00     3800.00
04026             -10.00     3600.00
04027             -16.00     3400.00
04028             -16.00     3200.00
04029             -10.00     3200.00
04030               0.00     2800.00
04031               6.00     2800.00
04032              -2.00     2400.00
04033             -14.00     2200.00
04034             -18.00     2200.00
04035             -16.00     2000.00
04036              -2.00     1800.00
04037               4.00     1600.00
04038               0.00     1200.00
04039              -8.00     1200.00
04040             -12.00     1000.00
04041             -10.00      800.00
04042              -6.00      600.00
04043              -2.00      400.00
04044               0.00      400.00
04045               2.00      200.00
04046               2.00        0.00
04047              20.00     -400.00
04048              22.00     -400.00
04049              -6.00     -600.00
04050             -16.00     -800.00
04051              -2.00    -1000.00
04052              16.00    -1000.00
04053              22.00    -1200.00
04054              88.00    -1400.00
04055             246.00    -2000.00
04056              46.00    -2200.00
04057            -254.00    -2400.00
04058            -254.00    -2600.00
04059               2.00    -2400.00
04060              56.00    -2400.00
04061             246.00    -2600.00
04062             112.00    -3200.00
04063            -254.00    -3000.00
04064             108.00    -3600.00
04065             118.00    -3600.00
04066             -98.00    -3600.00
04067              56.00    -4400.00
04068             -34.00    -4000.00
04069              80.00    -4400.00
04070              24.00    -4600.00
04071            -102.00    -4600.00
04072             -30.00    -5000.00
04073             -10.00    -4800.00
04074             122.00    -5200.00
04075             -10.00    -5200.00
04076             -56.00    -5600.00
04077              18.00    -6000.00
04078             -30.00    -5600.00
04079              64.00    -6400.00
04080              -6.00    -6200.00
04081             -32.00    -6400.00
04082              18.00    -6800.00
04083              16.00    -6600.00
04084              -2.00    -7000.00
04085             -32.00    -7000.00
04086              26.00    -7200.00
04087               8.00    -7400.00
04088              10.00    -7600.00
04089               6.00    -7600.00
04090             -34.00    -7800.00
04091              32.00    -8000.00
04092              16.00    -8200.00
04093             -16.00    -8200.00
04094               0.00    -8400.00
04095               6.00    -8400.00
04096               8.00    -8800.00
04097              16.00    -8800.00
04098               6.00    -8800.00
04099              -2.00    -9200.00
04100              14.00    -9200.00
04101               6.00    -9200.00
04102              -2.00    -9200.00
04103              18.00    -9400.00
04104               8.00    -9600.00
04105               6.00    -9600.00
04106              10.00    -9600.00
04107              -4.00   -10000.00
04108              14.00    -9800.00
04109              26.00   -10200.00
04110               8.00   -10200.00
04111               8.00   -10400.00
04112               6.00   -10400.00
04113               2.00   -10600.00
04114              16.00   -10600.00
04115              22.00   -10600.00
04116               8.00   -10800.00
04117              14.00   -10800.00
04118              14.00   -10800.00
04119               6.00   -11000.00
04120              18.00   -10800.00
04121              16.00   -11000.00
04122              16.00   -11000.00
04123              22.00   -11000.00
04124              16.00   -11000.00
04125              10.00   -11400.00
04126              16.00   -11400.00
04127              14.00   -11200.00
04128              18.00   -11600.00
04129              26.00   -11600.00
04130              22.00   -11600.00
04131              16.00   -11600.00
04132              18.00   -11600.00
04133              14.00   -11600.00
04134              18.00   -11600.00
04135              30.00   -11600.00
04136              24.00   -11600.00
04137              22.00   -11600.00
04138              22.00   -11600.00
04139              18.00   -11600.00
04140              24.00   -11800.00
04141              26.00   -11800.00
04142              26.00   -11600.00
04143              26.00   -11600.00
04144              28.00   -11600.00
04145              24.00   -11600.00
04146              22.00   -11600.00
04147              24.00   -11600.00
04148              26.00   -11600.00
04149              34.00   -11600.00
04150              30.00   -11400.00
04151              24.00   -11400.00
04152              22.00   -11600.00
04153              24.00   -11200.00
04154              26.00   -11200.00
04155              30.00   -11200.00
04156              32.00   -11200.00
04157              26.00   -11200.00
04158              24.00   -11200.00
04159              18.00   -11200.00
04160              22.00   -11000.00
04161              24.00   -11000.00
04162              28.00   -10800.00
04163              24.00   -10800.00
04164              18.00   -10800.00
04165              16.00   -10600.00
04166              16.00   -10800.00
04167              18.00   -10600.00
04168              22.00   -10400.00
04169              18.00   -10400.00
04170              18.00   -10400.00
04171              16.00   -10200.00
04172              14.00   -10000.00
04173              14.00   -10000.00
04174              14.00    -9800.00
04175              16.00    -9800.00
04176              18.00    -9600.00
04177              14.00    -9600.00
04178              10.00    -9400.00
04179               6.00    -9400.00
04180               8.00    -9200.00
04181              14.00    -9200.00
04182              16.00    -8800.00
04183              12.00    -8800.00
04184               8.00    -8800.00
04185               6.00    -8600.00
04186               8.00    -8400.00
04187               8.00    -8400.00
04188              10.00    -8000.00
04189               8.00    -8000.00
04190               8.00    -7800.00
04191               6.00    -7800.00
04192               2.00    -7600.00
04193               6.00    -7400.00
04194               8.00    -7200.00
04195               6.00    -7200.00
04196               6.00    -7000.00
04197               8.00    -6800.00
04198               6.00    -6800.00
04199               0.00    -6800.00
04200               6.00    -6200.00
04201               6.00    -6400.00
04202               6.00    -6000.00
04203               6.00    -6000.00
04204               0.00    -5600.00
04205               4.00    -5600.00
04206               6.00    -5400.00
04207              -6.00    -5200.00
04208               0.00    -5000.00
04209               6.00    -4800.00
04210               6.00    -4800.00
04211               6.00    -4600.00
04212              -4.00    -4400.00
04213              -8.00    -4400.00
04214               6.00    -4000.00
04215               6.00    -4000.00
04216              -2.00    -3600.00
04217               0.00    -3600.00
04218               0.00    -3200.00
04219               0.00    -3200.00
04220               0.00    -3000.00
04221              -2.00    -2800.00
04222               2.00    -2400.00
04223               2.00    -2400.00
04224              -4.00    -2200.00
04225              -2.00    -2200.00
04226              -2.00    -2000.00
04227              -6.00    -1600.00
04228               0.00    -1600.00
04229               6.00    -1200.00
04230              -2.00    -1000.00
04231              -2.00     -800.00
04232              -6.00     -800.00
04233              -8.00     -400.00
04234               0.00     -200.00
04235               2.00        0.00
04236               0.00      200.00
04237               6.00      400.00
04238               0.00      400.00
04239              16.00      600.00
04240              26.00      800.00
04241               2.00     1000.00
04242             -10.00     1200.00
04243               0.00     1200.00
04244              10.00     1600.00
04245              58.00     1600.00
04246             246.00     2000.00
04247             150.00     2400.00
04248            -254.00     2400.00
04249            -254.00     2600.00
04250            -102.00     2600.00
04251             146.00     3000.00
04252             246.00     3400.00
04253             -72.00     3200.00
04254            -254.00     3200.00
04255             246.00     3800.00
04256               6.00     3600.00
04257            -166.00     4000.00
04258             174.00     4200.00
04259            -110.00     4200.00
04260             112.00     4400.00
04261              32.00     4800.00
04262            -204.00     5000.00
04263              52.00     5200.00
04264              26.00     5200.00
04265              46.00     5600.00
04266             -26.00     5600.00
04267             -16.00     6000.00
04268             -16.00     5800.00
04269             -42.00     6200.00
04270              92.00     6400.00
04271             -86.00     6400.00
04272              -2.00     6600.00
04273              32.00     6800.00
04274             -32.00     7200.00
04275               8.00     7000.00
04276             -48.00     7200.00
04277              -2.00     7600.00
04278              14.00     7400.00
04279              14.00     7800.00
04280             -46.00     7600.00
04281             -14.00     8200.00
04282               8.00     8200.00
04283             -22.00     8200.00
04284               0.00     8600.00
04285             -24.00     8400.00
04286             -20.00     8800.00
04287              -6.00     8800.00
04288               6.00     9000.00
04289             -26.00     9200.00
04290              -2.00     9200.00
04291             -26.00     9400.00
04292             -24.00     9600.00
04293               2.00     9600.00
04294             -14.00     9600.00
04295              -2.00    10000.00
04296             -16.00    10000.00
04297             -32.00    10000.00
04298             -26.00    10000.00
04299               6.00    10200.00
04300             -10.00    10200.00
04301             -16.00    10400.00
04302             -18.00    10600.00
04303             -32.00    10800.00
04304             -16.00    10600.00
04305             -12.00    10800.00
04306             -18.00    10800.00
04307             -14.00    11000.00
04308             -14.00    11200.00
04309             -24.00    11200.00
04310             -18.00    11400.00
04311             -26.00    11200.00
04312             -24.00    11400.00
04313             -12.00    11400.00
04314             -14.00    11800.00
04315             -24.00    11400.00
04316             -24.00    11600.00
04317             -28.00    11600.00
04318             -30.00    11800.00
04319             -20.00    11800.00
04320             -24.00    11800.00
04321             -22.00    12000.00
04322             -20.00    12000.00
04323             -26.00    12000.00
04324             -32.00    12000.00
04325             -30.00    12000.00
04326             -26.00    12000.00
04327             -22.00    12000.00
04328             -22.00    12200.00
04329             -32.00    12000.00
04330             -38.00    12000.00
04331             -34.00    12000.00
04332             -32.00    12000.00
04333             -28.00    12000.00
04334             -26.00    12000.00
04335             -32.00    12000.00
04336             -38.00    11800.00
04337             -40.00    12000.00
04338             -42.00    11800.00
04339             -32.00    12000.00
04340             -32.00    11800.00
04341             -32.00    11800.00
04342             -34.00    12000.00
04343             -38.00    11600.00
04344             -42.00    11800.00
04345             -38.00    11600.00
04346             -34.00    11600.00
04347             -32.00    11800.00
04348             -32.00    11600.00
04349             -38.00    11800.00
04350             -40.00    11400.00
04351             -40.00    11400.00
04352             -32.00    11400.00
04353             -24.00    11200.00
04354             -26.00    11200.00
04355             -32.00    11200.00
04356             -36.00    11000.00
04357             -32.00    11000.00
04358             -26.00    10800.00
04359             -22.00    10800.00
04360             -24.00    10800.00
04361             -22.00    10800.00
04362             -24.00    10400.00
04363             -26.00    10400.00
04364             -26.00    10400.00
04365             -28.00    10400.00
04366             -18.00    10000.00
04367             -16.00    10000.00
04368             -20.00     9800.00
04369             -16.00    10000.00
04370             -22.00     9800.00
04371             -24.00     9600.00
04372             -18.00     9600.00
04373             -18.00     9400.00
04374             -10.00     9200.00
04375             -16.00     9200.00
04376             -22.00     9000.00
04377             -16.00     9000.00
04378             -14.00     8800.00
04379             -10.00     8600.00
04380             -10.00     8400.00
04381             -14.00     8400.00
04382             -14.00     8200.00
04383             -16.00     8000.00
04384             -16.00     8000.00
04385             -14.00     7800.00
04386             -10.00     7600.00
04387              -8.00     7600.00
04388             -10.00     7400.00
04389             -10.00     7200.00
04390             -16.00     7200.00
04391             -10.00     6800.00
04392             -10.00     6800.00
04393             -12.00     6600.00
04394             -10.00     6400.00
04395              -8.00     6200.00
04396             -10.00     6200.00
04397             -10.00     6000.00
04398             -10.00     5800.00
04399              -8.00     5600.00
04400              -6.00     5400.00
04401             -10.00     5200.00
04402             -10.00     5000.00
04403             -10.00     4800.00
04404             -14.00     4800.00
04405             -10.00     4400.00
04406              -8.00     4400.00
04407              -6.00     4000.00
04408              -6.00     4000.00
04409             -10.00     3600.00
04410             -10.00     3600.00
04411             -10.00     3400.00
04412             -10.00     3200.00
04413              -6.00     3000.00
04414              -6.00     3000.00
04415             -10.00     2600.00
04416              -8.00     2400.00
04417             -10.00     2400.00
04418             -10.00     2000.00
04419              -8.00     2000.00
04420              -4.00     1800.00
04421              -6.00     1600.00
04422              -8.00     1200.00
04423              -8.00     1000.00
04424              -8.00      800.00
04425              -6.00      800.00
04426              -2.00      600.00
04427              -2.00      400.00
04428               0.00      200.00
04429               0.00        0.00
04430               6.00        0.00
04431              24.00     -400.00
04432              10.00     -400.00
04433             -10.00     -600.00
04434             -14.00     -800.00
04435               2.00    -1200.00
04436              12.00    -1200.00
04437              38.00    -1400.00
04438             166.00    -1600.00
04439             222.00    -2000.00
04440            -162.00    -2400.00
04441            -254.00    -2400.00
04442            -128.00    -2600.00
04443              34.00    -2600.00
04444             146.00    -2600.00
04445             246.00    -3000.00
04446            -186.00    -3200.00
04447            -184.00    -3200.00
04448             232.00    -3800.00
04449             -54.00    -3400.00
04450             -10.00    -3600.00
04451              16.00    -4200.00
04452             -12.00    -3800.00
04453             106.00    -4600.00
04454             -64.00    -4600.00
04455             -64.00    -4800.00
04456             -26.00    -4800.00
04457              54.00    -5000.00
04458              96.00    -5400.00
04459             -80.00    -5200.00
04460               0.00    -6000.00
04461              -6.00    -5600.00
04462              16.00    -6000.00
04463              56.00    -6400.00
04464             -50.00    -6200.00
04465               0.00    -6800.00
04466              16.00    -6600.00
04467              18.00    -6800.00
04468             -28.00    -7000.00
04469             -10.00    -7000.00
04470              30.00    -7400.00
04471              -2.00    -7200.00
04472              26.00    -7600.00
04473             -24.00    -7800.00
04474             -10.00    -7800.00
04475              32.00    -8000.00
04476             -10.00    -8000.00
04477             -10.00    -8400.00
04478              10.00    -8400.00
04479               6.00    -8600.00
04480              10.00    -8800.00
04481               8.00    -8800.00
04482              -8.00    -9200.00
04483               4.00    -9200.00
04484              22.00    -9200.00
04485               2.00    -9400.00
04486               2.00    -9400.00
04487               6.00    -9400.00
04488              -8.00    -9600.00
04489              16.00    -9800.00
04490              14.00    -9800.00
04491               0.00   -10000.00
04492              16.00   -10000.00
04493              12.00   -10000.00
04494               4.00   -10400.00
04495              14.00   -10400.00
04496               6.00   -10200.00
04497               2.00   -10400.00
04498              20.00   -10800.00
04499              14.00   -10600.00
04500              10.00   -10800.00
04501              14.00   -10800.00
04502               2.00   -10800.00
04503              12.00   -11000.00
04504              30.00   -11000.00
04505              20.00   -11000.00
04506              12.00   -11200.00
04507              10.00   -11000.00
04508              10.00   -11200.00
04509              20.00   -11200.00
04510              22.00   -11200.00
04511              14.00   -11400.00
04512              16.00   -11600.00
04513              26.00   -11600.00
04514              22.00   -11600.00
04515              18.00   -11600.00
04516              18.00   -11600.00
04517              14.00   -11600.00
04518              22.00   -11400.00
04519              24.00   -11800.00
04520              26.00   -11600.00
04521              26.00   -11600.00
04522              22.00   -11800.00
04523              22.00   -11600.00
04524              22.00   -11600.00
04525              28.00   -11600.00
04526              30.00   -11600.00
04527              32.00   -11600.00
04528              26.00   -11600.00
04529              18.00   -11600.00
04530              22.00   -11600.00
04531              30.00   -11600.00
04532              34.00   -11600.00
04533              34.00   -11600.00
04534              30.00   -11400.00
04535              26.00   -11600.00
04536              26.00   -11400.00
04537              24.00   -11400.00
04538              24.00   -11600.00
04539              28.00   -11200.00
04540              30.00   -11200.00
04541              26.00   -11200.00
04542              26.00   -11000.00
04543              22.00   -11200.00
04544              24.00   -11000.00
04545              24.00   -11000.00
04546              26.00   -10800.00
04547              22.00   -10800.00
04548              20.00   -10800.00
04549              16.00   -10800.00
04550              16.00   -10800.00
04551              22.00   -10400.00
04552              22.00   -10400.00
04553              20.00   -10400.00
04554              18.00   -10200.00
04555              16.00   -10200.00
04556              10.00   -10000.00
04557               6.00   -10000.00
04558              10.00    -9800.00
04559              16.00    -9600.00
04560              22.00    -9600.00
04561              16.00    -9600.00
04562               6.00    -9400.00
04563               4.00    -9400.00
04564               8.00    -9200.00
04565              14.00    -9000.00
04566              16.00    -8800.00
04567              10.00    -8800.00
04568               6.00    -8800.00
04569               2.00    -8400.00
04570               6.00    -8400.00
04571              10.00    -8400.00
04572              10.00    -8000.00
04573              10.00    -8000.00
04574               6.00    -7800.00
04575               2.00    -7800.00
04576               0.00    -7400.00
04577               4.00    -7400.00
04578               8.00    -7200.00
04579              10.00    -7200.00
04580               8.00    -6800.00
04581               2.00    -6800.00
04582              -2.00    -6800.00
04583               2.00    -6400.00
04584               8.00    -6400.00
04585               6.00    -6000.00
04586               4.00    -6000.00
04587               2.00    -5800.00
04588               2.00    -5600.00
04589               6.00    -5400.00
04590               0.00    -5400.00
04591               2.00    -5200.00
04592               2.00    -4800.00
04593               2.00    -4800.00
04594               0.00    -4800.00
04595              -2.00    -4400.00
04596              -2.00    -4400.00
04597               2.00    -4200.00
04598               2.00    -4000.00
04599               0.00    -3800.00
04600               2.00    -3600.00
04601              -6.00    -3400.00
04602              -2.00    -3200.00
04603               2.00    -3000.00
04604              -6.00    -2800.00
04605              -2.00    -2600.00
04606               4.00    -2600.00
04607               0.00    -2200.00
04608              -6.00    -2200.00
04609             -10.00    -2000.00
04610              -8.00    -1600.00
04611               2.00    -1600.00
04612               6.00    -1400.00
04613              -2.00    -1200.00
04614              -8.00    -1000.00
04615              -2.00     -800.00
04616               0.00     -600.00
04617              -2.00     -400.00
04618              -6.00     -400.00
04619               0.00        0.00
04620               6.00        0.00
04621               0.00      200.00
04622               0.00      600.00
04623              22.00      800.00
04624              12.00     1000.00
04625               0.00     1200.00
04626               0.00     1200.00
04627               2.00     1600.00
04628              10.00     1600.00
04629             134.00     2000.00
04630             246.00     2200.00
04631             -80.00     2400.00
04632            -254.00     2600.00
04633            -248.00     2600.00
04634             -26.00     2800.00
04635             246.00     3200.00
04636             246.00     3200.00
04637            -254.00     3000.00
04638             -94.00     3400.00
04639             246.00     3600.00
04640            -230.00     3800.00
04641              56.00     4200.00
04642              54.00     4200.00
04643             -80.00     4400.00
04644             182.00     4400.00
04645            -150.00     4800.00
04646             -90.00     5000.00
04647              72.00     5200.00
04648              16.00     5400.00
04649              32.00     5400.00
04650             -56.00     5800.00
04651              18.00     6000.00
04652             -64.00     5800.00
04653              46.00     6400.00
04654              24.00     6400.00
04655             -90.00     6600.00
04656              62.00     6800.00
04657             -20.00     6600.00
04658              -6.00     7200.00
04659             -24.00     7200.00
04660             -34.00     7400.00
04661              18.00     7400.00
04662              18.00     7600.00
04663             -10.00     7800.00
04664             -54.00     8000.00
04665              10.00     8200.00
04666             -16.00     8200.00
04667              -4.00     8400.00
04668             -10.00     8400.00
04669             -26.00     8400.00
04670             -18.00     8800.00
04671               6.00     9000.00
04672             -12.00     9200.00
04673             -24.00     9200.00
04674               0.00     9200.00
04675             -32.00     9400.00
04676              -2.00     9600.00
04677             -12.00     9600.00
04678             -16.00     9600.00
04679             -16.00    10000.00
04680             -24.00    10000.00
04681             -26.00    10000.00
04682              -6.00    10000.00
04683               6.00    10400.00
04684             -20.00    10400.00
04685             -16.00    10600.00
04686             -26.00    10600.00
04687             -32.00    10600.00
04688             -16.00    10800.00
04689             -10.00    10800.00
04690             -14.00    10800.00
04691              -8.00    11200.00
04692             -22.00    11200.00
04693             -32.00    11200.00
04694             -22.00    11200.00
04695             -26.00    11400.00
04696             -10.00    11400.00
04697              -8.00    11400.00
04698             -24.00    11600.00
04699             -34.00    11800.00
04700             -26.00    11800.00
04701             -26.00    11800.00
04702             -16.00    11800.00
04703             -14.00    11800.00
04704             -26.00    11800.00
04705             -28.00    11800.00
04706             -32.00    11800.00
04707             -32.00    12000.00
04708             -26.00    12000.00
04709             -24.00    12000.00
04710             -26.00    12000.00
04711             -24.00    12000.00
04712             -30.00    12000.00
04713             -34.00    12000.00
04714             -34.00    12000.00
04715             -32.00    12000.00
04716             -30.00    12000.00
04717             -26.00    12000.00
04718             -30.00    12000.00
04719             -36.00    12000.00
04720             -38.00    12200.00
04721             -38.00    12000.00
04722             -32.00    12000.00
04723             -30.00    12000.00
04724             -32.00    12000.00
04725             -34.00    12000.00
04726             -40.00    11800.00
04727             -40.00    11800.00
04728             -38.00    11800.00
04729             -34.00    11800.00
04730             -32.00    11600.00
04731             -32.00    11600.00
04732             -34.00    11600.00
04733             -40.00    11400.00
04734             -40.00    11400.00
04735             -34.00    11400.00
04736             -30.00    11200.00
04737             -26.00    11400.00
04738             -26.00    11200.00
04739             -32.00    11200.00
04740             -32.00    11200.00
04741             -32.00    11000.00
04742             -26.00    10800.00
04743             -22.00    10800.00
04744             -22.00    10600.00
04745             -26.00    10600.00
04746             -30.00    10600.00
04747             -30.00    10400.00
04748             -26.00    10400.00
04749             -22.00    10200.00
04750             -18.00    10000.00
04751             -18.00    10000.00
04752             -22.00    10000.00
04753             -24.00     9800.00
04754             -24.00     9800.00
04755             -18.00     9600.00
04756             -18.00     9600.00
04757             -10.00     9400.00
04758             -16.00     9200.00
04759             -18.00     9200.00
04760             -18.00     9000.00
04761             -22.00     8800.00
04762             -16.00     8800.00
04763             -10.00     8600.00
04764             -10.00     8400.00
04765             -14.00     8400.00
04766             -16.00     8200.00
04767             -16.00     8000.00
04768             -16.00     7800.00
04769             -10.00     7600.00
04770             -10.00     7600.00
04771             -10.00     7400.00
04772             -10.00     7200.00
04773             -16.00     7200.00
04774             -10.00     7000.00
04775             -12.00     6800.00
04776             -10.00     6600.00
04777             -10.00     6600.00
04778             -10.00     6400.00
04779             -10.00     6200.00
04780             -10.00     6000.00
04781             -10.00     5800.00
04782             -10.00     5800.00
04783             -10.00     5400.00
04784              -8.00     5400.00
04785              -8.00     5200.00
04786              -8.00     5000.00
04787             -10.00     4800.00
04788             -14.00     4800.00
04789              -8.00     4400.00
04790              -6.00     4200.00
04791              -6.00     4000.00
04792              -8.00     3800.00
04793             -10.00     3600.00
04794             -10.00     3400.00
04795             -10.00     3200.00
04796              -8.00     3200.00
04797              -6.00     2800.00
04798              -6.00     2800.00
04799              -8.00     2600.00
04800             -10.00     2400.00
04801             -10.00     2200.00
04802              -6.00     2000.00
04803              -4.00     1800.00
04804              -6.00     1600.00
04805              -8.00     1600.00
04806              -8.00     1200.00
04807              -8.00     1000.00
04808              -6.00     1000.00
04809              -6.00      800.00
04810              -8.00      400.00
04811              -6.00      400.00
04812               0.00      200.00
04813               6.00        0.00
04814              18.00     -400.00
04815              18.00     -400.00
04816              -6.00     -600.00
04817             -18.00     -800.00
04818              -2.00     -800.00
04819              10.00    -1000.00
04820              16.00    -1200.00
04821              80.00    -1400.00
04822             242.00    -1800.00
04823              76.00    -2400.00
04824            -254.00    -2400.00
04825            -254.00    -2400.00
04826             -16.00    -2400.00
04827              46.00    -2600.00
04828             246.00    -2800.00
04829             164.00    -3200.00
04830            -254.00    -3000.00
04831              70.00    -3400.00
04832             138.00    -3800.00
04833            -114.00    -3600.00
04834              54.00    -4200.00
04835             -22.00    -4000.00
04836              78.00    -4200.00
04837              38.00    -4800.00
04838            -118.00    -4600.00
04839             -32.00    -4800.00
04840              -4.00    -4800.00
04841             126.00    -5200.00
04842               2.00    -5400.00
04843             -78.00    -5600.00
04844               6.00    -6000.00
04845             -26.00    -5600.00
04846              74.00    -6400.00
04847              14.00    -6200.00
04848             -34.00    -6200.00
04849              16.00    -6800.00
04850              16.00    -6400.00
04851              10.00    -7000.00
04852             -30.00    -7000.00
04853              24.00    -7200.00
04854               2.00    -7400.00
04855             -14.00    -7400.00
04856               0.00    -7800.00
04857             -32.00    -7800.00
04858              40.00    -8000.00
04859              34.00    -8000.00
04860             -16.00    -8400.00
04861               2.00    -8400.00
04862               8.00    -8400.00
04863               4.00    -8800.00
04864              16.00    -8800.00
04865              -2.00    -9000.00
04866             -16.00    -9200.00
04867               8.00    -9000.00
04868              14.00    -9200.00
04869               6.00    -9400.00
04870              22.00    -9400.00
04871              10.00    -9600.00
04872               4.00    -9600.00
04873              14.00    -9800.00
04874             -10.00   -10000.00
04875               0.00   -10000.00
04876              16.00   -10200.00
04877               2.00   -10200.00
04878              10.00   -10200.00
04879              16.00   -10400.00
04880              12.00   -10400.00
04881              16.00   -10400.00
04882              16.00   -10600.00
04883               6.00   -10800.00
04884              16.00   -10800.00
04885              14.00   -10800.00
04886               0.00   -11000.00
04887              10.00   -11200.00
04888              14.00   -11000.00
04889              14.00   -11200.00
04890              26.00   -11200.00
04891              18.00   -11200.00
04892              16.00   -11200.00
04893              26.00   -11200.00
04894              14.00   -11600.00
04895               2.00   -11600.00
04896              10.00   -11400.00
04897              18.00   -11200.00
04898              26.00   -11600.00
04899              32.00   -11600.00
04900              22.00   -11600.00
04901              20.00   -11600.00
04902              24.00   -11600.00
04903              22.00   -11600.00
04904              22.00   -11600.00
04905              22.00   -11600.00
04906              16.00   -11600.00
04907              22.00   -11600.00
04908              30.00   -11600.00
04909              32.00   -11600.00
04910              38.00   -11600.00
04911              34.00   -11600.00
04912              24.00   -11600.00
04913              20.00   -11800.00
04914              22.00   -11600.00
04915              26.00   -11600.00
04916              38.00   -11600.00
04917              36.00   -11400.00
04918              22.00   -11600.00
04919              18.00   -11600.00
04920              26.00   -11200.00
04921              38.00   -11200.00
04922              38.00   -11200.00
04923              24.00   -11200.00
04924              18.00   -11200.00
04925              26.00   -11200.00
04926              30.00   -11200.00
04927              18.00   -11200.00
04928              18.00   -11000.00
04929              30.00   -11000.00
04930              32.00   -11000.00
04931              26.00   -10800.00
04932              10.00   -10800.00
04933              10.00   -10600.00
04934              14.00   -10600.00
04935              16.00   -10400.00
04936              22.00   -10400.00
04937              26.00   -10200.00
04938              22.00   -10200.00
04939              14.00   -10200.00
04940              10.00    -9800.00
04941              10.00   -10000.00
04942               8.00    -9600.00
04943              18.00    -9600.00
04944              22.00    -9600.00
04945              14.00    -9400.00
04946               2.00    -9400.00
04947               0.00    -9200.00
04948              10.00    -9200.00
04949              18.00    -9000.00
04950              16.00    -8800.00
04951               8.00    -8800.00
04952               0.00    -8600.00
04953               0.00    -8400.00
04954               6.00    -8400.00
04955              10.00    -8000.00
04956              10.00    -8000.00
04957              10.00    -7800.00
04958               6.00    -7800.00
04959               0.00    -7600.00
04960               6.00    -7400.00
04961               8.00    -7200.00
04962              10.00    -7000.00
04963               0.00    -7200.00
04964               0.00    -7000.00
04965               0.00    -6800.00
04966               8.00    -6400.00
04967               8.00    -6400.00
04968               6.00    -6400.00
04969               2.00    -6000.00
04970               6.00    -5800.00
04971               2.00    -5800.00
04972               2.00    -5800.00
04973               0.00    -5400.00
04974               0.00    -5400.00
04975               0.00    -5200.00
04976               4.00    -4800.00
04977               6.00    -4800.00
04978               2.00    -4600.00
04979              -4.00    -4400.00
04980              -2.00    -4000.00
04981               0.00    -3800.00
04982               6.00    -3800.00
04983               2.00    -3600.00
04984               0.00    -3400.00
04985              -2.00    -3200.00
04986              -2.00    -3200.00
04987               0.00    -2800.00
04988               0.00    -2600.00
04989               0.00    -2400.00
04990               2.00    -2400.00
04991               0.00    -2200.00
04992              -4.00    -2000.00
04993              -6.00    -1800.00
04994              -6.00    -1600.00
04995              -6.00    -1400.00
04996              -2.00    -1400.00
04997               0.00    -1000.00
04998               0.00     -800.00
04999              -2.00     -800.00
05000              -6.00     -600.00
