Unit:(mV)
                     CH1         CH2
Frequency              ? 260.759 kHz
00001              -2.00    -3000.00
00002              -2.00    -3000.00
00003              -2.00    -2800.00
00004               6.00    -2600.00
00005               6.00    -2400.00
00006               0.00    -2200.00
00007              -6.00    -2000.00
00008              -8.00    -1800.00
00009               0.00    -1600.00
00010               2.00    -1400.00
00011              -2.00    -1200.00
00012               0.00    -1000.00
00013              -2.00     -800.00
00014              -2.00     -600.00
00015              -2.00     -600.00
00016              -6.00     -200.00
00017               0.00        0.00
00018               6.00      200.00
00019               0.00      200.00
00020               2.00      600.00
00021              24.00      400.00
00022              24.00     1000.00
00023              -2.00     1000.00
00024             -22.00     1200.00
00025             -10.00     1400.00
00026              18.00     1600.00
00027              64.00     1800.00
00028             246.00     2000.00
00029             170.00     2400.00
00030            -254.00     2400.00
00031            -254.00     2600.00
00032            -112.00     2800.00
00033             198.00     2800.00
00034             246.00     3200.00
00035             -30.00     3200.00
00036            -254.00     3200.00
00037             224.00     3800.00
00038             126.00     3800.00
00039            -114.00     4000.00
00040             152.00     4200.00
00041            -190.00     4200.00
00042              80.00     4400.00
00043             102.00     4800.00
00044            -210.00     5000.00
00045              16.00     5000.00
00046              22.00     5400.00
00047              52.00     5600.00
00048             -16.00     5600.00
00049             -40.00     6000.00
00050             -32.00     6000.00
00051             -42.00     6000.00
00052             114.00     6400.00
00053             -94.00     6400.00
00054             -34.00     6600.00
00055              26.00     6800.00
00056             -34.00     6800.00
00057              24.00     7200.00
00058             -58.00     7200.00
00059             -22.00     7400.00
00060              10.00     7400.00
00061               8.00     7800.00
00062             -50.00     7600.00
00063             -18.00     8000.00
00064               2.00     8200.00
00065             -26.00     8200.00
00066              -2.00     8400.00
00067             -34.00     8400.00
00068             -30.00     8800.00
00069              -8.00     8800.00
00070               0.00     9000.00
00071             -32.00     9000.00
00072             -10.00     9200.00
00073             -32.00     9400.00
00074             -30.00     9400.00
00075              -2.00     9600.00
00076             -22.00     9800.00
00077             -12.00     9800.00
00078             -24.00    10000.00
00079             -34.00    10000.00
00080             -30.00    10000.00
00081               2.00    10200.00
00082             -16.00    10400.00
00083             -24.00    10400.00
00084             -20.00    10600.00
00085             -38.00    10600.00
00086             -24.00    10600.00
00087             -14.00    10800.00
00088             -18.00    10800.00
00089             -14.00    11000.00
00090             -18.00    10800.00
00091             -32.00    11200.00
00092             -24.00    11200.00
00093             -26.00    11200.00
00094             -26.00    11400.00
00095             -10.00    11200.00
00096             -16.00    11600.00
00097             -26.00    11400.00
00098             -24.00    11800.00
00099             -26.00    11600.00
00100             -32.00    11800.00
00101             -16.00    11800.00
00102             -14.00    11800.00
00103             -16.00    11800.00
00104             -18.00    11800.00
00105             -34.00    11800.00
00106             -32.00    11800.00
00107             -24.00    12000.00
00108             -18.00    12000.00
00109             -10.00    12000.00
00110             -16.00    12000.00
00111             -32.00    12000.00
00112             -34.00    12000.00
00113             -24.00    12000.00
00114             -18.00    11800.00
00115             -14.00    11800.00
00116             -22.00    12000.00
00117             -28.00    12000.00
00118             -26.00    12000.00
00119             -26.00    11800.00
00120             -24.00    12000.00
00121             -18.00    11800.00
00122             -18.00    12000.00
00123             -22.00    12000.00
00124             -26.00    11600.00
00125             -28.00    11800.00
00126             -26.00    11600.00
00127             -22.00    11800.00
00128             -22.00    11600.00
00129             -22.00    11400.00
00130             -24.00    11800.00
00131             -26.00    11600.00
00132             -26.00    11400.00
00133             -26.00    11400.00
00134             -18.00    11200.00
00135             -22.00    11200.00
00136             -26.00    11200.00
00137             -22.00    11200.00
00138             -22.00    10800.00
00139             -24.00    10800.00
00140             -24.00    10800.00
00141             -26.00    10800.00
00142             -20.00    10800.00
00143             -16.00    10600.00
00144             -22.00    10400.00
00145             -26.00    10400.00
00146             -26.00    10400.00
00147             -24.00    10200.00
00148             -16.00    10200.00
00149             -16.00    10000.00
00150             -22.00     9800.00
00151             -18.00     9800.00
00152             -26.00     9800.00
00153             -24.00     9600.00
00154             -20.00     9600.00
00155             -16.00     9200.00
00156             -18.00     9400.00
00157             -16.00     9200.00
00158             -20.00     9000.00
00159             -24.00     8800.00
00160             -18.00     8800.00
00161             -24.00     8800.00
00162             -16.00     8400.00
00163             -10.00     8200.00
00164             -18.00     8200.00
00165             -22.00     8000.00
00166             -22.00     8000.00
00167             -18.00     7800.00
00168             -10.00     7600.00
00169             -10.00     7400.00
00170             -18.00     7400.00
00171             -16.00     7200.00
00172             -22.00     7000.00
00173             -10.00     6800.00
00174             -20.00     6600.00
00175             -16.00     6600.00
00176             -14.00     6400.00
00177             -16.00     6400.00
00178             -14.00     6000.00
00179              -4.00     6000.00
00180             -16.00     5600.00
00181              -8.00     5600.00
00182             -14.00     5400.00
00183             -24.00     5200.00
00184             -16.00     5000.00
00185              -6.00     4800.00
00186              -8.00     4600.00
00187              -8.00     4400.00
00188             -22.00     4200.00
00189             -26.00     4000.00
00190              -6.00     3800.00
00191               8.00     3800.00
00192              -2.00     3600.00
00193             -18.00     3400.00
00194             -34.00     3200.00
00195             -16.00     3000.00
00196              14.00     2800.00
00197               8.00     2800.00
00198             -12.00     2600.00
00199             -18.00     2200.00
00200             -16.00     2000.00
00201              -2.00     1800.00
00202               2.00     1800.00
00203              -2.00     1600.00
00204              -6.00     1200.00
00205             -14.00     1200.00
00206             -18.00     1000.00
00207              -6.00      800.00
00208               6.00      600.00
00209               6.00      200.00
00210               2.00      200.00
00211             -10.00        0.00
00212              -2.00     -200.00
00213              32.00     -400.00
00214              22.00     -400.00
00215             -10.00     -800.00
00216             -18.00     -800.00
00217               0.00     -800.00
00218              18.00    -1200.00
00219              44.00    -1400.00
00220             172.00    -1400.00
00221             232.00    -2000.00
00222            -182.00    -2200.00
00223            -254.00    -2400.00
00224            -152.00    -2400.00
00225              90.00    -2400.00
00226             208.00    -2400.00
00227             246.00    -3000.00
00228            -246.00    -3200.00
00229            -254.00    -3000.00
00230             246.00    -3800.00
00231              14.00    -3400.00
00232              10.00    -3800.00
00233             -26.00    -4400.00
00234             -48.00    -4000.00
00235             144.00    -4600.00
00236             -30.00    -4400.00
00237             -74.00    -4800.00
00238             -46.00    -4800.00
00239              56.00    -5000.00
00240             126.00    -5400.00
00241             -72.00    -5200.00
00242             -16.00    -5800.00
00243             -18.00    -5800.00
00244              36.00    -5800.00
00245              80.00    -6400.00
00246             -54.00    -6000.00
00247             -10.00    -6600.00
00248              16.00    -6400.00
00249              38.00    -6800.00
00250              -8.00    -7200.00
00251             -14.00    -6800.00
00252              26.00    -7600.00
00253               6.00    -7200.00
00254              38.00    -7800.00
00255             -10.00    -7600.00
00256              -6.00    -7800.00
00257              38.00    -8000.00
00258               0.00    -8000.00
00259              -2.00    -8400.00
00260               8.00    -8400.00
00261              14.00    -8600.00
00262              22.00    -8800.00
00263              16.00    -8800.00
00264              -2.00    -8800.00
00265               2.00    -9000.00
00266              22.00    -9200.00
00267              12.00    -9400.00
00268              16.00    -9400.00
00269              16.00    -9400.00
00270               4.00    -9600.00
00271              14.00    -9800.00
00272              10.00    -9800.00
00273               6.00   -10000.00
00274              26.00   -10000.00
00275              24.00   -10000.00
00276               8.00   -10200.00
00277               6.00   -10200.00
00278               6.00   -10400.00
00279              14.00   -10400.00
00280              24.00   -10400.00
00281              18.00   -10600.00
00282               6.00   -10400.00
00283              16.00   -10800.00
00284              12.00   -10800.00
00285              14.00   -10800.00
00286              18.00   -11000.00
00287              16.00   -11000.00
00288              22.00   -11000.00
00289              22.00   -11200.00
00290               8.00   -11200.00
00291              10.00   -11200.00
00292              16.00   -11200.00
00293              14.00   -11200.00
00294              18.00   -11200.00
00295              24.00   -11400.00
00296              16.00   -11400.00
00297              18.00   -11200.00
00298              14.00   -11200.00
00299               4.00   -11600.00
00300              18.00   -11600.00
00301              26.00   -11600.00
00302              22.00   -11600.00
00303              18.00   -11600.00
00304              10.00   -11600.00
00305              10.00   -11600.00
00306              18.00   -11600.00
00307              22.00   -11600.00
00308              20.00   -11600.00
00309              22.00   -11600.00
00310              14.00   -11600.00
00311               8.00   -11600.00
00312              12.00   -11600.00
00313              16.00   -11600.00
00314              22.00   -11400.00
00315              22.00   -11400.00
00316              14.00   -11600.00
00317              14.00   -11400.00
00318              10.00   -11200.00
00319              10.00   -11400.00
00320              18.00   -11400.00
00321              22.00   -11200.00
00322              16.00   -11200.00
00323              14.00   -11200.00
00324              10.00   -11200.00
00325              10.00   -11000.00
00326              16.00   -11000.00
00327              18.00   -10800.00
00328              18.00   -10800.00
00329              14.00   -11000.00
00330              14.00   -10600.00
00331              10.00   -10600.00
00332              10.00   -10400.00
00333              16.00   -10600.00
00334              18.00   -10400.00
00335              16.00   -10400.00
00336              14.00   -10200.00
00337              10.00   -10200.00
00338              10.00   -10000.00
00339              10.00    -9800.00
00340              16.00    -9800.00
00341              16.00    -9600.00
00342              16.00    -9600.00
00343              14.00    -9400.00
00344               6.00    -9400.00
00345               8.00    -9200.00
00346              16.00    -9200.00
00347              16.00    -9200.00
00348              16.00    -8800.00
00349              10.00    -8800.00
00350              10.00    -8600.00
00351              10.00    -8600.00
00352              10.00    -8400.00
00353              14.00    -8000.00
00354              24.00    -8000.00
00355              -2.00    -7800.00
00356               6.00    -7800.00
00357               0.00    -7400.00
00358              16.00    -7600.00
00359              -8.00    -7200.00
00360               6.00    -7200.00
00361              42.00    -7000.00
00362              34.00    -7000.00
00363              34.00    -6800.00
00364             -34.00    -6800.00
00365              -2.00    -6600.00
00366             -10.00    -6200.00
00367              -6.00    -6200.00
00368              -2.00    -6000.00
00369              24.00    -6000.00
00370              34.00    -5600.00
00371              18.00    -5400.00
00372               6.00    -5600.00
00373             -18.00    -5200.00
00374              16.00    -5000.00
00375               4.00    -4600.00
00376               0.00    -4800.00
00377               8.00    -4400.00
00378             -14.00    -4400.00
00379               0.00    -4400.00
00380              10.00    -3800.00
00381               8.00    -3800.00
00382              18.00    -3600.00
00383               6.00    -3600.00
00384               0.00    -3200.00
00385              -2.00    -3000.00
00386              -8.00    -2800.00
00387             -10.00    -2600.00
00388              -6.00    -2600.00
00389               2.00    -2200.00
00390              -2.00    -2200.00
00391              10.00    -2000.00
00392               8.00    -1600.00
00393               6.00    -1400.00
00394              -2.00    -1200.00
00395              -6.00    -1000.00
00396              -6.00     -800.00
00397              -8.00     -800.00
00398             -14.00     -600.00
00399             -10.00     -400.00
00400               6.00     -200.00
00401              10.00        0.00
00402              10.00        0.00
00403              -2.00      400.00
00404               0.00      400.00
00405              22.00      800.00
00406               8.00      800.00
00407             -16.00     1200.00
00408             -16.00     1200.00
00409              10.00     1400.00
00410              24.00     1600.00
00411             152.00     2000.00
00412             246.00     2200.00
00413            -118.00     2400.00
00414            -254.00     2400.00
00415            -254.00     2600.00
00416               8.00     2800.00
00417             246.00     3200.00
00418             246.00     3400.00
00419            -254.00     3200.00
00420            -214.00     3400.00
00421             246.00     3800.00
00422            -144.00     3800.00
00423              94.00     4200.00
00424             -10.00     4400.00
00425            -142.00     4200.00
00426             212.00     4600.00
00427            -128.00     4800.00
00428            -114.00     5000.00
00429              54.00     5200.00
00430              18.00     5400.00
00431              46.00     5200.00
00432             -58.00     5800.00
00433              -6.00     6000.00
00434             -82.00     5800.00
00435              64.00     6400.00
00436              32.00     6400.00
00437            -118.00     6400.00
00438              42.00     6800.00
00439             -30.00     6800.00
00440              10.00     7000.00
00441             -10.00     7200.00
00442             -56.00     7400.00
00443               2.00     7400.00
00444              16.00     7600.00
00445             -14.00     7600.00
00446             -52.00     7800.00
00447               6.00     8200.00
00448             -32.00     8200.00
00449             -14.00     8400.00
00450              -8.00     8400.00
00451             -30.00     8600.00
00452             -14.00     8800.00
00453              -2.00     8800.00
00454             -24.00     8800.00
00455             -26.00     9000.00
00456             -10.00     9200.00
00457             -42.00     9400.00
00458              -6.00     9600.00
00459             -16.00     9600.00
00460             -16.00     9800.00
00461              -8.00     9800.00
00462             -30.00    10000.00
00463             -46.00    10000.00
00464             -22.00    10200.00
00465              -2.00    10200.00
00466             -16.00    10400.00
00467             -10.00    10400.00
00468             -38.00    10600.00
00469             -38.00    10600.00
00470             -14.00    10600.00
00471             -10.00    10800.00
00472             -18.00    10800.00
00473             -18.00    11200.00
00474             -26.00    11200.00
00475             -16.00    11000.00
00476             -16.00    11200.00
00477             -42.00    11200.00
00478             -32.00    11400.00
00479             -14.00    11400.00
00480             -14.00    11400.00
00481             -16.00    11800.00
00482             -26.00    11800.00
00483             -36.00    11600.00
00484             -26.00    11800.00
00485             -12.00    11800.00
00486             -14.00    12000.00
00487             -18.00    11800.00
00488             -30.00    11800.00
00489             -32.00    12000.00
00490             -24.00    11800.00
00491             -20.00    12000.00
00492             -16.00    12000.00
00493             -16.00    12000.00
00494             -24.00    12000.00
00495             -32.00    12000.00
00496             -26.00    12000.00
00497             -22.00    11800.00
00498             -24.00    12000.00
00499             -24.00    12000.00
00500             -24.00    12000.00
00501             -24.00    11800.00
00502             -26.00    12000.00
00503             -24.00    12000.00
00504             -18.00    12000.00
00505             -18.00    11800.00
00506             -24.00    11800.00
00507             -30.00    11800.00
00508             -30.00    11800.00
00509             -24.00    11800.00
00510             -22.00    11600.00
00511             -16.00    11800.00
00512             -22.00    11600.00
00513             -26.00    11400.00
00514             -26.00    11800.00
00515             -26.00    11400.00
00516             -24.00    11400.00
00517             -22.00    11200.00
00518             -24.00    11200.00
00519             -24.00    11200.00
00520             -24.00    11200.00
00521             -18.00    11000.00
00522             -26.00    11000.00
00523             -26.00    10800.00
00524             -26.00    10800.00
00525             -20.00    10800.00
00526             -16.00    10600.00
00527             -18.00    10400.00
00528             -26.00    10600.00
00529             -30.00    10400.00
00530             -26.00    10400.00
00531             -18.00    10200.00
00532             -14.00    10000.00
00533             -16.00    10000.00
00534             -18.00     9800.00
00535             -26.00     9800.00
00536             -28.00     9800.00
00537             -24.00     9600.00
00538             -16.00     9400.00
00539             -14.00     9200.00
00540             -16.00     9200.00
00541             -22.00     9000.00
00542             -22.00     9000.00
00543             -24.00     8800.00
00544             -24.00     8600.00
00545             -12.00     8400.00
00546             -10.00     8200.00
00547             -16.00     8200.00
00548             -24.00     8200.00
00549             -30.00     8000.00
00550             -18.00     7600.00
00551             -10.00     7600.00
00552             -10.00     7600.00
00553             -16.00     7400.00
00554             -16.00     7200.00
00555             -22.00     7200.00
00556             -16.00     7000.00
00557             -14.00     6600.00
00558             -16.00     6600.00
00559             -14.00     6400.00
00560             -14.00     6400.00
00561             -16.00     6200.00
00562             -10.00     6000.00
00563             -12.00     5800.00
00564             -14.00     5600.00
00565             -10.00     5400.00
00566             -10.00     5400.00
00567             -10.00     5000.00
00568             -10.00     5000.00
00569             -16.00     4800.00
00570             -14.00     4400.00
00571              -8.00     4200.00
00572              -6.00     4200.00
00573              -8.00     4000.00
00574             -10.00     3800.00
00575             -10.00     3600.00
00576             -10.00     3400.00
00577             -10.00     3400.00
00578             -10.00     3200.00
00579              -8.00     2800.00
00580             -10.00     2800.00
00581             -10.00     2600.00
00582              -8.00     2200.00
00583             -10.00     2000.00
00584              -8.00     2000.00
00585              -6.00     1800.00
00586              -6.00     1600.00
00587              -8.00     1400.00
00588              -8.00     1200.00
00589             -10.00     1200.00
00590             -10.00     1000.00
00591              -6.00      800.00
00592              -2.00      400.00
00593              -2.00      400.00
00594              -2.00      200.00
00595               2.00        0.00
00596              18.00     -400.00
00597              24.00     -400.00
00598              -2.00     -600.00
00599             -20.00     -800.00
00600              -6.00    -1000.00
00601              10.00    -1200.00
00602              16.00    -1200.00
00603              88.00    -1400.00
00604             246.00    -1600.00
00605              58.00    -2400.00
00606            -254.00    -2400.00
00607            -254.00    -2400.00
00608              14.00    -2400.00
00609             120.00    -2400.00
00610             246.00    -2800.00
00611             120.00    -3200.00
00612            -254.00    -3000.00
00613              58.00    -3600.00
00614             192.00    -3600.00
00615             -46.00    -3400.00
00616              42.00    -4200.00
00617             -88.00    -4000.00
00618              66.00    -4400.00
00619              78.00    -4600.00
00620             -90.00    -4600.00
00621             -48.00    -4800.00
00622             -24.00    -4800.00
00623             142.00    -5200.00
00624              14.00    -5200.00
00625             -66.00    -5400.00
00626               6.00    -6000.00
00627             -24.00    -5600.00
00628              90.00    -6200.00
00629               8.00    -6000.00
00630             -42.00    -6200.00
00631              18.00    -6800.00
00632              22.00    -6400.00
00633              22.00    -7000.00
00634             -32.00    -7000.00
00635              18.00    -7200.00
00636              16.00    -7200.00
00637              24.00    -7400.00
00638              22.00    -7800.00
00639             -34.00    -7800.00
00640              26.00    -8000.00
00641              26.00    -8000.00
00642              -2.00    -8400.00
00643               2.00    -8400.00
00644               6.00    -8400.00
00645              14.00    -8800.00
00646              24.00    -8800.00
00647               8.00    -8800.00
00648              -2.00    -9200.00
00649              14.00    -9200.00
00650              16.00    -9200.00
00651               8.00    -9400.00
00652              18.00    -9400.00
00653              16.00    -9600.00
00654               8.00    -9600.00
00655              16.00    -9600.00
00656               0.00    -9800.00
00657              16.00   -10000.00
00658              32.00   -10000.00
00659              16.00   -10200.00
00660               6.00   -10200.00
00661               6.00   -10400.00
00662               6.00   -10400.00
00663              16.00   -10400.00
00664              24.00   -10600.00
00665              10.00   -10800.00
00666              14.00   -10800.00
00667              18.00   -10800.00
00668               6.00   -11000.00
00669              14.00   -11000.00
00670              16.00   -11000.00
00671              16.00   -11000.00
00672              24.00   -11200.00
00673              14.00   -11200.00
00674               4.00   -11200.00
00675              16.00   -11200.00
00676              14.00   -11200.00
00677              14.00   -11400.00
00678              24.00   -11400.00
00679              18.00   -11400.00
00680              16.00   -11600.00
00681              16.00   -11400.00
00682               6.00   -11600.00
00683              14.00   -11600.00
00684              26.00   -11600.00
00685              22.00   -11600.00
00686              18.00   -11600.00
00687              16.00   -11600.00
00688               8.00   -11600.00
00689              14.00   -11600.00
00690              22.00   -11600.00
00691              18.00   -11600.00
00692              22.00   -11600.00
00693              16.00   -11600.00
00694              10.00   -11600.00
00695              10.00   -11600.00
00696              16.00   -11600.00
00697              18.00   -11600.00
00698              24.00   -11400.00
00699              18.00   -11200.00
00700              14.00   -11400.00
00701              14.00   -11400.00
00702              10.00   -11200.00
00703              20.00   -11200.00
00704              24.00   -11200.00
00705              22.00   -11200.00
00706              14.00   -11200.00
00707              10.00   -11200.00
00708              10.00   -11000.00
00709              16.00   -11000.00
00710              16.00   -11000.00
00711              18.00   -11000.00
00712              16.00   -10800.00
00713              14.00   -11000.00
00714              10.00   -10800.00
00715              14.00   -10600.00
00716              12.00   -10400.00
00717              18.00   -10400.00
00718              16.00   -10200.00
00719              16.00   -10200.00
00720              14.00   -10000.00
00721              14.00   -10000.00
00722              10.00   -10000.00
00723              10.00    -9600.00
00724              12.00    -9800.00
00725              18.00    -9600.00
00726              14.00    -9600.00
00727              10.00    -9400.00
00728               8.00    -9200.00
00729               8.00    -9200.00
00730              14.00    -9200.00
00731              16.00    -8800.00
00732              10.00    -8800.00
00733              16.00    -8600.00
00734              10.00    -8600.00
00735               6.00    -8400.00
00736               8.00    -8400.00
00737              14.00    -8200.00
00738              16.00    -8000.00
00739              14.00    -7800.00
00740              10.00    -7800.00
00741               6.00    -7400.00
00742               8.00    -7200.00
00743               6.00    -7400.00
00744               8.00    -7200.00
00745              16.00    -7000.00
00746              14.00    -6800.00
00747               8.00    -6800.00
00748               2.00    -6400.00
00749               2.00    -6400.00
00750              10.00    -6200.00
00751              14.00    -6000.00
00752               8.00    -5800.00
00753               8.00    -5800.00
00754               8.00    -5600.00
00755               2.00    -5400.00
00756               2.00    -5200.00
00757               4.00    -5000.00
00758               8.00    -4800.00
00759              10.00    -4800.00
00760               8.00    -4600.00
00761               2.00    -4400.00
00762               0.00    -4200.00
00763               2.00    -4000.00
00764               8.00    -3800.00
00765               6.00    -3600.00
00766               6.00    -3600.00
00767               2.00    -3200.00
00768              -2.00    -3000.00
00769              -2.00    -3000.00
00770               6.00    -2800.00
00771               8.00    -2600.00
00772               2.00    -2400.00
00773              -6.00    -2200.00
00774              -8.00    -2000.00
00775              -2.00    -2000.00
00776               4.00    -1600.00
00777               6.00    -1400.00
00778               2.00    -1000.00
00779              -2.00    -1000.00
00780              -6.00     -800.00
00781              -8.00     -600.00
00782              -8.00     -600.00
00783               0.00     -200.00
00784               0.00        0.00
00785               0.00        0.00
00786               0.00      200.00
00787               0.00      400.00
00788              20.00      800.00
00789              18.00      800.00
00790              -6.00     1000.00
00791             -16.00     1200.00
00792               0.00     1200.00
00793              10.00     1600.00
00794              54.00     1800.00
00795             246.00     2000.00
00796             160.00     2400.00
00797            -254.00     2400.00
00798            -254.00     2600.00
00799            -110.00     2600.00
00800             210.00     2800.00
00801             246.00     3200.00
00802             -58.00     3200.00
00803            -254.00     3200.00
00804             234.00     4000.00
00805             104.00     3600.00
00806            -110.00     4000.00
00807             150.00     4200.00
00808            -182.00     4200.00
00809              92.00     4600.00
00810              84.00     4600.00
00811            -216.00     5000.00
00812              20.00     5000.00
00813              32.00     5400.00
00814              56.00     5400.00
00815             -32.00     5400.00
00816             -42.00     5800.00
00817             -26.00     5800.00
00818             -38.00     6000.00
00819             106.00     6400.00
00820            -102.00     6400.00
00821             -26.00     6800.00
00822              42.00     6800.00
00823             -32.00     6800.00
00824               8.00     7200.00
00825             -70.00     7200.00
00826             -16.00     7400.00
00827              26.00     7600.00
00828              24.00     7800.00
00829             -60.00     7600.00
00830             -40.00     8000.00
00831              -8.00     8200.00
00832             -18.00     8200.00
00833              16.00     8400.00
00834             -22.00     8400.00
00835             -38.00     8800.00
00836             -16.00     8800.00
00837              -2.00     9000.00
00838             -32.00     9000.00
00839              -2.00     9200.00
00840             -30.00     9200.00
00841             -30.00     9400.00
00842               0.00     9600.00
00843             -30.00     9600.00
00844             -14.00     9800.00
00845             -14.00    10000.00
00846             -32.00    10000.00
00847             -34.00    10000.00
00848              -2.00    10200.00
00849             -18.00    10400.00
00850             -18.00    10400.00
00851             -22.00    10400.00
00852             -40.00    10600.00
00853             -18.00    10600.00
00854             -14.00    10800.00
00855             -24.00    10800.00
00856             -20.00    11000.00
00857             -18.00    11000.00
00858             -24.00    11000.00
00859             -16.00    11200.00
00860             -32.00    11200.00
00861             -32.00    11400.00
00862             -10.00    11400.00
00863             -10.00    11400.00
00864             -24.00    11400.00
00865             -32.00    11800.00
00866             -32.00    11800.00
00867             -24.00    11600.00
00868             -10.00    11800.00
00869             -18.00    11800.00
00870             -24.00    11800.00
00871             -24.00    12000.00
00872             -30.00    11800.00
00873             -28.00    11800.00
00874             -22.00    11600.00
00875             -18.00    12000.00
00876             -16.00    12000.00
00877             -18.00    12000.00
00878             -26.00    12000.00
00879             -26.00    11800.00
00880             -26.00    12000.00
00881             -26.00    12000.00
00882             -22.00    12000.00
00883             -16.00    12000.00
00884             -24.00    12000.00
00885             -26.00    12000.00
00886             -32.00    12000.00
00887             -26.00    12000.00
00888             -16.00    11800.00
00889             -16.00    12000.00
00890             -16.00    12000.00
00891             -26.00    11800.00
00892             -30.00    11800.00
00893             -28.00    11600.00
00894             -18.00    11800.00
00895             -16.00    11600.00
00896             -18.00    11400.00
00897             -24.00    11800.00
00898             -24.00    11600.00
00899             -26.00    11600.00
00900             -26.00    11200.00
00901             -24.00    11400.00
00902             -20.00    11200.00
00903             -18.00    11200.00
00904             -22.00    11200.00
00905             -24.00    11200.00
00906             -26.00    10800.00
00907             -24.00    10800.00
00908             -24.00    10800.00
00909             -16.00    10800.00
00910             -18.00    10600.00
00911             -22.00    10600.00
00912             -26.00    10400.00
00913             -24.00    10400.00
00914             -24.00    10400.00
00915             -18.00    10000.00
00916             -18.00    10000.00
00917             -18.00     9800.00
00918             -28.00     9800.00
00919             -22.00     9600.00
00920             -24.00     9600.00
00921             -18.00     9600.00
00922              -8.00     9400.00
00923             -20.00     9200.00
00924             -28.00     9200.00
00925             -20.00     9000.00
00926             -18.00     8800.00
00927             -22.00     8600.00
00928             -16.00     8400.00
00929             -20.00     8400.00
00930             -14.00     8400.00
00931             -16.00     8200.00
00932             -24.00     8000.00
00933             -20.00     8000.00
00934             -16.00     7600.00
00935             -14.00     7400.00
00936             -10.00     7400.00
00937             -14.00     7400.00
00938             -22.00     7200.00
00939             -18.00     6800.00
00940             -22.00     6800.00
00941             -18.00     6600.00
00942              -6.00     6400.00
00943             -10.00     6400.00
00944             -16.00     6000.00
00945             -14.00     6000.00
00946             -18.00     5800.00
00947             -16.00     5600.00
00948             -12.00     5400.00
00949             -12.00     5200.00
00950              -8.00     5200.00
00951              -8.00     5000.00
00952             -22.00     4800.00
00953             -18.00     4600.00
00954             -10.00     4400.00
00955              -8.00     4200.00
00956              -8.00     4200.00
00957             -10.00     4000.00
00958             -10.00     3800.00
00959             -10.00     3400.00
00960             -16.00     3400.00
00961             -10.00     3200.00
00962              -6.00     3200.00
00963              -6.00     2800.00
00964              -8.00     2800.00
00965             -10.00     2600.00
00966             -10.00     2400.00
00967              -8.00     2000.00
00968             -10.00     1800.00
00969             -10.00     1800.00
00970              -6.00     1600.00
00971              -6.00     1200.00
00972              -6.00     1200.00
00973             -12.00      800.00
00974             -10.00      800.00
00975               0.00      600.00
00976               0.00      400.00
00977              -2.00      200.00
00978              -6.00        0.00
00979               2.00     -400.00
00980              28.00     -400.00
00981              16.00     -600.00
00982             -10.00     -800.00
00983             -14.00     -800.00
00984               0.00    -1000.00
00985              10.00    -1200.00
00986              42.00    -1400.00
00987             178.00    -1600.00
00988             230.00    -2000.00
00989            -198.00    -2400.00
00990            -254.00    -2600.00
00991            -146.00    -2600.00
00992              90.00    -2600.00
00993             220.00    -2400.00
00994             246.00    -3000.00
00995            -254.00    -3200.00
00996            -254.00    -3200.00
00997             246.00    -3800.00
00998              10.00    -3400.00
00999              22.00    -3800.00
01000             -24.00    -4200.00
01001             -48.00    -4000.00
01002             134.00    -4600.00
01003             -34.00    -4600.00
01004             -74.00    -4800.00
01005             -42.00    -4800.00
01006              62.00    -5000.00
01007             120.00    -5400.00
01008             -74.00    -5400.00
01009             -16.00    -6000.00
01010             -26.00    -5600.00
01011              38.00    -5800.00
01012              86.00    -6200.00
01013             -54.00    -6000.00
01014              -6.00    -6600.00
01015              14.00    -6400.00
01016              34.00    -6800.00
01017              -6.00    -7200.00
01018             -10.00    -7000.00
01019              30.00    -7400.00
01020               8.00    -7200.00
01021              32.00    -7400.00
01022             -18.00    -7600.00
01023              -6.00    -7800.00
01024              48.00    -8000.00
01025              12.00    -8000.00
01026               0.00    -8400.00
01027               6.00    -8200.00
01028              10.00    -8600.00
01029              22.00    -8800.00
01030              18.00    -8800.00
01031               0.00    -9200.00
01032               6.00    -9200.00
01033              16.00    -9200.00
01034               8.00    -9400.00
01035              12.00    -9400.00
01036              22.00    -9400.00
01037               8.00    -9600.00
01038              10.00    -9600.00
01039               2.00    -9800.00
01040               0.00   -10000.00
01041              32.00   -10000.00
01042              28.00   -10200.00
01043               8.00   -10200.00
01044               6.00   -10200.00
01045               2.00   -10200.00
01046              12.00   -10400.00
01047              26.00   -10600.00
01048              18.00   -10800.00
01049              12.00   -10600.00
01050              16.00   -10800.00
01051               8.00   -10800.00
01052               8.00   -11000.00
01053              22.00   -11000.00
01054              18.00   -11000.00
01055              22.00   -11200.00
01056              16.00   -11000.00
01057               0.00   -11200.00
01058              14.00   -11200.00
01059              20.00   -11200.00
01060              16.00   -11200.00
01061              22.00   -11200.00
01062              22.00   -11400.00
01063              14.00   -11600.00
01064              14.00   -11600.00
01065              10.00   -11600.00
01066              10.00   -11600.00
01067              24.00   -11600.00
01068              22.00   -11600.00
01069              18.00   -11600.00
01070              18.00   -11600.00
01071               8.00   -11600.00
01072              14.00   -11600.00
01073              18.00   -11600.00
01074              22.00   -11600.00
01075              22.00   -11600.00
01076              16.00   -11600.00
01077              14.00   -11600.00
01078              10.00   -11600.00
01079              16.00   -11600.00
01080              22.00   -11600.00
01081              20.00   -11600.00
01082              18.00   -11400.00
01083              18.00   -11400.00
01084              16.00   -11600.00
01085              10.00   -11400.00
01086              14.00   -11200.00
01087              18.00   -11200.00
01088              22.00   -11200.00
01089              16.00   -11000.00
01090              16.00   -11200.00
01091              10.00   -11000.00
01092              10.00   -11000.00
01093              14.00   -11000.00
01094              22.00   -10800.00
01095              22.00   -10800.00
01096              18.00   -10800.00
01097              10.00   -10800.00
01098              10.00   -10800.00
01099              10.00   -10400.00
01100              18.00   -10400.00
01101              16.00   -10400.00
01102              16.00   -10200.00
01103              14.00   -10200.00
01104              12.00   -10200.00
01105               8.00   -10000.00
01106              10.00   -10000.00
01107              14.00    -9800.00
01108              18.00    -9600.00
01109              16.00    -9600.00
01110               8.00    -9400.00
01111               8.00    -9400.00
01112               8.00    -9200.00
01113              10.00    -9200.00
01114              16.00    -9000.00
01115              16.00    -8800.00
01116              10.00    -8800.00
01117               8.00    -8600.00
01118               4.00    -8400.00
01119               8.00    -8400.00
01120              14.00    -8000.00
01121              14.00    -8000.00
01122              12.00    -8000.00
01123               6.00    -7800.00
01124               6.00    -7600.00
01125              12.00    -7400.00
01126               8.00    -7200.00
01127              10.00    -7200.00
01128              12.00    -7000.00
01129              10.00    -7000.00
01130               8.00    -6800.00
01131               6.00    -6600.00
01132               4.00    -6400.00
01133               8.00    -6400.00
01134              12.00    -6000.00
01135               8.00    -6000.00
01136              10.00    -5800.00
01137               8.00    -5600.00
01138               6.00    -5400.00
01139               2.00    -5200.00
01140               2.00    -5200.00
01141               8.00    -4800.00
01142              10.00    -4800.00
01143               4.00    -4600.00
01144               2.00    -4600.00
01145               4.00    -4200.00
01146               2.00    -4000.00
01147               6.00    -3800.00
01148               6.00    -3600.00
01149               2.00    -3600.00
01150               6.00    -3400.00
01151               0.00    -3000.00
01152              -2.00    -3000.00
01153               0.00    -2800.00
01154               4.00    -2600.00
01155               2.00    -2400.00
01156               2.00    -2400.00
01157              -2.00    -2000.00
01158              -2.00    -1800.00
01159               2.00    -1600.00
01160              -2.00    -1400.00
01161               0.00    -1400.00
01162               0.00    -1200.00
01163               0.00    -1000.00
01164              -2.00     -800.00
01165              -6.00     -600.00
01166              -6.00     -400.00
01167              -2.00        0.00
01168              -2.00        0.00
01169               2.00        0.00
01170               0.00      400.00
01171              10.00      600.00
01172              26.00      800.00
01173               6.00     1000.00
01174             -16.00     1200.00
01175             -10.00     1200.00
01176               6.00     1600.00
01177              22.00     1600.00
01178             152.00     1800.00
01179             246.00     2200.00
01180            -128.00     2400.00
01181            -254.00     2400.00
01182            -254.00     2600.00
01183              16.00     2800.00
01184             246.00     3000.00
01185             246.00     3400.00
01186            -254.00     3200.00
01187            -186.00     3400.00
01188             246.00     3600.00
01189            -154.00     3800.00
01190              94.00     4200.00
01191             -16.00     4400.00
01192            -126.00     4400.00
01193             210.00     4600.00
01194            -136.00     4800.00
01195            -112.00     5000.00
01196              50.00     5000.00
01197              22.00     5400.00
01198              40.00     5200.00
01199             -66.00     5600.00
01200              -6.00     6000.00
01201             -80.00     5800.00
01202              70.00     6400.00
01203              26.00     6200.00
01204            -118.00     6600.00
01205              48.00     6800.00
01206             -28.00     6800.00
01207               8.00     7200.00
01208             -18.00     7000.00
01209             -56.00     7400.00
01210               2.00     7400.00
01211              22.00     7600.00
01212             -10.00     7800.00
01213             -56.00     8000.00
01214               2.00     8200.00
01215             -28.00     8200.00
01216              -2.00     8400.00
01217              -8.00     8400.00
01218             -38.00     8400.00
01219             -24.00     8800.00
01220               0.00     8800.00
01221             -16.00     9200.00
01222             -18.00     9200.00
01223             -12.00     9200.00
01224             -46.00     9400.00
01225              -4.00     9600.00
01226             -14.00     9800.00
01227             -14.00     9600.00
01228             -10.00     9800.00
01229             -32.00     9800.00
01230             -40.00    10000.00
01231             -12.00    10200.00
01232               0.00    10000.00
01233             -22.00    10400.00
01234             -16.00    10400.00
01235             -38.00    10600.00
01236             -34.00    10600.00
01237             -12.00    10600.00
01238             -12.00    10800.00
01239             -22.00    10800.00
01240             -16.00    11000.00
01241             -28.00    10800.00
01242             -24.00    11200.00
01243             -22.00    11200.00
01244             -30.00    11400.00
01245             -16.00    11400.00
01246             -14.00    11400.00
01247             -24.00    11400.00
01248             -26.00    11600.00
01249             -26.00    11800.00
01250             -26.00    11600.00
01251             -24.00    11800.00
01252             -18.00    11800.00
01253             -18.00    11800.00
01254             -18.00    11800.00
01255             -26.00    11800.00
01256             -32.00    11800.00
01257             -26.00    12000.00
01258             -18.00    12000.00
01259             -18.00    12000.00
01260             -18.00    12000.00
01261             -24.00    12000.00
01262             -30.00    12000.00
01263             -26.00    12000.00
01264             -26.00    12000.00
01265             -24.00    12000.00
01266             -14.00    12000.00
01267             -18.00    12000.00
01268             -26.00    12000.00
01269             -26.00    12000.00
01270             -26.00    12000.00
01271             -22.00    12000.00
01272             -16.00    11800.00
01273             -22.00    12000.00
01274             -22.00    11800.00
01275             -22.00    11800.00
01276             -32.00    11800.00
01277             -24.00    11600.00
01278             -18.00    11800.00
01279             -18.00    11600.00
01280             -16.00    11800.00
01281             -26.00    11400.00
01282             -32.00    11600.00
01283             -26.00    11400.00
01284             -22.00    11200.00
01285             -16.00    11400.00
01286             -14.00    11200.00
01287             -18.00    11200.00
01288             -30.00    11200.00
01289             -30.00    11000.00
01290             -26.00    10800.00
01291             -16.00    10800.00
01292             -10.00    10800.00
01293             -22.00    10600.00
01294             -26.00    10400.00
01295             -30.00    10400.00
01296             -26.00    10400.00
01297             -18.00    10400.00
01298             -16.00    10000.00
01299             -22.00    10000.00
01300             -22.00     9800.00
01301             -26.00     9800.00
01302             -24.00     9800.00
01303             -24.00     9600.00
01304             -22.00     9600.00
01305             -20.00     9200.00
01306             -16.00     9200.00
01307             -20.00     9200.00
01308             -24.00     9000.00
01309             -22.00     9000.00
01310             -24.00     8800.00
01311             -22.00     8800.00
01312             -16.00     8400.00
01313             -16.00     8400.00
01314             -18.00     8200.00
01315             -18.00     8000.00
01316             -20.00     8000.00
01317             -22.00     7600.00
01318             -22.00     7600.00
01319             -10.00     7600.00
01320             -10.00     7400.00
01321             -10.00     7200.00
01322             -22.00     7200.00
01323             -26.00     6800.00
01324             -18.00     6800.00
01325             -12.00     6600.00
01326             -14.00     6400.00
01327             -14.00     6400.00
01328             -22.00     6000.00
01329             -16.00     6000.00
01330             -10.00     5800.00
01331             -14.00     5600.00
01332             -14.00     5600.00
01333             -10.00     5400.00
01334             -14.00     5000.00
01335             -10.00     5000.00
01336              -8.00     4800.00
01337             -14.00     4600.00
01338             -18.00     4400.00
01339             -16.00     4200.00
01340             -12.00     4000.00
01341               0.00     3800.00
01342               0.00     3600.00
01343             -14.00     3600.00
01344             -18.00     3200.00
01345             -18.00     3200.00
01346              -8.00     2800.00
01347               4.00     2800.00
01348              -2.00     2600.00
01349             -12.00     2400.00
01350             -14.00     2000.00
01351             -10.00     1800.00
01352              -2.00     1600.00
01353               0.00     1600.00
01354              -6.00     1600.00
01355             -10.00     1200.00
01356             -12.00     1000.00
01357              -6.00      800.00
01358               2.00      800.00
01359              -2.00      400.00
01360             -10.00      200.00
01361              -8.00      200.00
01362               0.00        0.00
01363              24.00     -400.00
01364              32.00     -400.00
01365              -6.00     -400.00
01366             -26.00     -800.00
01367             -10.00     -800.00
01368              10.00    -1200.00
01369              24.00    -1200.00
01370              96.00    -1400.00
01371             246.00    -1800.00
01372              46.00    -2400.00
01373            -254.00    -2200.00
01374            -254.00    -2400.00
01375              22.00    -2800.00
01376             122.00    -2400.00
01377             246.00    -2800.00
01378             110.00    -3200.00
01379            -254.00    -3000.00
01380              74.00    -3600.00
01381             176.00    -3600.00
01382             -48.00    -3200.00
01383              50.00    -4200.00
01384             -90.00    -4000.00
01385              64.00    -4400.00
01386              72.00    -4400.00
01387             -84.00    -4600.00
01388             -44.00    -5000.00
01389             -24.00    -4800.00
01390             142.00    -5200.00
01391              14.00    -5200.00
01392             -64.00    -5400.00
01393               0.00    -6000.00
01394             -24.00    -5600.00
01395              94.00    -6200.00
01396               6.00    -6200.00
01397             -40.00    -6200.00
01398              22.00    -6800.00
01399              22.00    -6400.00
01400              10.00    -7000.00
01401             -42.00    -6800.00
01402              22.00    -7200.00
01403              38.00    -7200.00
01404              30.00    -7400.00
01405              10.00    -7800.00
01406             -42.00    -7600.00
01407              24.00    -8000.00
01408              34.00    -7800.00
01409               4.00    -8200.00
01410               6.00    -8400.00
01411               6.00    -8400.00
01412               6.00    -8600.00
01413              22.00    -8800.00
01414              22.00    -8800.00
01415              16.00    -9000.00
01416              24.00    -9200.00
01417               0.00    -9200.00
01418             -14.00    -9400.00
01419              16.00    -9400.00
01420              30.00    -9400.00
01421              16.00    -9600.00
01422              12.00    -9600.00
01423              -6.00    -9800.00
01424              18.00   -10000.00
01425              38.00   -10200.00
01426              10.00   -10200.00
01427              -2.00   -10200.00
01428               6.00   -10400.00
01429               8.00   -10400.00
01430              22.00   -10600.00
01431              22.00   -10800.00
01432               8.00   -10800.00
01433              16.00   -10800.00
01434              18.00   -10800.00
01435               8.00   -11000.00
01436              16.00   -11000.00
01437              12.00   -11000.00
01438              10.00   -11000.00
01439              24.00   -11200.00
01440              16.00   -11000.00
01441              10.00   -11200.00
01442              14.00   -11200.00
01443              10.00   -11200.00
01444              16.00   -11400.00
01445              26.00   -11400.00
01446              18.00   -11400.00
01447               8.00   -11400.00
01448               8.00   -11600.00
01449              10.00   -11600.00
01450              22.00   -11600.00
01451              24.00   -11600.00
01452              16.00   -11600.00
01453              16.00   -11600.00
01454              14.00   -11600.00
01455              10.00   -11600.00
01456              16.00   -11600.00
01457              22.00   -11600.00
01458              22.00   -11600.00
01459              18.00   -11600.00
01460              14.00   -11400.00
01461              14.00   -11800.00
01462              16.00   -11600.00
01463              16.00   -11600.00
01464              14.00   -11600.00
01465              18.00   -11400.00
01466              22.00   -11600.00
01467              16.00   -11600.00
01468              10.00   -11400.00
01469              14.00   -11200.00
01470              16.00   -11200.00
01471              22.00   -11200.00
01472              22.00   -11000.00
01473              14.00   -11200.00
01474              14.00   -11200.00
01475              10.00   -11000.00
01476              10.00   -11000.00
01477              16.00   -11000.00
01478              22.00   -11000.00
01479              20.00   -10800.00
01480              16.00   -10800.00
01481               6.00   -10800.00
01482               8.00   -10600.00
01483              16.00   -10400.00
01484              18.00   -10400.00
01485              20.00   -10200.00
01486              16.00   -10200.00
01487               8.00   -10200.00
01488              10.00   -10000.00
01489              10.00   -10000.00
01490              12.00    -9800.00
01491              14.00    -9600.00
01492              16.00    -9600.00
01493              10.00    -9400.00
01494              10.00    -9400.00
01495               8.00    -9200.00
01496              10.00    -9200.00
01497              14.00    -9200.00
01498              14.00    -8800.00
01499              10.00    -8800.00
01500               8.00    -8800.00
01501               8.00    -8600.00
01502               6.00    -8400.00
01503              10.00    -8400.00
01504              10.00    -8200.00
01505              12.00    -8000.00
01506              14.00    -8000.00
01507               6.00    -7800.00
01508               8.00    -7400.00
01509               6.00    -7600.00
01510               8.00    -7400.00
01511               8.00    -7200.00
01512              12.00    -7000.00
01513               8.00    -6800.00
01514               6.00    -6800.00
01515               2.00    -6600.00
01516               4.00    -6400.00
01517               8.00    -6200.00
01518               8.00    -6000.00
01519               8.00    -5800.00
01520               8.00    -5800.00
01521               2.00    -5600.00
01522               2.00    -5400.00
01523               2.00    -5200.00
01524              10.00    -5000.00
01525               8.00    -4800.00
01526               4.00    -4800.00
01527               2.00    -4600.00
01528               2.00    -4400.00
01529               2.00    -4000.00
01530               2.00    -4000.00
01531               2.00    -3800.00
01532               6.00    -3600.00
01533               8.00    -3200.00
01534               0.00    -3200.00
01535              -2.00    -3000.00
01536               0.00    -2800.00
01537               2.00    -2800.00
01538               6.00    -2600.00
01539               0.00    -2400.00
01540              -2.00    -2200.00
01541               0.00    -2000.00
01542              -2.00    -1800.00
01543              -2.00    -1600.00
01544               0.00    -1400.00
01545               2.00    -1000.00
01546               0.00    -1000.00
01547               0.00     -800.00
01548              -6.00     -600.00
01549               0.00     -400.00
01550               2.00     -400.00
01551              -2.00        0.00
01552              -2.00      200.00
01553              -2.00      400.00
01554               0.00      400.00
01555              24.00      800.00
01556              22.00      800.00
01557              -6.00     1000.00
01558             -18.00     1200.00
01559              -6.00     1200.00
01560              14.00     1600.00
01561              62.00     1600.00
01562             246.00     2000.00
01563             148.00     2400.00
01564            -254.00     2600.00
01565            -254.00     2400.00
01566            -104.00     2600.00
01567             218.00     3000.00
01568             246.00     3200.00
01569             -88.00     3200.00
01570            -254.00     3200.00
01571             246.00     3800.00
01572              80.00     3600.00
01573            -104.00     4000.00
01574             144.00     4200.00
01575            -192.00     4400.00
01576             104.00     4400.00
01577              76.00     4800.00
01578            -210.00     5000.00
01579              24.00     5000.00
01580              18.00     5400.00
01581              54.00     5400.00
01582             -26.00     5600.00
01583             -32.00     6000.00
01584             -38.00     5800.00
01585             -36.00     6200.00
01586             110.00     6400.00
01587            -104.00     6400.00
01588             -26.00     6800.00
01589              22.00     6800.00
01590             -32.00     6800.00
01591              24.00     7200.00
01592             -62.00     7200.00
01593             -22.00     7600.00
01594              16.00     7600.00
01595              16.00     7600.00
01596             -50.00     7600.00
01597             -24.00     8000.00
01598              -2.00     8200.00
01599             -22.00     8400.00
01600               8.00     8400.00
01601             -34.00     8400.00
01602             -32.00     8800.00
01603              -2.00     8800.00
01604               2.00     9000.00
01605             -30.00     9000.00
01606             -10.00     9200.00
01607             -34.00     9200.00
01608             -24.00     9400.00
01609               0.00     9600.00
01610             -22.00     9600.00
01611              -6.00     9800.00
01612             -22.00    10000.00
01613             -38.00    10000.00
01614             -32.00    10000.00
01615               2.00    10400.00
01616             -10.00    10200.00
01617             -16.00    10200.00
01618             -26.00    10600.00
01619             -40.00    10600.00
01620             -22.00    10600.00
01621             -12.00    10800.00
01622             -16.00    10800.00
01623             -16.00    10800.00
01624             -22.00    11000.00
01625             -26.00    11000.00
01626             -22.00    11200.00
01627             -26.00    11200.00
01628             -26.00    11200.00
01629             -14.00    11400.00
01630             -18.00    11400.00
01631             -28.00    11400.00
01632             -26.00    11600.00
01633             -26.00    11800.00
01634             -30.00    11600.00
01635             -20.00    11600.00
01636             -18.00    11800.00
01637             -16.00    11800.00
01638             -22.00    11800.00
01639             -32.00    12000.00
01640             -32.00    11800.00
01641             -18.00    12000.00
01642             -20.00    11800.00
01643             -16.00    11800.00
01644             -22.00    12000.00
01645             -30.00    11800.00
01646             -28.00    11800.00
01647             -24.00    12000.00
01648             -24.00    12000.00
01649             -20.00    12000.00
01650             -20.00    12000.00
01651             -30.00    12000.00
01652             -26.00    12000.00
01653             -26.00    12000.00
01654             -26.00    11800.00
01655             -22.00    12000.00
01656             -22.00    12000.00
01657             -22.00    11800.00
01658             -22.00    11800.00
01659             -30.00    11800.00
01660             -30.00    11800.00
01661             -22.00    11600.00
01662             -18.00    11600.00
01663             -18.00    11600.00
01664             -22.00    11400.00
01665             -26.00    11800.00
01666             -24.00    11400.00
01667             -24.00    11400.00
01668             -24.00    11400.00
01669             -16.00    11200.00
01670             -18.00    11000.00
01671             -22.00    11200.00
01672             -26.00    11200.00
01673             -28.00    11200.00
01674             -22.00    10800.00
01675             -18.00    10800.00
01676             -18.00    10600.00
01677             -20.00    10400.00
01678             -24.00    10400.00
01679             -26.00    10400.00
01680             -26.00    10400.00
01681             -24.00    10200.00
01682             -18.00    10200.00
01683             -12.00    10200.00
01684             -18.00     9800.00
01685             -26.00     9800.00
01686             -26.00     9600.00
01687             -26.00     9600.00
01688             -20.00     9600.00
01689             -16.00     9200.00
01690             -16.00     9200.00
01691             -22.00     9200.00
01692             -26.00     9000.00
01693             -24.00     9000.00
01694             -18.00     8600.00
01695             -16.00     8600.00
01696             -16.00     8400.00
01697             -22.00     8200.00
01698             -26.00     8000.00
01699             -18.00     8000.00
01700             -18.00     7800.00
01701             -16.00     7600.00
01702             -16.00     7600.00
01703             -16.00     7400.00
01704             -16.00     7400.00
01705             -14.00     7200.00
01706             -22.00     7000.00
01707             -18.00     6800.00
01708             -16.00     6600.00
01709             -18.00     6600.00
01710             -14.00     6400.00
01711             -12.00     6200.00
01712             -16.00     6000.00
01713             -14.00     5800.00
01714             -18.00     5800.00
01715             -12.00     5600.00
01716              -8.00     5200.00
01717             -10.00     5200.00
01718             -16.00     5000.00
01719             -16.00     4800.00
01720             -16.00     4800.00
01721             -12.00     4400.00
01722              -8.00     4200.00
01723             -10.00     4000.00
01724             -10.00     4000.00
01725             -10.00     3800.00
01726             -18.00     3600.00
01727             -10.00     3400.00
01728              -8.00     3200.00
01729              -8.00     3000.00
01730              -8.00     2800.00
01731             -10.00     2600.00
01732              -8.00     2400.00
01733              -6.00     2200.00
01734              -8.00     2000.00
01735             -10.00     1800.00
01736              -2.00     1600.00
01737               0.00     1400.00
01738              -2.00     1200.00
01739             -10.00     1000.00
01740             -14.00      800.00
01741             -10.00      800.00
01742               0.00      400.00
01743               0.00      400.00
01744               2.00      200.00
01745               0.00        0.00
01746               8.00        0.00
01747              30.00     -400.00
01748              14.00     -600.00
01749             -14.00     -800.00
01750             -16.00     -800.00
01751               2.00    -1200.00
01752              16.00    -1200.00
01753              46.00    -1400.00
01754             182.00    -1600.00
01755             222.00    -2000.00
01756            -206.00    -2200.00
01757            -254.00    -2600.00
01758            -138.00    -2400.00
01759              88.00    -2600.00
01760             224.00    -2400.00
01761             246.00    -3200.00
01762            -254.00    -3200.00
01763            -240.00    -3200.00
01764             246.00    -3800.00
01765               0.00    -3400.00
01766              30.00    -3800.00
01767             -28.00    -4200.00
01768             -42.00    -4000.00
01769             132.00    -4600.00
01770             -42.00    -4600.00
01771             -72.00    -4800.00
01772             -42.00    -4800.00
01773              70.00    -5200.00
01774             118.00    -5400.00
01775             -74.00    -5200.00
01776             -16.00    -5800.00
01777             -24.00    -6000.00
01778              38.00    -6000.00
01779              78.00    -6200.00
01780             -54.00    -6000.00
01781               2.00    -6800.00
01782              22.00    -6600.00
01783              34.00    -6800.00
01784             -20.00    -7000.00
01785             -18.00    -7000.00
01786              34.00    -7200.00
01787              18.00    -7200.00
01788              34.00    -7800.00
01789             -26.00    -7600.00
01790              -8.00    -7800.00
01791              54.00    -8000.00
01792               8.00    -8000.00
01793              -4.00    -8400.00
01794               6.00    -8400.00
01795              14.00    -8600.00
01796              26.00    -8600.00
01797              16.00    -8800.00
01798              -2.00    -9000.00
01799              10.00    -9000.00
01800              22.00    -9200.00
01801               6.00    -9200.00
01802              16.00    -9400.00
01803              24.00    -9600.00
01804               8.00    -9600.00
01805              16.00    -9600.00
01806               0.00    -9600.00
01807               2.00    -9800.00
01808              32.00   -10000.00
01809              24.00   -10000.00
01810              10.00   -10200.00
01811              10.00   -10200.00
01812               4.00   -10400.00
01813              12.00   -10400.00
01814              24.00   -10600.00
01815              16.00   -10600.00
01816              16.00   -10800.00
01817              16.00   -10800.00
01818               6.00   -11000.00
01819               8.00   -11000.00
01820              16.00   -11000.00
01821              10.00   -11000.00
01822              20.00   -11200.00
01823              22.00   -11200.00
01824              10.00   -11200.00
01825              14.00   -11200.00
01826              14.00   -11200.00
01827              12.00   -11200.00
01828              22.00   -11400.00
01829              20.00   -11600.00
01830              14.00   -11400.00
01831              14.00   -11600.00
01832              10.00   -11600.00
01833               8.00   -11600.00
01834              22.00   -11600.00
01835              22.00   -11600.00
01836              16.00   -11600.00
01837              14.00   -11600.00
01838              12.00   -11600.00
01839              14.00   -11600.00
01840              20.00   -11600.00
01841              18.00   -11600.00
01842              16.00   -11600.00
01843              16.00   -11600.00
01844              16.00   -11600.00
01845              16.00   -11600.00
01846              16.00   -11600.00
01847              14.00   -11600.00
01848              16.00   -11600.00
01849              20.00   -11400.00
01850              16.00   -11400.00
01851              14.00   -11400.00
01852              10.00   -11200.00
01853              12.00   -11400.00
01854              22.00   -11400.00
01855              20.00   -11200.00
01856              16.00   -11200.00
01857              16.00   -11200.00
01858              14.00   -11200.00
01859              10.00   -11000.00
01860              16.00   -11000.00
01861              22.00   -11000.00
01862              22.00   -10800.00
01863              16.00   -10800.00
01864              10.00   -10800.00
01865              10.00   -10600.00
01866              16.00   -10400.00
01867              16.00   -10400.00
01868              16.00   -10400.00
01869              18.00   -10000.00
01870              14.00   -10200.00
01871              14.00   -10000.00
01872               8.00   -10000.00
01873              12.00   -10000.00
01874              16.00    -9800.00
01875              18.00    -9600.00
01876              14.00    -9600.00
01877              10.00    -9400.00
01878              10.00    -9400.00
01879              10.00    -9400.00
01880              10.00    -9200.00
01881              10.00    -9200.00
01882              16.00    -9000.00
01883              14.00    -8800.00
01884               8.00    -8800.00
01885               2.00    -8400.00
01886               8.00    -8400.00
01887              10.00    -8200.00
01888              14.00    -8400.00
01889              10.00    -8000.00
01890               8.00    -8000.00
01891               8.00    -7400.00
01892               6.00    -7600.00
01893               6.00    -7400.00
01894               8.00    -7200.00
01895              10.00    -7200.00
01896              10.00    -7000.00
01897               8.00    -6800.00
01898               6.00    -6800.00
01899               2.00    -6600.00
01900               6.00    -6400.00
01901               6.00    -6200.00
01902              10.00    -6200.00
01903               8.00    -5800.00
01904               4.00    -5600.00
01905               0.00    -5600.00
01906               0.00    -5400.00
01907               8.00    -5200.00
01908               8.00    -5000.00
01909               6.00    -4800.00
01910               0.00    -4600.00
01911               2.00    -4400.00
01912               0.00    -4400.00
01913               6.00    -4000.00
01914               4.00    -3800.00
01915               4.00    -3800.00
01916               6.00    -3600.00
01917               0.00    -3400.00
01918              -2.00    -3200.00
01919               4.00    -3000.00
01920               2.00    -2800.00
01921               4.00    -2600.00
01922               0.00    -2400.00
01923              -2.00    -2400.00
01924              -2.00    -2200.00
01925               0.00    -2000.00
01926               0.00    -1600.00
01927               4.00    -1600.00
01928               6.00    -1200.00
01929              -2.00    -1000.00
01930              -8.00    -1000.00
01931             -10.00     -800.00
01932               0.00     -600.00
01933               6.00     -400.00
01934               2.00        0.00
01935               2.00        0.00
01936               0.00      200.00
01937              -2.00      400.00
01938               8.00      600.00
01939              24.00      800.00
01940              10.00      800.00
01941             -10.00     1200.00
01942             -10.00     1200.00
01943               0.00     1600.00
01944              22.00     1600.00
01945             160.00     2000.00
01946             246.00     2200.00
01947            -144.00     2200.00
01948            -254.00     2400.00
01949            -254.00     2600.00
01950              24.00     2600.00
01951             246.00     3200.00
01952             246.00     3400.00
01953            -254.00     3000.00
01954            -160.00     3400.00
01955             246.00     3600.00
01956            -162.00     3800.00
01957             106.00     4400.00
01958             -26.00     4200.00
01959            -114.00     4400.00
01960             206.00     4400.00
01961            -152.00     4800.00
01962            -106.00     5000.00
01963              52.00     5200.00
01964              26.00     5400.00
01965              38.00     5600.00
01966             -64.00     5800.00
01967             -10.00     6000.00
01968             -80.00     5800.00
01969              82.00     6400.00
01970              16.00     6200.00
01971            -120.00     6400.00
01972              42.00     6800.00
01973             -26.00     6800.00
01974              18.00     7200.00
01975             -24.00     7200.00
01976             -58.00     7400.00
01977               2.00     7400.00
01978              20.00     7600.00
01979             -10.00     7800.00
01980             -56.00     8000.00
01981              -2.00     8200.00
01982             -32.00     8200.00
01983              -2.00     8400.00
01984             -10.00     8600.00
01985             -32.00     8400.00
01986             -20.00     8800.00
01987               0.00     9000.00
01988             -16.00     9000.00
01989             -24.00     9200.00
01990             -14.00     9200.00
01991             -42.00     9400.00
01992              -6.00     9600.00
01993             -14.00     9600.00
01994             -16.00     9600.00
01995             -10.00    10000.00
01996             -32.00    10000.00
01997             -38.00    10000.00
01998             -10.00    10200.00
01999               0.00    10200.00
02000             -22.00    10200.00
02001             -22.00    10400.00
02002             -34.00    10600.00
02003             -28.00    10600.00
02004             -10.00    10600.00
02005             -16.00    10800.00
02006             -24.00    10800.00
02007             -14.00    10800.00
02008             -24.00    11200.00
02009             -24.00    11200.00
02010             -18.00    11200.00
02011             -34.00    11400.00
02012             -22.00    11200.00
02013             -14.00    11600.00
02014             -24.00    11400.00
02015             -26.00    11800.00
02016             -24.00    11600.00
02017             -32.00    11800.00
02018             -24.00    11800.00
02019             -16.00    11800.00
02020             -18.00    11800.00
02021             -18.00    11800.00
02022             -26.00    11800.00
02023             -34.00    12000.00
02024             -26.00    12000.00
02025             -22.00    12000.00
02026             -20.00    12000.00
02027             -14.00    12000.00
02028             -22.00    12000.00
02029             -32.00    12000.00
02030             -32.00    12000.00
02031             -32.00    12000.00
02032             -22.00    12000.00
02033             -12.00    12000.00
02034             -22.00    12000.00
02035             -30.00    12000.00
02036             -30.00    12000.00
02037             -32.00    12000.00
02038             -22.00    11800.00
02039             -16.00    11800.00
02040             -18.00    11800.00
02041             -18.00    12000.00
02042             -26.00    11800.00
02043             -34.00    11800.00
02044             -26.00    12000.00
02045             -18.00    11600.00
02046             -16.00    11600.00
02047             -22.00    11600.00
02048             -26.00    11800.00
02049             -32.00    11600.00
02050             -26.00    11400.00
02051             -22.00    11200.00
02052             -16.00    11400.00
02053             -16.00    11200.00
02054             -20.00    11200.00
02055             -26.00    11200.00
02056             -26.00    10800.00
02057             -24.00    10800.00
02058             -18.00    10800.00
02059             -16.00    10800.00
02060             -16.00    10600.00
02061             -22.00    10600.00
02062             -24.00    10400.00
02063             -26.00    10600.00
02064             -24.00    10400.00
02065             -18.00    10200.00
02066             -14.00    10000.00
02067             -18.00    10000.00
02068             -24.00     9800.00
02069             -24.00     9800.00
02070             -22.00     9600.00
02071             -18.00     9600.00
02072             -16.00     9400.00
02073             -16.00     9400.00
02074             -16.00     9200.00
02075             -22.00     9000.00
02076             -26.00     9000.00
02077             -18.00     9000.00
02078             -16.00     8400.00
02079             -16.00     8400.00
02080             -16.00     8400.00
02081             -24.00     8200.00
02082             -22.00     8200.00
02083             -16.00     8000.00
02084             -24.00     8000.00
02085             -14.00     7600.00
02086             -14.00     7400.00
02087             -16.00     7400.00
02088             -16.00     7200.00
02089             -22.00     7200.00
02090             -22.00     6800.00
02091             -14.00     6800.00
02092             -16.00     6600.00
02093             -14.00     6400.00
02094             -10.00     6400.00
02095             -22.00     6000.00
02096             -14.00     6000.00
02097             -16.00     5600.00
02098             -14.00     5600.00
02099             -14.00     5200.00
02100             -10.00     5200.00
02101             -16.00     5000.00
02102             -10.00     5000.00
02103             -14.00     4800.00
02104             -14.00     4600.00
02105             -10.00     4400.00
02106              -8.00     4000.00
02107              -6.00     4000.00
02108             -14.00     3800.00
02109             -18.00     3600.00
02110             -12.00     3400.00
02111             -10.00     3200.00
02112              -6.00     3200.00
02113              -2.00     2800.00
02114             -14.00     2600.00
02115              -2.00     2600.00
02116              -2.00     2400.00
02117             -16.00     2000.00
02118             -14.00     2000.00
02119              -2.00     1600.00
02120               0.00     1600.00
02121               6.00     1600.00
02122             -14.00     1200.00
02123             -24.00     1000.00
02124              -8.00      800.00
02125               8.00      600.00
02126               6.00      400.00
02127               0.00      200.00
02128             -14.00        0.00
02129              -8.00        0.00
02130              26.00     -200.00
02131              26.00     -600.00
02132               2.00     -600.00
02133             -16.00     -800.00
02134             -10.00    -1000.00
02135              12.00    -1000.00
02136              22.00    -1400.00
02137              96.00    -1400.00
02138             246.00    -1600.00
02139              34.00    -2200.00
02140            -254.00    -2400.00
02141            -254.00    -2600.00
02142              26.00    -2400.00
02143             128.00    -2400.00
02144             246.00    -2800.00
02145              82.00    -3200.00
02146            -254.00    -3000.00
02147              86.00    -3600.00
02148             170.00    -3800.00
02149             -40.00    -3600.00
02150              46.00    -4000.00
02151             -96.00    -4000.00
02152              80.00    -4400.00
02153              72.00    -4600.00
02154             -96.00    -4600.00
02155             -54.00    -4800.00
02156             -22.00    -4800.00
02157             150.00    -5400.00
02158              16.00    -5400.00
02159             -66.00    -5400.00
02160             -14.00    -6000.00
02161             -32.00    -5600.00
02162              98.00    -6200.00
02163              14.00    -6200.00
02164             -32.00    -6400.00
02165               8.00    -6800.00
02166              10.00    -6400.00
02167              12.00    -7000.00
02168             -26.00    -7000.00
02169              32.00    -7200.00
02170              22.00    -7200.00
02171              18.00    -7400.00
02172               8.00    -7600.00
02173             -32.00    -7400.00
02174              34.00    -8000.00
02175              26.00    -7800.00
02176              -6.00    -8200.00
02177               6.00    -8400.00
02178              12.00    -8400.00
02179              18.00    -8800.00
02180              24.00    -8600.00
02181               6.00    -8800.00
02182              -4.00    -8800.00
02183              22.00    -9000.00
02184              18.00    -9200.00
02185               8.00    -9400.00
02186              22.00    -9600.00
02187              10.00    -9400.00
02188               6.00    -9600.00
02189              14.00    -9600.00
02190               6.00    -9800.00
02191              20.00   -10000.00
02192              32.00    -9800.00
02193              10.00   -10000.00
02194              10.00   -10200.00
02195               8.00   -10200.00
02196               8.00   -10400.00
02197              22.00   -10400.00
02198              22.00   -10400.00
02199              14.00   -10800.00
02200              18.00   -10800.00
02201              18.00   -10800.00
02202               8.00   -11000.00
02203              14.00   -10800.00
02204              16.00   -11000.00
02205              16.00   -11000.00
02206              24.00   -11200.00
02207              14.00   -11200.00
02208               6.00   -11200.00
02209              14.00   -11200.00
02210              14.00   -11200.00
02211              18.00   -11600.00
02212              22.00   -11600.00
02213              16.00   -11400.00
02214              10.00   -11600.00
02215              14.00   -11400.00
02216               8.00   -11600.00
02217              18.00   -11600.00
02218              26.00   -11600.00
02219              16.00   -11600.00
02220               8.00   -11600.00
02221               8.00   -11600.00
02222              16.00   -11800.00
02223              26.00   -11600.00
02224              22.00   -11600.00
02225              10.00   -11600.00
02226              12.00   -11600.00
02227              16.00   -11600.00
02228              16.00   -11600.00
02229              14.00   -11600.00
02230              14.00   -11600.00
02231              18.00   -11400.00
02232              22.00   -11400.00
02233              16.00   -11600.00
02234               8.00   -11600.00
02235               8.00   -11200.00
02236              18.00   -11200.00
02237              26.00   -11400.00
02238              26.00   -11200.00
02239               6.00   -11200.00
02240               4.00   -11200.00
02241              16.00   -11000.00
02242              22.00   -11000.00
02243              20.00   -11000.00
02244              14.00   -10800.00
02245              14.00   -10800.00
02246              18.00   -10800.00
02247              18.00   -10800.00
02248              12.00   -10400.00
02249              14.00   -10600.00
02250              10.00   -10400.00
02251              14.00   -10400.00
02252              18.00   -10400.00
02253              18.00   -10200.00
02254              12.00   -10200.00
02255               8.00   -10200.00
02256              10.00   -10000.00
02257              14.00    -9800.00
02258              18.00    -9600.00
02259              18.00    -9600.00
02260              18.00    -9400.00
02261              12.00    -9400.00
02262               6.00    -9200.00
02263              10.00    -9200.00
02264              16.00    -9200.00
02265              18.00    -8800.00
02266              18.00    -8800.00
02267              10.00    -8600.00
02268               8.00    -8600.00
02269               8.00    -8400.00
02270              10.00    -8400.00
02271              16.00    -8200.00
02272              14.00    -8000.00
02273              12.00    -8000.00
02274               6.00    -7600.00
02275               6.00    -7600.00
02276               6.00    -7400.00
02277              10.00    -7200.00
02278              14.00    -7200.00
02279              10.00    -7000.00
02280               6.00    -6800.00
02281               6.00    -6800.00
02282               2.00    -6400.00
02283               6.00    -6400.00
02284               8.00    -6200.00
02285              12.00    -6200.00
02286               8.00    -5800.00
02287               6.00    -5800.00
02288               2.00    -5600.00
02289               2.00    -5400.00
02290               6.00    -5200.00
02291               6.00    -5200.00
02292               6.00    -4800.00
02293               4.00    -4800.00
02294               2.00    -4600.00
02295               0.00    -4400.00
02296               0.00    -4200.00
02297               2.00    -4000.00
02298               8.00    -3800.00
02299               6.00    -3600.00
02300               0.00    -3400.00
02301              -2.00    -3200.00
02302               0.00    -3000.00
02303               0.00    -2800.00
02304               2.00    -2800.00
02305               2.00    -2600.00
02306               6.00    -2400.00
02307               2.00    -2200.00
02308               0.00    -2000.00
02309              -6.00    -1800.00
02310              -2.00    -1600.00
02311               0.00    -1400.00
02312               2.00    -1000.00
02313               8.00    -1000.00
02314              -2.00     -800.00
02315              -6.00     -600.00
02316              -6.00     -400.00
02317               0.00     -200.00
02318               2.00        0.00
02319               0.00        0.00
02320               0.00      400.00
02321               6.00      400.00
02322              26.00      800.00
02323              22.00      800.00
02324              -8.00     1000.00
02325             -16.00     1200.00
02326              -4.00     1400.00
02327              14.00     1600.00
02328              66.00     1800.00
02329             246.00     2400.00
02330             142.00     2400.00
02331            -254.00     2400.00
02332            -254.00     2400.00
02333            -106.00     2800.00
02334             230.00     2800.00
02335             246.00     3200.00
02336            -106.00     3200.00
02337            -254.00     3200.00
02338             246.00     3800.00
02339              48.00     3600.00
02340             -98.00     4000.00
02341             150.00     4200.00
02342            -176.00     4200.00
02343             118.00     4400.00
02344              54.00     4600.00
02345            -218.00     5000.00
02346              26.00     5200.00
02347              22.00     5400.00
02348              58.00     5400.00
02349             -26.00     5600.00
02350             -32.00     5800.00
02351             -46.00     5800.00
02352             -34.00     6000.00
02353             104.00     6400.00
02354            -104.00     6400.00
02355             -16.00     6800.00
02356              22.00     6800.00
02357             -34.00     6800.00
02358              18.00     7200.00
02359             -60.00     7200.00
02360             -12.00     7400.00
02361              14.00     7400.00
02362               2.00     7800.00
02363             -64.00     7800.00
02364             -22.00     8200.00
02365               6.00     8200.00
02366             -14.00     8200.00
02367               0.00     8400.00
02368             -46.00     8400.00
02369             -38.00     8800.00
02370              -2.00     9000.00
02371              10.00     9000.00
02372             -26.00     9000.00
02373             -10.00     9200.00
02374             -42.00     9200.00
02375             -32.00     9400.00
02376               0.00     9600.00
02377             -16.00     9600.00
02378              -6.00     9800.00
02379             -22.00    10000.00
02380             -36.00    10000.00
02381             -26.00    10200.00
02382               0.00    10000.00
02383             -16.00    10400.00
02384             -18.00    10400.00
02385             -24.00    10600.00
02386             -30.00    10400.00
02387             -18.00    10600.00
02388             -14.00    10800.00
02389             -24.00    10800.00
02390             -18.00    11000.00
02391             -18.00    11000.00
02392             -24.00    11200.00
02393             -18.00    11200.00
02394             -26.00    11200.00
02395             -26.00    11400.00
02396             -16.00    11600.00
02397             -16.00    11400.00
02398             -22.00    11600.00
02399             -26.00    11400.00
02400             -30.00    11600.00
02401             -26.00    11800.00
02402             -18.00    11800.00
02403             -16.00    11800.00
02404             -20.00    11800.00
02405             -26.00    11800.00
02406             -32.00    11800.00
02407             -26.00    12000.00
02408             -22.00    12000.00
02409             -24.00    12000.00
02410             -20.00    12000.00
02411             -18.00    12000.00
02412             -24.00    12000.00
02413             -32.00    12000.00
02414             -32.00    12000.00
02415             -22.00    12000.00
02416             -16.00    12000.00
02417             -16.00    12000.00
02418             -26.00    11800.00
02419             -26.00    12000.00
02420             -32.00    12000.00
02421             -32.00    11800.00
02422             -20.00    11800.00
02423             -14.00    11800.00
02424             -16.00    11800.00
02425             -26.00    12000.00
02426             -32.00    11800.00
02427             -32.00    11600.00
02428             -26.00    11800.00
02429             -16.00    11600.00
02430             -14.00    11600.00
02431             -18.00    11800.00
02432             -32.00    11400.00
02433             -32.00    11400.00
02434             -30.00    11200.00
02435             -22.00    11400.00
02436             -14.00    11200.00
02437             -16.00    11200.00
02438             -18.00    11000.00
02439             -32.00    11000.00
02440             -34.00    10800.00
02441             -24.00    11000.00
02442             -14.00    10800.00
02443             -10.00    10800.00
02444             -18.00    10600.00
02445             -26.00    10600.00
02446             -30.00    10400.00
02447             -24.00    10400.00
02448             -18.00    10200.00
02449             -16.00    10200.00
02450             -20.00    10000.00
02451             -24.00    10000.00
02452             -22.00     9800.00
02453             -22.00     9800.00
02454             -20.00     9600.00
02455             -18.00     9200.00
02456             -18.00     9600.00
02457             -18.00     9200.00
02458             -18.00     9000.00
02459             -20.00     9000.00
02460             -18.00     9000.00
02461             -16.00     8800.00
02462             -22.00     8400.00
02463             -18.00     8600.00
02464             -16.00     8200.00
02465             -16.00     8200.00
02466             -22.00     8000.00
02467             -18.00     8000.00
02468             -20.00     7800.00
02469             -18.00     7600.00
02470             -14.00     7400.00
02471             -18.00     7400.00
02472             -14.00     7200.00
02473             -18.00     7000.00
02474             -18.00     6800.00
02475             -18.00     6600.00
02476             -16.00     6400.00
02477             -14.00     6400.00
02478             -10.00     6400.00
02479             -16.00     6000.00
02480             -18.00     5800.00
02481             -18.00     5600.00
02482             -12.00     5400.00
02483             -10.00     5400.00
02484             -10.00     5200.00
02485             -16.00     5200.00
02486             -16.00     5000.00
02487             -16.00     4400.00
02488             -10.00     4400.00
02489              -8.00     4200.00
02490              -8.00     4200.00
02491             -10.00     4000.00
02492             -12.00     3600.00
02493             -14.00     3400.00
02494              -8.00     3400.00
02495              -8.00     3200.00
02496             -10.00     3000.00
02497              -8.00     2800.00
02498             -10.00     2600.00
02499             -12.00     2400.00
02500              -8.00     2200.00
02501              -8.00     2000.00
02502              -8.00     1800.00
02503              -8.00     1800.00
02504              -2.00     1600.00
02505              -8.00     1200.00
02506              -8.00     1200.00
02507              -8.00     1000.00
02508              -6.00      800.00
02509              -2.00      600.00
02510              -2.00      400.00
02511               0.00      200.00
02512               0.00        0.00
02513              10.00        0.00
02514              26.00     -400.00
02515              12.00     -400.00
02516             -14.00     -800.00
02517             -14.00     -800.00
02518               6.00    -1000.00
02519              16.00    -1200.00
02520              46.00    -1400.00
02521             190.00    -1600.00
02522             222.00    -2000.00
02523            -218.00    -2400.00
02524            -254.00    -2400.00
02525            -122.00    -2400.00
02526              92.00    -2600.00
02527             234.00    -2600.00
02528             246.00    -3000.00
02529            -254.00    -3200.00
02530            -218.00    -3200.00
02531             246.00    -3800.00
02532              -6.00    -3200.00
02533              26.00    -3800.00
02534             -32.00    -4200.00
02535             -34.00    -4000.00
02536             134.00    -4600.00
02537             -48.00    -4400.00
02538             -72.00    -4800.00
02539             -42.00    -4800.00
02540              72.00    -5000.00
02541             112.00    -5600.00
02542             -78.00    -5200.00
02543             -14.00    -6000.00
02544             -28.00    -5600.00
02545              44.00    -6000.00
02546              72.00    -6400.00
02547             -56.00    -6200.00
02548               0.00    -6800.00
02549              14.00    -6400.00
02550              32.00    -6800.00
02551             -16.00    -7000.00
02552             -10.00    -7000.00
02553              30.00    -7400.00
02554              10.00    -7200.00
02555              32.00    -7800.00
02556             -24.00    -7600.00
02557              -2.00    -7800.00
02558              40.00    -8000.00
02559               2.00    -8000.00
02560               0.00    -8400.00
02561               8.00    -8400.00
02562              10.00    -8600.00
02563              24.00    -8800.00
02564              18.00    -8800.00
02565               0.00    -8800.00
02566               8.00    -9000.00
02567              22.00    -9200.00
02568               8.00    -9200.00
02569              14.00    -9400.00
02570              18.00    -9400.00
02571               6.00    -9600.00
02572              16.00    -9600.00
02573               8.00   -10000.00
02574               6.00   -10000.00
02575              32.00   -10000.00
02576              22.00   -10000.00
02577              10.00   -10200.00
02578               8.00   -10400.00
02579               8.00   -10400.00
02580              14.00   -10400.00
02581              26.00   -10400.00
02582              18.00   -10800.00
02583              14.00   -10800.00
02584              18.00   -10800.00
02585               8.00   -11000.00
02586              10.00   -11000.00
02587              20.00   -10800.00
02588              16.00   -11000.00
02589              22.00   -11200.00
02590              18.00   -11200.00
02591               8.00   -11200.00
02592              10.00   -11200.00
02593              16.00   -11200.00
02594              14.00   -11200.00
02595              22.00   -11200.00
02596              22.00   -11200.00
02597              16.00   -11400.00
02598              14.00   -11600.00
02599              10.00   -11600.00
02600              10.00   -11600.00
02601              22.00   -11400.00
02602              24.00   -11600.00
02603              16.00   -11600.00
02604              16.00   -11600.00
02605               8.00   -11600.00
02606              12.00   -11600.00
02607              18.00   -11600.00
02608              18.00   -11600.00
02609              16.00   -11600.00
02610              20.00   -11600.00
02611              16.00   -11600.00
02612              14.00   -11600.00
02613              14.00   -11600.00
02614              14.00   -11600.00
02615              18.00   -11400.00
02616              22.00   -11600.00
02617              16.00   -11600.00
02618              12.00   -11600.00
02619              10.00   -11200.00
02620               8.00   -11200.00
02621              18.00   -11200.00
02622              22.00   -11200.00
02623              18.00   -11200.00
02624              14.00   -11000.00
02625              10.00   -11000.00
02626              10.00   -11000.00
02627              16.00   -11000.00
02628              22.00   -11000.00
02629              22.00   -10800.00
02630              16.00   -10800.00
02631              14.00   -10800.00
02632               8.00   -10800.00
02633              12.00   -10400.00
02634              16.00   -10400.00
02635              22.00   -10200.00
02636              18.00   -10200.00
02637              16.00   -10200.00
02638               8.00   -10000.00
02639              10.00   -10000.00
02640              14.00    -9800.00
02641              16.00    -9600.00
02642              18.00    -9600.00
02643              14.00    -9400.00
02644              10.00    -9400.00
02645              10.00    -9400.00
02646              10.00    -9200.00
02647              14.00    -9200.00
02648              18.00    -9000.00
02649              16.00    -8800.00
02650              10.00    -8800.00
02651               8.00    -8600.00
02652               8.00    -8600.00
02653              10.00    -8400.00
02654              16.00    -8400.00
02655              16.00    -8000.00
02656              12.00    -7800.00
02657               8.00    -7800.00
02658               6.00    -7600.00
02659              10.00    -7400.00
02660              14.00    -7400.00
02661              16.00    -7200.00
02662              14.00    -7000.00
02663               6.00    -7000.00
02664               4.00    -6800.00
02665               6.00    -6600.00
02666               2.00    -6400.00
02667               6.00    -6200.00
02668              10.00    -6000.00
02669              10.00    -6000.00
02670               8.00    -5800.00
02671               2.00    -5600.00
02672               0.00    -5400.00
02673               2.00    -5200.00
02674               6.00    -5200.00
02675               8.00    -5000.00
02676               6.00    -4800.00
02677               2.00    -4600.00
02678               0.00    -4400.00
02679               2.00    -4400.00
02680               2.00    -4000.00
02681               6.00    -4000.00
02682               2.00    -3600.00
02683               2.00    -3600.00
02684               2.00    -3200.00
02685              -2.00    -3200.00
02686               0.00    -3000.00
02687               0.00    -2800.00
02688               0.00    -2600.00
02689               2.00    -2400.00
02690               4.00    -2200.00
02691              -2.00    -2200.00
02692               0.00    -2000.00
02693               0.00    -1600.00
02694              -2.00    -1400.00
02695               2.00    -1200.00
02696               0.00    -1000.00
02697              -2.00     -800.00
02698              -6.00     -800.00
02699              -4.00     -600.00
02700              -2.00     -400.00
02701               0.00        0.00
02702               0.00      200.00
02703               0.00      200.00
02704               0.00      400.00
02705              14.00      800.00
02706              30.00      800.00
02707              10.00     1000.00
02708             -14.00     1000.00
02709             -12.00     1200.00
02710               6.00     1400.00
02711              22.00     1600.00
02712             166.00     2000.00
02713             246.00     2400.00
02714            -160.00     2400.00
02715            -254.00     2400.00
02716            -254.00     2800.00
02717              30.00     2800.00
02718             246.00     3200.00
02719             246.00     3400.00
02720            -254.00     3200.00
02721            -128.00     3600.00
02722             246.00     3600.00
02723            -166.00     3600.00
02724             112.00     4200.00
02725             -42.00     4400.00
02726            -106.00     4200.00
02727             210.00     4800.00
02728            -160.00     4800.00
02729             -94.00     5000.00
02730              50.00     5400.00
02731              24.00     5400.00
02732              34.00     5600.00
02733             -64.00     5600.00
02734              -8.00     6000.00
02735             -82.00     5800.00
02736              82.00     6400.00
02737               8.00     6400.00
02738            -112.00     6600.00
02739              48.00     6800.00
02740             -36.00     6800.00
02741              12.00     7000.00
02742             -26.00     7200.00
02743             -54.00     7400.00
02744               6.00     7600.00
02745              16.00     7600.00
02746             -24.00     7600.00
02747             -52.00     8000.00
02748               8.00     8200.00
02749             -32.00     8200.00
02750              -6.00     8400.00
02751             -14.00     8400.00
02752             -38.00     8600.00
02753             -18.00     8800.00
02754               0.00     9000.00
02755             -24.00     9000.00
02756             -16.00     9200.00
02757             -14.00     9400.00
02758             -42.00     9200.00
02759              -6.00     9600.00
02760             -18.00     9600.00
02761             -10.00     9600.00
02762              -8.00     9800.00
02763             -30.00    10000.00
02764             -42.00    10000.00
02765             -16.00    10200.00
02766              -2.00    10400.00
02767             -14.00    10400.00
02768             -10.00    10400.00
02769             -40.00    10600.00
02770             -38.00    10600.00
02771             -10.00    10800.00
02772              -2.00    10800.00
02773             -16.00    10800.00
02774             -30.00    10800.00
02775             -40.00    11200.00
02776             -16.00    11200.00
02777              -6.00    11200.00
02778             -20.00    11400.00
02779             -26.00    11400.00
02780             -30.00    11400.00
02781             -30.00    11400.00
02782             -16.00    11800.00
02783             -10.00    11800.00
02784             -20.00    11600.00
02785             -26.00    11800.00
02786             -26.00    11600.00
02787             -24.00    11800.00
02788             -18.00    11800.00
02789             -22.00    11800.00
02790             -24.00    12000.00
02791             -22.00    11800.00
02792             -24.00    12000.00
02793             -26.00    12000.00
02794             -24.00    12000.00
02795             -16.00    12000.00
02796             -22.00    12000.00
02797             -26.00    12000.00
02798             -30.00    12000.00
02799             -26.00    12000.00
02800             -16.00    12000.00
02801             -16.00    11800.00
02802             -24.00    12000.00
02803             -32.00    11800.00
02804             -34.00    11800.00
02805             -26.00    12000.00
02806             -16.00    11800.00
02807             -12.00    11800.00
02808             -16.00    11800.00
02809             -34.00    11800.00
02810             -40.00    11600.00
02811             -26.00    11800.00
02812             -14.00    11600.00
02813             -14.00    11800.00
02814             -22.00    11600.00
02815             -32.00    11400.00
02816             -32.00    11600.00
02817             -20.00    11400.00
02818             -16.00    11200.00
02819             -20.00    11400.00
02820             -26.00    11200.00
02821             -30.00    11200.00
02822             -24.00    11200.00
02823             -18.00    11000.00
02824             -18.00    11000.00
02825             -18.00    10800.00
02826             -24.00    10800.00
02827             -26.00    10600.00
02828             -24.00    10600.00
02829             -20.00    10400.00
02830             -22.00    10400.00
02831             -24.00    10200.00
02832             -22.00    10400.00
02833             -22.00    10000.00
02834             -16.00    10000.00
02835             -18.00     9800.00
02836             -22.00     9600.00
02837             -22.00     9600.00
02838             -22.00     9400.00
02839             -18.00     9400.00
02840             -18.00     9200.00
02841             -18.00     9200.00
02842             -16.00     9000.00
02843             -18.00     9000.00
02844             -18.00     8800.00
02845             -18.00     8600.00
02846             -18.00     8600.00
02847             -18.00     8400.00
02848             -16.00     8200.00
02849             -16.00     8000.00
02850             -18.00     8000.00
02851             -22.00     7800.00
02852             -16.00     7800.00
02853             -12.00     7400.00
02854             -14.00     7400.00
02855             -12.00     7400.00
02856             -22.00     7200.00
02857             -24.00     6800.00
02858             -20.00     6600.00
02859             -14.00     6600.00
02860             -12.00     6400.00
02861             -14.00     6400.00
02862             -18.00     6000.00
02863             -16.00     5800.00
02864             -14.00     5800.00
02865             -14.00     5600.00
02866             -14.00     5400.00
02867             -12.00     5200.00
02868             -16.00     5000.00
02869             -16.00     4800.00
02870             -18.00     4800.00
02871             -14.00     4600.00
02872             -10.00     4200.00
02873              -6.00     4200.00
02874              -8.00     4000.00
02875             -14.00     4000.00
02876             -14.00     3600.00
02877             -14.00     3400.00
02878             -10.00     3200.00
02879              -8.00     3000.00
02880              -6.00     2800.00
02881             -10.00     2800.00
02882             -10.00     2600.00
02883             -10.00     2400.00
02884             -10.00     2000.00
02885              -8.00     2000.00
02886              -4.00     1800.00
02887              -4.00     1600.00
02888              -6.00     1400.00
02889              -8.00     1200.00
02890              -8.00     1000.00
02891              -8.00      800.00
02892              -4.00      800.00
02893               0.00      600.00
02894               0.00      400.00
02895              -2.00      200.00
02896               0.00        0.00
02897              22.00     -200.00
02898              26.00     -400.00
02899               0.00     -600.00
02900             -16.00     -800.00
02901              -2.00    -1000.00
02902              14.00    -1200.00
02903              20.00    -1400.00
02904              96.00    -1400.00
02905             246.00    -2000.00
02906              26.00    -2200.00
02907            -254.00    -2400.00
02908            -254.00    -2600.00
02909              30.00    -2600.00
02910             128.00    -2600.00
02911             246.00    -2800.00
02912              66.00    -3200.00
02913            -254.00    -3000.00
02914             104.00    -3600.00
02915             160.00    -3800.00
02916             -42.00    -3600.00
02917              42.00    -4200.00
02918             -92.00    -3800.00
02919              86.00    -4400.00
02920              62.00    -4600.00
02921             -90.00    -4600.00
02922             -48.00    -4800.00
02923             -16.00    -4800.00
02924             146.00    -5400.00
02925               0.00    -5400.00
02926             -60.00    -5600.00
02927               0.00    -6000.00
02928             -18.00    -5600.00
02929              94.00    -6200.00
02930              -8.00    -6200.00
02931             -40.00    -6200.00
02932              16.00    -6800.00
02933              24.00    -6400.00
02934              16.00    -7200.00
02935             -30.00    -6800.00
02936              24.00    -7200.00
02937              16.00    -7200.00
02938              24.00    -7400.00
02939              10.00    -7600.00
02940             -32.00    -7800.00
02941              34.00    -8000.00
02942              26.00    -8000.00
02943              -8.00    -8200.00
02944               2.00    -8400.00
02945               6.00    -8400.00
02946              16.00    -8800.00
02947              24.00    -8600.00
02948               8.00    -9000.00
02949               0.00    -9000.00
02950              14.00    -9200.00
02951              14.00    -9200.00
02952               8.00    -9400.00
02953              22.00    -9400.00
02954              14.00    -9600.00
02955              10.00    -9600.00
02956              14.00   -10000.00
02957               0.00    -9800.00
02958              22.00   -10000.00
02959              32.00   -10000.00
02960              14.00   -10200.00
02961               6.00   -10200.00
02962               6.00   -10200.00
02963               8.00   -10400.00
02964              24.00   -10600.00
02965              24.00   -10600.00
02966              12.00   -10600.00
02967              16.00   -10800.00
02968              16.00   -10800.00
02969               8.00   -11000.00
02970              18.00   -11000.00
02971              18.00   -11000.00
02972              18.00   -11000.00
02973              24.00   -11200.00
02974              14.00   -11200.00
02975               8.00   -11200.00
02976              22.00   -11200.00
02977              16.00   -11200.00
02978              18.00   -11600.00
02979              24.00   -11200.00
02980              18.00   -11400.00
02981              16.00   -11600.00
02982              16.00   -11600.00
02983              10.00   -11600.00
02984              16.00   -11600.00
02985              22.00   -11600.00
02986              20.00   -11600.00
02987              22.00   -11800.00
02988              14.00   -11600.00
02989               8.00   -11600.00
02990              16.00   -11600.00
02991              22.00   -11600.00
02992              20.00   -11600.00
02993              22.00   -11600.00
02994              16.00   -11600.00
02995               8.00   -11600.00
02996               8.00   -11600.00
02997              16.00   -11600.00
02998              22.00   -11600.00
02999              24.00   -11600.00
03000              18.00   -11600.00
03001              10.00   -11400.00
03002              14.00   -11400.00
03003              14.00   -11200.00
03004              16.00   -11200.00
03005              22.00   -11200.00
03006              18.00   -11200.00
03007              12.00   -11200.00
03008              14.00   -11000.00
03009              10.00   -11000.00
03010              12.00   -11200.00
03011              16.00   -11000.00
03012              22.00   -10800.00
03013              16.00   -10800.00
03014              16.00   -10800.00
03015              10.00   -10600.00
03016              10.00   -10600.00
03017              14.00   -10400.00
03018              16.00   -10400.00
03019              16.00   -10400.00
03020              16.00   -10200.00
03021              10.00   -10200.00
03022               8.00   -10000.00
03023              10.00   -10000.00
03024              14.00    -9800.00
03025              16.00    -9600.00
03026              22.00    -9600.00
03027              12.00    -9400.00
03028              10.00    -9400.00
03029              10.00    -9400.00
03030              10.00    -9200.00
03031              16.00    -9000.00
03032              16.00    -8800.00
03033              14.00    -8600.00
03034              10.00    -8800.00
03035               6.00    -8600.00
03036               8.00    -8400.00
03037              14.00    -8200.00
03038              14.00    -8000.00
03039              12.00    -8000.00
03040              14.00    -7800.00
03041               8.00    -7800.00
03042               8.00    -7400.00
03043               6.00    -7400.00
03044              10.00    -7200.00
03045              10.00    -7200.00
03046              14.00    -7000.00
03047              10.00    -7000.00
03048               8.00    -6800.00
03049               4.00    -6400.00
03050               6.00    -6400.00
03051              10.00    -6200.00
03052              14.00    -6200.00
03053               8.00    -6000.00
03054               8.00    -5600.00
03055               2.00    -5600.00
03056               2.00    -5400.00
03057               6.00    -5200.00
03058               6.00    -5200.00
03059               6.00    -4800.00
03060               6.00    -4800.00
03061               2.00    -4400.00
03062               0.00    -4400.00
03063               2.00    -4200.00
03064               2.00    -4000.00
03065               6.00    -3800.00
03066               6.00    -3600.00
03067               2.00    -3400.00
03068               0.00    -3200.00
03069              -2.00    -3000.00
03070               0.00    -3000.00
03071               0.00    -2800.00
03072               2.00    -2600.00
03073               4.00    -2400.00
03074               0.00    -2200.00
03075              -2.00    -2000.00
03076              -2.00    -2000.00
03077              -2.00    -1600.00
03078               0.00    -1400.00
03079               2.00    -1200.00
03080               0.00    -1000.00
03081              -4.00     -800.00
03082              -6.00     -600.00
03083              -6.00     -400.00
03084              -4.00     -200.00
03085               0.00        0.00
03086               0.00        0.00
03087               2.00      200.00
03088               6.00      400.00
03089              24.00      800.00
03090              18.00      800.00
03091              -6.00     1000.00
03092             -16.00     1200.00
03093              -2.00     1400.00
03094              14.00     1600.00
03095              70.00     1800.00
03096             246.00     2000.00
03097             120.00     2400.00
03098            -254.00     2400.00
03099            -254.00     2600.00
03100             -90.00     2800.00
03101             246.00     2800.00
03102             246.00     3400.00
03103            -160.00     3200.00
03104            -254.00     3200.00
03105             246.00     3600.00
03106              48.00     3800.00
03107             -82.00     4200.00
03108             134.00     4400.00
03109            -192.00     4200.00
03110             130.00     4600.00
03111              52.00     4800.00
03112            -210.00     5000.00
03113              30.00     5200.00
03114              18.00     5400.00
03115              58.00     5600.00
03116             -32.00     5600.00
03117             -32.00     5800.00
03118             -48.00     5800.00
03119             -24.00     6200.00
03120             104.00     6400.00
03121            -110.00     6400.00
03122             -10.00     6800.00
03123              16.00     6800.00
03124             -30.00     6800.00
03125              18.00     7200.00
03126             -64.00     7200.00
03127             -16.00     7400.00
03128              14.00     7600.00
03129              12.00     7600.00
03130             -56.00     7600.00
03131             -18.00     8000.00
03132              -8.00     8200.00
03133             -22.00     8200.00
03134               4.00     8400.00
03135             -34.00     8400.00
03136             -32.00     8800.00
03137              -8.00     8800.00
03138               0.00     9000.00
03139             -32.00     9000.00
03140              -6.00     9200.00
03141             -38.00     9400.00
03142             -26.00     9600.00
03143              -2.00     9600.00
03144             -22.00     9600.00
03145              -8.00     9800.00
03146             -24.00    10000.00
03147             -38.00    10000.00
03148             -26.00    10000.00
03149               2.00    10200.00
03150             -14.00    10400.00
03151             -16.00    10400.00
03152             -26.00    10600.00
03153             -42.00    10600.00
03154             -18.00    10600.00
03155             -12.00    10800.00
03156             -22.00    10800.00
03157             -16.00    10800.00
03158             -22.00    11200.00
03159             -28.00    11200.00
03160             -16.00    11200.00
03161             -26.00    11200.00
03162             -26.00    11400.00
03163             -10.00    11400.00
03164             -16.00    11400.00
03165             -26.00    11600.00
03166             -24.00    11800.00
03167             -26.00    11600.00
03168             -26.00    11800.00
03169             -16.00    11800.00
03170             -16.00    11800.00
03171             -18.00    11800.00
03172             -24.00    11800.00
03173             -32.00    12000.00
03174             -26.00    12000.00
03175             -22.00    12000.00
03176             -22.00    12000.00
03177             -16.00    12000.00
03178             -18.00    12000.00
03179             -28.00    12000.00
03180             -26.00    12000.00
03181             -26.00    12000.00
03182             -22.00    11800.00
03183             -16.00    12000.00
03184             -18.00    12000.00
03185             -30.00    12000.00
03186             -24.00    12000.00
03187             -30.00    12000.00
03188             -32.00    12000.00
03189             -22.00    12000.00
03190             -16.00    11800.00
03191             -20.00    11800.00
03192             -24.00    11800.00
03193             -32.00    11600.00
03194             -32.00    11600.00
03195             -24.00    11800.00
03196             -16.00    11800.00
03197             -14.00    11600.00
03198             -18.00    11600.00
03199             -38.00    11600.00
03200             -40.00    11400.00
03201             -30.00    11400.00
03202             -10.00    11400.00
03203              -6.00    11400.00
03204             -22.00    11200.00
03205             -34.00    11200.00
03206             -36.00    11000.00
03207             -26.00    10800.00
03208             -16.00    10800.00
03209             -14.00    10800.00
03210             -24.00    10800.00
03211             -32.00    10600.00
03212             -34.00    10600.00
03213             -22.00    10400.00
03214              -2.00    10400.00
03215              -2.00    10000.00
03216             -26.00    10200.00
03217             -44.00    10000.00
03218             -34.00     9800.00
03219             -14.00     9800.00
03220              -8.00     9800.00
03221             -18.00     9600.00
03222             -30.00     9600.00
03223             -22.00     9400.00
03224             -14.00     9200.00
03225             -16.00     9200.00
03226             -22.00     9000.00
03227             -30.00     8800.00
03228             -28.00     8800.00
03229             -14.00     8400.00
03230              -8.00     8400.00
03231              -8.00     8400.00
03232             -16.00     8200.00
03233             -22.00     8000.00
03234             -18.00     8000.00
03235             -24.00     7800.00
03236             -20.00     7600.00
03237             -18.00     7400.00
03238             -18.00     7400.00
03239             -16.00     7200.00
03240             -16.00     7000.00
03241             -10.00     6800.00
03242              -8.00     6800.00
03243              -8.00     6400.00
03244             -12.00     6400.00
03245             -16.00     6200.00
03246             -30.00     6000.00
03247             -30.00     5800.00
03248             -16.00     5800.00
03249              -6.00     5400.00
03250              -6.00     5200.00
03251             -10.00     5400.00
03252             -18.00     5000.00
03253             -12.00     4800.00
03254             -14.00     4600.00
03255             -14.00     4400.00
03256             -14.00     4200.00
03257             -16.00     4200.00
03258             -16.00     3800.00
03259             -10.00     3600.00
03260             -10.00     3600.00
03261             -10.00     3400.00
03262             -10.00     3200.00
03263              -8.00     3000.00
03264              -2.00     2600.00
03265              -6.00     2600.00
03266             -12.00     2400.00
03267             -16.00     2000.00
03268             -22.00     2000.00
03269             -16.00     1800.00
03270              -8.00     1600.00
03271               0.00     1600.00
03272               6.00     1200.00
03273               2.00     1200.00
03274             -14.00      800.00
03275             -22.00      600.00
03276             -14.00      400.00
03277               0.00      400.00
03278               6.00      200.00
03279               0.00        0.00
03280               6.00     -200.00
03281              26.00     -400.00
03282              14.00     -600.00
03283             -10.00     -800.00
03284             -10.00     -800.00
03285               0.00    -1000.00
03286               8.00    -1200.00
03287              44.00    -1400.00
03288             196.00    -1600.00
03289             216.00    -2200.00
03290            -232.00    -2400.00
03291            -254.00    -2400.00
03292            -114.00    -2600.00
03293              98.00    -2600.00
03294             246.00    -2400.00
03295             246.00    -3000.00
03296            -254.00    -3200.00
03297            -206.00    -3200.00
03298             246.00    -3800.00
03299             -14.00    -3400.00
03300              38.00    -3800.00
03301             -34.00    -4200.00
03302             -28.00    -4000.00
03303             134.00    -4800.00
03304             -56.00    -4400.00
03305             -70.00    -4800.00
03306             -40.00    -4800.00
03307              86.00    -5000.00
03308             110.00    -5400.00
03309             -80.00    -5200.00
03310             -14.00    -6000.00
03311             -26.00    -5600.00
03312              48.00    -6000.00
03313              72.00    -6400.00
03314             -54.00    -6000.00
03315               0.00    -6600.00
03316              16.00    -6600.00
03317              34.00    -6800.00
03318             -22.00    -7000.00
03319             -10.00    -7000.00
03320              32.00    -7200.00
03321              10.00    -7200.00
03322              34.00    -7600.00
03323             -26.00    -7400.00
03324              -2.00    -8000.00
03325              42.00    -8000.00
03326               2.00    -8000.00
03327               0.00    -8400.00
03328               6.00    -8400.00
03329              10.00    -8600.00
03330              22.00    -8600.00
03331              18.00    -8800.00
03332               0.00    -8800.00
03333               6.00    -9000.00
03334              16.00    -9200.00
03335               6.00    -9400.00
03336              16.00    -9400.00
03337              20.00    -9400.00
03338               6.00    -9600.00
03339              12.00    -9600.00
03340               6.00    -9800.00
03341               6.00   -10000.00
03342              32.00   -10000.00
03343              22.00   -10000.00
03344               6.00   -10200.00
03345               6.00   -10200.00
03346               8.00   -10400.00
03347              16.00   -10400.00
03348              30.00   -10400.00
03349              18.00   -10600.00
03350              10.00   -10800.00
03351              18.00   -10800.00
03352               8.00   -10800.00
03353              14.00   -11000.00
03354              18.00   -11000.00
03355              14.00   -11200.00
03356              20.00   -11200.00
03357              20.00   -11000.00
03358               6.00   -11200.00
03359              16.00   -11400.00
03360              20.00   -11200.00
03361              16.00   -11200.00
03362              22.00   -11400.00
03363              22.00   -11200.00
03364              14.00   -11600.00
03365              16.00   -11400.00
03366              14.00   -11600.00
03367              10.00   -11400.00
03368              18.00   -11600.00
03369              22.00   -11600.00
03370              20.00   -11600.00
03371              18.00   -11600.00
03372               8.00   -11600.00
03373              10.00   -11600.00
03374              16.00   -11600.00
03375              22.00   -11600.00
03376              20.00   -11600.00
03377              18.00   -11600.00
03378              14.00   -11600.00
03379              12.00   -11600.00
03380              14.00   -11600.00
03381              18.00   -11400.00
03382              18.00   -11400.00
03383              18.00   -11600.00
03384              14.00   -11400.00
03385              10.00   -11600.00
03386              10.00   -11400.00
03387              16.00   -11200.00
03388              22.00   -11200.00
03389              20.00   -11200.00
03390              14.00   -11000.00
03391              10.00   -11200.00
03392              12.00   -11200.00
03393              12.00   -11200.00
03394              14.00   -10800.00
03395              18.00   -11000.00
03396              16.00   -10800.00
03397              14.00   -10800.00
03398              14.00   -10400.00
03399              10.00   -10600.00
03400              10.00   -10400.00
03401              14.00   -10400.00
03402              14.00   -10200.00
03403              18.00   -10200.00
03404              14.00   -10200.00
03405              10.00   -10200.00
03406               8.00   -10000.00
03407              14.00    -9800.00
03408              16.00    -9800.00
03409              18.00    -9600.00
03410              14.00    -9600.00
03411               8.00    -9400.00
03412               8.00    -9200.00
03413               8.00    -9400.00
03414              10.00    -9000.00
03415              14.00    -9000.00
03416              16.00    -8800.00
03417              14.00    -8800.00
03418               8.00    -8600.00
03419               8.00    -8400.00
03420               6.00    -8400.00
03421              12.00    -8200.00
03422              14.00    -8000.00
03423              14.00    -8000.00
03424              10.00    -7800.00
03425               8.00    -7800.00
03426               6.00    -7400.00
03427              10.00    -7200.00
03428              14.00    -7200.00
03429              14.00    -7000.00
03430              10.00    -7000.00
03431               6.00    -6800.00
03432               4.00    -6800.00
03433               6.00    -6400.00
03434               8.00    -6200.00
03435              10.00    -6000.00
03436              10.00    -6000.00
03437               8.00    -5800.00
03438               6.00    -5600.00
03439               4.00    -5600.00
03440               4.00    -5200.00
03441               6.00    -5200.00
03442               8.00    -4800.00
03443               8.00    -4800.00
03444               6.00    -4800.00
03445               0.00    -4400.00
03446               0.00    -4400.00
03447               2.00    -4000.00
03448               4.00    -4000.00
03449               4.00    -3600.00
03450               2.00    -3600.00
03451               0.00    -3400.00
03452               0.00    -3200.00
03453               0.00    -3000.00
03454               0.00    -2800.00
03455               0.00    -2600.00
03456               2.00    -2400.00
03457               2.00    -2200.00
03458              -2.00    -2200.00
03459              -2.00    -2000.00
03460              -2.00    -1600.00
03461               0.00    -1400.00
03462               0.00    -1000.00
03463               0.00    -1200.00
03464              -2.00    -1000.00
03465              -2.00     -800.00
03466              -6.00     -600.00
03467              -4.00     -200.00
03468              -2.00        0.00
03469               0.00        0.00
03470               0.00      200.00
03471               2.00      400.00
03472              14.00      600.00
03473              30.00      800.00
03474               6.00     1000.00
03475             -16.00     1000.00
03476             -12.00     1200.00
03477               6.00     1600.00
03478              24.00     1600.00
03479             176.00     2000.00
03480             246.00     2400.00
03481            -182.00     2400.00
03482            -254.00     2400.00
03483            -248.00     2600.00
03484              42.00     2800.00
03485             246.00     3200.00
03486             246.00     3400.00
03487            -254.00     3200.00
03488             -98.00     3600.00
03489             246.00     3800.00
03490            -168.00     3800.00
03491             122.00     4200.00
03492             -52.00     4200.00
03493             -90.00     4400.00
03494             208.00     4800.00
03495            -166.00     4800.00
03496             -88.00     5000.00
03497              48.00     5400.00
03498              30.00     5400.00
03499              34.00     5400.00
03500             -62.00     5800.00
03501              -8.00     5800.00
03502             -80.00     5800.00
03503              86.00     6400.00
03504               2.00     6400.00
03505            -106.00     6400.00
03506              50.00     6800.00
03507             -34.00     6800.00
03508              14.00     7200.00
03509             -28.00     7200.00
03510             -50.00     7200.00
03511               8.00     7400.00
03512              18.00     7800.00
03513             -24.00     7600.00
03514             -54.00     8000.00
03515               6.00     8200.00
03516             -30.00     8200.00
03517               0.00     8400.00
03518             -18.00     8400.00
03519             -40.00     8400.00
03520             -18.00     8800.00
03521               6.00     9000.00
03522             -18.00     9000.00
03523             -22.00     9200.00
03524             -16.00     9200.00
03525             -46.00     9400.00
03526              -2.00     9600.00
03527             -14.00     9600.00
03528             -14.00     9800.00
03529             -14.00    10000.00
03530             -38.00    10000.00
03531             -42.00    10000.00
03532              -8.00    10200.00
03533               0.00    10400.00
03534             -20.00    10200.00
03535             -16.00    10400.00
03536             -38.00    10600.00
03537             -30.00    10600.00
03538             -10.00    10800.00
03539             -16.00    10800.00
03540             -18.00    10800.00
03541             -18.00    11200.00
03542             -26.00    11000.00
03543             -24.00    11200.00
03544             -22.00    11200.00
03545             -32.00    11200.00
03546             -18.00    11200.00
03547             -16.00    11400.00
03548             -22.00    11400.00
03549             -26.00    11800.00
03550             -24.00    11600.00
03551             -30.00    11800.00
03552             -22.00    11800.00
03553             -14.00    11800.00
03554             -18.00    11800.00
03555             -18.00    12000.00
03556             -30.00    11800.00
03557             -32.00    11800.00
03558             -24.00    11800.00
03559             -24.00    12000.00
03560             -20.00    12000.00
03561             -16.00    12000.00
03562             -24.00    12000.00
03563             -30.00    12000.00
03564             -26.00    12000.00
03565             -24.00    12000.00
03566             -22.00    11800.00
03567             -16.00    12000.00
03568             -22.00    12000.00
03569             -26.00    12000.00
03570             -30.00    12000.00
03571             -30.00    11800.00
03572             -22.00    12000.00
03573             -16.00    12000.00
03574             -18.00    11800.00
03575             -26.00    11800.00
03576             -30.00    11800.00
03577             -30.00    11800.00
03578             -24.00    11600.00
03579             -18.00    11600.00
03580             -18.00    11800.00
03581             -24.00    11600.00
03582             -26.00    11800.00
03583             -30.00    11400.00
03584             -26.00    11400.00
03585             -26.00    11400.00
03586             -18.00    11200.00
03587             -18.00    11200.00
03588             -24.00    11200.00
03589             -26.00    11200.00
03590             -30.00    11000.00
03591             -26.00    10800.00
03592             -18.00    10800.00
03593             -18.00    10800.00
03594             -18.00    10600.00
03595             -22.00    10600.00
03596             -24.00    10400.00
03597             -26.00    10400.00
03598             -24.00    10200.00
03599             -22.00    10000.00
03600             -18.00    10000.00
03601             -18.00    10000.00
03602             -22.00     9800.00
03603             -26.00     9800.00
03604             -24.00     9600.00
03605             -22.00     9600.00
03606             -18.00     9400.00
03607             -18.00     9200.00
03608             -20.00     9200.00
03609             -22.00     9200.00
03610             -18.00     8800.00
03611             -22.00     8800.00
03612             -22.00     8400.00
03613             -20.00     8400.00
03614             -16.00     8400.00
03615             -14.00     8200.00
03616             -18.00     8200.00
03617             -22.00     8000.00
03618             -18.00     7800.00
03619             -16.00     7600.00
03620             -10.00     7600.00
03621             -14.00     7400.00
03622             -16.00     7200.00
03623             -22.00     7200.00
03624             -18.00     6800.00
03625             -16.00     6800.00
03626             -14.00     6600.00
03627             -12.00     6400.00
03628             -14.00     6400.00
03629             -18.00     6000.00
03630             -14.00     6000.00
03631             -16.00     5800.00
03632             -12.00     5600.00
03633             -10.00     5400.00
03634             -10.00     5200.00
03635              -8.00     5200.00
03636             -16.00     5000.00
03637             -20.00     4800.00
03638             -14.00     4400.00
03639              -8.00     4400.00
03640              -6.00     4200.00
03641             -10.00     4000.00
03642             -14.00     3800.00
03643             -16.00     3600.00
03644             -10.00     3400.00
03645              -6.00     3200.00
03646             -10.00     3200.00
03647             -10.00     2800.00
03648             -16.00     2600.00
03649             -10.00     2600.00
03650              -8.00     2400.00
03651              -8.00     2000.00
03652              -6.00     2000.00
03653              -6.00     1600.00
03654              -6.00     1600.00
03655             -10.00     1600.00
03656             -10.00     1200.00
03657             -10.00     1000.00
03658              -2.00      800.00
03659               0.00      600.00
03660               0.00      400.00
03661              -6.00      200.00
03662              -6.00      200.00
03663               0.00        0.00
03664              26.00     -400.00
03665              26.00     -600.00
03666              -8.00     -600.00
03667             -24.00     -800.00
03668              -6.00     -800.00
03669              16.00    -1200.00
03670              30.00    -1200.00
03671             104.00    -1400.00
03672             246.00    -1800.00
03673               4.00    -2200.00
03674            -254.00    -2400.00
03675            -254.00    -2400.00
03676              40.00    -2400.00
03677             128.00    -2600.00
03678             246.00    -2800.00
03679              40.00    -3200.00
03680            -254.00    -3000.00
03681             126.00    -3600.00
03682             152.00    -3800.00
03683             -40.00    -3600.00
03684              30.00    -4200.00
03685             -96.00    -4000.00
03686              94.00    -4400.00
03687              62.00    -4600.00
03688             -84.00    -4600.00
03689             -48.00    -5000.00
03690             -10.00    -4800.00
03691             144.00    -5400.00
03692              -6.00    -5200.00
03693             -50.00    -5600.00
03694               6.00    -5800.00
03695             -24.00    -5600.00
03696              90.00    -6200.00
03697             -10.00    -6000.00
03698             -30.00    -6400.00
03699              18.00    -6600.00
03700              24.00    -6400.00
03701              14.00    -7000.00
03702             -26.00    -7000.00
03703              24.00    -7200.00
03704              16.00    -7200.00
03705              26.00    -7400.00
03706              10.00    -7600.00
03707             -32.00    -7600.00
03708              34.00    -8200.00
03709              24.00    -8000.00
03710              -6.00    -8200.00
03711               6.00    -8400.00
03712               6.00    -8400.00
03713              16.00    -8800.00
03714              18.00    -8600.00
03715               2.00    -8800.00
03716              -2.00    -9200.00
03717              18.00    -9200.00
03718              14.00    -9400.00
03719               8.00    -9200.00
03720              22.00    -9400.00
03721              10.00    -9600.00
03722               6.00    -9600.00
03723              14.00    -9600.00
03724               0.00   -10000.00
03725              22.00   -10000.00
03726              30.00   -10000.00
03727               8.00   -10200.00
03728               6.00   -10200.00
03729               6.00   -10400.00
03730               8.00   -10400.00
03731              24.00   -10400.00
03732              22.00   -10400.00
03733              10.00   -10800.00
03734              14.00   -10800.00
03735              14.00   -10800.00
03736               6.00   -11000.00
03737              16.00   -10800.00
03738              18.00   -11200.00
03739              18.00   -11000.00
03740              24.00   -11000.00
03741              10.00   -11200.00
03742               6.00   -11200.00
03743              10.00   -11200.00
03744              16.00   -11200.00
03745              22.00   -11400.00
03746              22.00   -11200.00
03747              16.00   -11600.00
03748              14.00   -11400.00
03749              14.00   -11600.00
03750              12.00   -11400.00
03751              16.00   -11600.00
03752              22.00   -11600.00
03753              22.00   -11600.00
03754              20.00   -11600.00
03755              12.00   -11600.00
03756               6.00   -11600.00
03757              16.00   -11600.00
03758              24.00   -11800.00
03759              22.00   -11600.00
03760              18.00   -11600.00
03761              16.00   -11600.00
03762              10.00   -11600.00
03763              10.00   -11600.00
03764              16.00   -11600.00
03765              18.00   -11200.00
03766              24.00   -11400.00
03767              18.00   -11400.00
03768              14.00   -11400.00
03769              12.00   -11400.00
03770              10.00   -11200.00
03771              16.00   -11200.00
03772              22.00   -11200.00
03773              18.00   -11200.00
03774              12.00   -11200.00
03775               8.00   -11000.00
03776               8.00   -11000.00
03777              16.00   -11000.00
03778              18.00   -11000.00
03779              22.00   -11000.00
03780              14.00   -10800.00
03781              12.00   -10800.00
03782               8.00   -10800.00
03783              12.00   -10600.00
03784              16.00   -10400.00
03785              18.00   -10400.00
03786              16.00   -10200.00
03787              16.00   -10200.00
03788              12.00   -10200.00
03789               8.00   -10000.00
03790               6.00   -10000.00
03791              14.00   -10000.00
03792              16.00    -9600.00
03793              18.00    -9600.00
03794              10.00    -9600.00
03795               8.00    -9400.00
03796               6.00    -9400.00
03797              10.00    -9200.00
03798              16.00    -9000.00
03799              14.00    -9000.00
03800              10.00    -8800.00
03801               8.00    -8800.00
03802               8.00    -8600.00
03803               8.00    -8400.00
03804              10.00    -8200.00
03805              10.00    -8000.00
03806              14.00    -8000.00
03807              10.00    -8000.00
03808               8.00    -7400.00
03809               6.00    -7600.00
03810               6.00    -7400.00
03811               8.00    -7200.00
03812              14.00    -7200.00
03813              14.00    -7200.00
03814              10.00    -6800.00
03815               6.00    -6800.00
03816               2.00    -6800.00
03817               6.00    -6400.00
03818              10.00    -6200.00
03819              12.00    -6000.00
03820               8.00    -5800.00
03821               6.00    -5600.00
03822               4.00    -5600.00
03823               4.00    -5400.00
03824               6.00    -5200.00
03825               8.00    -5200.00
03826               6.00    -4800.00
03827               8.00    -4600.00
03828               2.00    -4600.00
03829               2.00    -4400.00
03830               0.00    -4200.00
03831               4.00    -4000.00
03832               6.00    -3800.00
03833               8.00    -3600.00
03834               2.00    -3600.00
03835               0.00    -3200.00
03836              -2.00    -3000.00
03837               0.00    -2800.00
03838               2.00    -2800.00
03839               4.00    -2400.00
03840               2.00    -2400.00
03841               0.00    -2200.00
03842              -6.00    -2000.00
03843               0.00    -2000.00
03844               0.00    -1600.00
03845               0.00    -1400.00
03846              -2.00    -1200.00
03847               0.00    -1000.00
03848              -2.00     -800.00
03849              -4.00     -600.00
03850              -6.00     -400.00
03851              -2.00     -400.00
03852              -2.00        0.00
03853               0.00        0.00
03854               0.00      200.00
03855               2.00      400.00
03856              24.00      600.00
03857              18.00      800.00
03858             -10.00      800.00
03859             -16.00     1200.00
03860              -2.00     1200.00
03861              14.00     1600.00
03862              72.00     1800.00
03863             246.00     2000.00
03864             102.00     2400.00
03865            -254.00     2200.00
03866            -254.00     2400.00
03867             -78.00     2600.00
03868             246.00     3000.00
03869             246.00     3400.00
03870            -198.00     3200.00
03871            -254.00     3200.00
03872             246.00     3800.00
03873              34.00     3600.00
03874             -70.00     4000.00
03875             124.00     4200.00
03876            -198.00     4200.00
03877             142.00     4400.00
03878              40.00     4800.00
03879            -206.00     5000.00
03880              32.00     5200.00
03881              18.00     5400.00
03882              62.00     5400.00
03883             -32.00     5600.00
03884             -32.00     6000.00
03885             -56.00     5800.00
03886             -20.00     6200.00
03887             106.00     6400.00
03888            -106.00     6400.00
03889              -6.00     6600.00
03890              16.00     6800.00
03891             -26.00     6800.00
03892              16.00     7200.00
03893             -66.00     7200.00
03894             -10.00     7400.00
03895              14.00     7600.00
03896              12.00     7600.00
03897             -56.00     7800.00
03898             -18.00     8000.00
03899              -6.00     8200.00
03900             -24.00     8000.00
03901              -2.00     8400.00
03902             -38.00     8400.00
03903             -28.00     8800.00
03904              -2.00     9000.00
03905               2.00     9000.00
03906             -30.00     9000.00
03907             -10.00     9200.00
03908             -46.00     9400.00
03909             -26.00     9600.00
03910              -2.00     9600.00
03911             -16.00     9600.00
03912              -4.00     9800.00
03913             -28.00    10000.00
03914             -44.00    10000.00
03915             -32.00    10000.00
03916               2.00    10200.00
03917             -14.00    10400.00
03918             -18.00    10400.00
03919             -28.00    10600.00
03920             -42.00    10600.00
03921             -18.00    10800.00
03922             -14.00    10800.00
03923             -24.00    10600.00
03924             -16.00    10800.00
03925             -24.00    10800.00
03926             -30.00    11200.00
03927             -18.00    11200.00
03928             -30.00    11400.00
03929             -26.00    11400.00
03930             -10.00    11400.00
03931             -16.00    11400.00
03932             -26.00    11400.00
03933             -26.00    11600.00
03934             -30.00    11600.00
03935             -24.00    11800.00
03936             -14.00    11800.00
03937             -16.00    11600.00
03938             -24.00    11800.00
03939             -26.00    11800.00
03940             -32.00    11800.00
03941             -26.00    12000.00
03942             -16.00    12000.00
03943             -18.00    12000.00
03944             -16.00    11800.00
03945             -22.00    12000.00
03946             -30.00    12000.00
03947             -26.00    12000.00
03948             -22.00    12000.00
03949             -24.00    12000.00
03950             -16.00    12000.00
03951             -18.00    12000.00
03952             -24.00    12000.00
03953             -26.00    12000.00
03954             -26.00    12000.00
03955             -24.00    12000.00
03956             -20.00    11800.00
03957             -22.00    12000.00
03958             -18.00    11800.00
03959             -24.00    11800.00
03960             -26.00    11800.00
03961             -26.00    11600.00
03962             -24.00    11600.00
03963             -22.00    11600.00
03964             -16.00    11600.00
03965             -18.00    11800.00
03966             -26.00    11200.00
03967             -30.00    11400.00
03968             -26.00    11400.00
03969             -24.00    11200.00
03970             -16.00    11200.00
03971             -18.00    11200.00
03972             -22.00    11200.00
03973             -26.00    11000.00
03974             -30.00    10800.00
03975             -26.00    10800.00
03976             -22.00    10600.00
03977             -16.00    10600.00
03978             -18.00    10600.00
03979             -22.00    10400.00
03980             -26.00    10400.00
03981             -26.00    10400.00
03982             -24.00    10200.00
03983             -18.00    10000.00
03984             -18.00    10000.00
03985             -18.00     9800.00
03986             -24.00     9800.00
03987             -26.00     9600.00
03988             -24.00     9600.00
03989             -18.00     9200.00
03990             -18.00     9200.00
03991             -16.00     9200.00
03992             -22.00     9000.00
03993             -22.00     9000.00
03994             -22.00     8800.00
03995             -22.00     8800.00
03996             -18.00     8400.00
03997             -14.00     8400.00
03998             -16.00     8200.00
03999             -18.00     8200.00
04000             -22.00     8000.00
04001             -18.00     8000.00
04002             -16.00     7600.00
04003             -16.00     7400.00
04004             -14.00     7400.00
04005             -14.00     7200.00
04006             -18.00     7200.00
04007             -16.00     6800.00
04008             -18.00     6800.00
04009             -22.00     6600.00
04010             -10.00     6400.00
04011             -12.00     6400.00
04012             -14.00     6400.00
04013             -16.00     6000.00
04014             -18.00     5800.00
04015             -16.00     5600.00
04016              -8.00     5600.00
04017              -8.00     5400.00
04018             -14.00     5200.00
04019             -16.00     5000.00
04020             -18.00     4800.00
04021             -20.00     4600.00
04022              -6.00     4400.00
04023               0.00     4200.00
04024             -10.00     4200.00
04025              -8.00     4000.00
04026             -18.00     3800.00
04027             -24.00     3600.00
04028             -10.00     3400.00
04029               0.00     3200.00
04030               6.00     3000.00
04031              -2.00     2800.00
04032             -26.00     2600.00
04033             -30.00     2400.00
04034              -2.00     2000.00
04035              14.00     2000.00
04036               2.00     1800.00
04037             -10.00     1600.00
04038             -26.00     1600.00
04039             -16.00     1200.00
04040               6.00     1000.00
04041               0.00      800.00
04042              -2.00      800.00
04043              -8.00      400.00
04044             -10.00      400.00
04045              -2.00      200.00
04046               0.00        0.00
04047              14.00        0.00
04048              32.00     -400.00
04049               6.00     -600.00
04050             -22.00     -600.00
04051             -14.00    -1000.00
04052              10.00    -1200.00
04053              22.00    -1400.00
04054              54.00    -1400.00
04055             192.00    -1400.00
04056             196.00    -2200.00
04057            -244.00    -2400.00
04058            -254.00    -2400.00
04059            -102.00    -2800.00
04060              96.00    -2600.00
04061             246.00    -2400.00
04062             246.00    -3000.00
04063            -254.00    -3200.00
04064            -186.00    -3200.00
04065             246.00    -3800.00
04066             -24.00    -3600.00
04067              34.00    -3800.00
04068             -42.00    -4200.00
04069             -24.00    -4000.00
04070             128.00    -4600.00
04071             -60.00    -4400.00
04072             -64.00    -4800.00
04073             -38.00    -4800.00
04074              90.00    -5000.00
04075              98.00    -5600.00
04076             -88.00    -5200.00
04077             -10.00    -6000.00
04078             -24.00    -5600.00
04079              56.00    -6000.00
04080              70.00    -6200.00
04081             -58.00    -6000.00
04082               2.00    -6600.00
04083              16.00    -6400.00
04084              30.00    -6800.00
04085             -20.00    -7000.00
04086              -2.00    -7000.00
04087              36.00    -7200.00
04088              14.00    -7200.00
04089              30.00    -7600.00
04090             -30.00    -7600.00
04091               0.00    -7800.00
04092              46.00    -8000.00
04093               6.00    -8000.00
04094               0.00    -8400.00
04095               8.00    -8400.00
04096              10.00    -8600.00
04097              22.00    -8600.00
04098              14.00    -8800.00
04099              -4.00    -9200.00
04100              12.00    -9000.00
04101              22.00    -9200.00
04102               8.00    -9200.00
04103              12.00    -9400.00
04104              16.00    -9600.00
04105               4.00    -9600.00
04106              16.00    -9600.00
04107               8.00    -9800.00
04108               8.00   -10000.00
04109              30.00   -10000.00
04110              20.00   -10200.00
04111               6.00   -10200.00
04112               6.00   -10400.00
04113               2.00   -10400.00
04114              14.00   -10400.00
04115              26.00   -10400.00
04116              18.00   -10600.00
04117              10.00   -10800.00
04118              16.00   -10800.00
04119               8.00   -10800.00
04120              10.00   -10800.00
04121              18.00   -11000.00
04122              16.00   -11000.00
04123              22.00   -11000.00
04124              22.00   -11200.00
04125               6.00   -11200.00
04126              10.00   -11200.00
04127              14.00   -11400.00
04128              14.00   -11200.00
04129              22.00   -11200.00
04130              22.00   -11400.00
04131              16.00   -11200.00
04132              16.00   -11600.00
04133              10.00   -11600.00
04134               8.00   -11600.00
04135              16.00   -11600.00
04136              22.00   -11600.00
04137              22.00   -11600.00
04138              18.00   -11600.00
04139              10.00   -11600.00
04140              10.00   -11600.00
04141              20.00   -11600.00
04142              22.00   -11400.00
04143              16.00   -11600.00
04144              16.00   -11600.00
04145              18.00   -11600.00
04146              16.00   -11600.00
04147              16.00   -11600.00
04148              16.00   -11600.00
04149              16.00   -11600.00
04150              24.00   -11400.00
04151              18.00   -11600.00
04152              10.00   -11200.00
04153              14.00   -11200.00
04154              16.00   -11400.00
04155              16.00   -11200.00
04156              22.00   -11200.00
04157              20.00   -11200.00
04158              10.00   -11200.00
04159              14.00   -11000.00
04160              16.00   -11000.00
04161              14.00   -10800.00
04162              24.00   -11000.00
04163              12.00   -11000.00
04164              14.00   -10800.00
04165              18.00   -10800.00
04166              10.00   -10600.00
04167               8.00   -10400.00
04168              16.00   -10400.00
04169              18.00   -10200.00
04170              22.00   -10200.00
04171              14.00   -10000.00
04172               0.00   -10000.00
04173               6.00   -10000.00
04174              16.00    -9800.00
04175              24.00    -9800.00
04176              24.00    -9600.00
04177               8.00    -9600.00
04178              -2.00    -9600.00
04179               8.00    -9400.00
04180              12.00    -9200.00
04181              20.00    -9200.00
04182              22.00    -8800.00
04183              10.00    -8800.00
04184               8.00    -8800.00
04185               6.00    -8600.00
04186               8.00    -8400.00
04187              14.00    -8400.00
04188              16.00    -8000.00
04189              14.00    -8000.00
04190              12.00    -8000.00
04191              10.00    -7800.00
04192               6.00    -7600.00
04193               6.00    -7400.00
04194              10.00    -7200.00
04195              14.00    -7200.00
04196              16.00    -7000.00
04197              10.00    -7000.00
04198               6.00    -6800.00
04199               8.00    -6600.00
04200               8.00    -6400.00
04201               6.00    -6200.00
04202               8.00    -6200.00
04203              10.00    -6000.00
04204               8.00    -5800.00
04205               8.00    -5600.00
04206               6.00    -5600.00
04207               4.00    -5400.00
04208               6.00    -5200.00
04209               8.00    -5000.00
04210               8.00    -4800.00
04211              10.00    -4600.00
04212               6.00    -4400.00
04213              -2.00    -4200.00
04214               0.00    -4000.00
04215               6.00    -3800.00
04216              10.00    -3800.00
04217               8.00    -3600.00
04218               0.00    -3200.00
04219               0.00    -3200.00
04220               0.00    -2800.00
04221               2.00    -2800.00
04222               2.00    -2600.00
04223               2.00    -2400.00
04224               0.00    -2200.00
04225              -2.00    -2000.00
04226               2.00    -1800.00
04227               0.00    -1600.00
04228               2.00    -1400.00
04229              -2.00    -1200.00
04230              -2.00    -1000.00
04231               0.00     -800.00
04232               0.00     -800.00
04233              -2.00     -600.00
04234              -2.00     -400.00
04235              -6.00        0.00
04236              -2.00        0.00
04237              -2.00      200.00
04238               0.00      400.00
04239              14.00      600.00
04240              32.00      800.00
04241               2.00      800.00
04242             -16.00     1200.00
04243             -14.00     1400.00
04244               6.00     1400.00
04245              30.00     1600.00
04246             184.00     2000.00
04247             246.00     2400.00
04248            -196.00     2400.00
04249            -254.00     2400.00
04250            -242.00     2600.00
04251              48.00     2800.00
04252             246.00     3200.00
04253             246.00     3200.00
04254            -254.00     3200.00
04255             -86.00     3400.00
04256             246.00     3600.00
04257            -168.00     4000.00
04258             134.00     4200.00
04259             -64.00     4200.00
04260             -88.00     4400.00
04261             200.00     4600.00
04262            -166.00     5000.00
04263             -66.00     5000.00
04264              46.00     5200.00
04265              18.00     5400.00
04266              22.00     5400.00
04267             -62.00     5800.00
04268               6.00     5800.00
04269             -66.00     6000.00
04270              82.00     6400.00
04271             -24.00     6400.00
04272            -110.00     6600.00
04273              58.00     6600.00
04274             -22.00     6800.00
04275              16.00     7000.00
04276             -40.00     7200.00
04277             -50.00     7400.00
04278              14.00     7400.00
04279              18.00     7600.00
04280             -30.00     7800.00
04281             -56.00     8000.00
04282              16.00     8200.00
04283             -14.00     8200.00
04284               2.00     8400.00
04285             -30.00     8400.00
04286             -48.00     8400.00
04287             -16.00     8800.00
04288              16.00     9000.00
04289             -14.00     9200.00
04290             -22.00     9200.00
04291             -24.00     9400.00
04292             -42.00     9400.00
04293               0.00     9600.00
04294             -18.00     9600.00
04295             -16.00     9800.00
04296             -14.00     9800.00
04297             -32.00     9800.00
04298             -38.00    10000.00
04299             -10.00    10200.00
04300              -8.00    10400.00
04301             -20.00    10400.00
04302             -16.00    10400.00
04303             -34.00    10600.00
04304             -32.00    10600.00
04305             -16.00    10800.00
04306             -18.00    10600.00
04307             -18.00    11000.00
04308             -14.00    10800.00
04309             -30.00    11200.00
04310             -22.00    11000.00
04311             -24.00    11200.00
04312             -30.00    11400.00
04313             -18.00    11200.00
04314             -16.00    11400.00
04315             -24.00    11400.00
04316             -24.00    11400.00
04317             -24.00    11800.00
04318             -30.00    11600.00
04319             -22.00    11800.00
04320             -20.00    11600.00
04321             -22.00    11800.00
04322             -16.00    11800.00
04323             -26.00    12000.00
04324             -30.00    11800.00
04325             -24.00    12000.00
04326             -24.00    12000.00
04327             -22.00    12000.00
04328             -22.00    11800.00
04329             -24.00    12000.00
04330             -26.00    12000.00
04331             -22.00    12000.00
04332             -26.00    12000.00
04333             -22.00    12000.00
04334             -18.00    11800.00
04335             -22.00    12000.00
04336             -18.00    12000.00
04337             -26.00    12000.00
04338             -28.00    12000.00
04339             -24.00    12000.00
04340             -20.00    12000.00
04341             -18.00    11600.00
04342             -18.00    12000.00
04343             -24.00    11800.00
04344             -26.00    11800.00
04345             -26.00    11600.00
04346             -24.00    11600.00
04347             -16.00    11800.00
04348             -14.00    11600.00
04349             -24.00    11600.00
04350             -30.00    11600.00
04351             -30.00    11400.00
04352             -22.00    11200.00
04353             -14.00    11400.00
04354             -12.00    11200.00
04355             -16.00    11200.00
04356             -26.00    11200.00
04357             -32.00    11000.00
04358             -30.00    10800.00
04359             -16.00    10800.00
04360             -10.00    10800.00
04361             -16.00    10600.00
04362             -24.00    10600.00
04363             -30.00    10400.00
04364             -30.00    10400.00
04365             -22.00    10400.00
04366             -18.00    10200.00
04367             -14.00    10000.00
04368             -18.00    10000.00
04369             -26.00    10000.00
04370             -26.00     9800.00
04371             -24.00     9600.00
04372             -24.00     9600.00
04373             -16.00     9400.00
04374             -16.00     9200.00
04375             -18.00     9200.00
04376             -22.00     9000.00
04377             -22.00     9000.00
04378             -24.00     8800.00
04379             -22.00     8600.00
04380             -16.00     8400.00
04381             -14.00     8400.00
04382             -16.00     8400.00
04383             -22.00     8000.00
04384             -22.00     8000.00
04385             -20.00     7800.00
04386             -16.00     7600.00
04387             -14.00     7600.00
04388             -18.00     7400.00
04389             -16.00     7200.00
04390             -22.00     7200.00
04391             -16.00     6800.00
04392             -16.00     6600.00
04393             -14.00     6600.00
04394             -14.00     6400.00
04395             -10.00     6200.00
04396             -14.00     6000.00
04397             -16.00     6000.00
04398             -16.00     5800.00
04399             -14.00     5600.00
04400             -10.00     5600.00
04401             -10.00     5200.00
04402             -10.00     5000.00
04403             -12.00     4800.00
04404             -16.00     4800.00
04405             -16.00     4600.00
04406             -10.00     4400.00
04407              -8.00     4200.00
04408              -8.00     4000.00
04409             -10.00     3800.00
04410             -14.00     3600.00
04411             -14.00     3400.00
04412             -14.00     3200.00
04413              -6.00     3200.00
04414              -2.00     2800.00
04415              -6.00     2800.00
04416             -10.00     2400.00
04417             -10.00     2200.00
04418             -10.00     2200.00
04419              -8.00     2000.00
04420              -2.00     1800.00
04421              -2.00     1600.00
04422              -8.00     1400.00
04423             -10.00     1200.00
04424             -10.00     1000.00
04425             -10.00      800.00
04426              -2.00      600.00
04427              -2.00      400.00
04428               0.00      200.00
04429              -2.00        0.00
04430              -2.00     -400.00
04431              22.00     -400.00
04432              24.00     -400.00
04433              -4.00     -600.00
04434             -18.00     -800.00
04435              -4.00     -800.00
04436              10.00    -1000.00
04437              22.00    -1200.00
04438             106.00    -1400.00
04439             246.00    -2000.00
04440              -6.00    -2200.00
04441            -254.00    -2400.00
04442            -254.00    -2600.00
04443              40.00    -2400.00
04444             136.00    -2400.00
04445             246.00    -2800.00
04446              22.00    -3400.00
04447            -254.00    -3000.00
04448             130.00    -3600.00
04449             142.00    -3800.00
04450             -38.00    -3400.00
04451              36.00    -4200.00
04452             -94.00    -4000.00
04453              96.00    -4400.00
04454              48.00    -4600.00
04455             -94.00    -4600.00
04456             -42.00    -4800.00
04457              -6.00    -4800.00
04458             148.00    -5400.00
04459             -14.00    -5000.00
04460             -54.00    -5600.00
04461              -2.00    -5800.00
04462             -14.00    -5600.00
04463              98.00    -6200.00
04464             -14.00    -6000.00
04465             -34.00    -6400.00
04466              14.00    -6800.00
04467              28.00    -6400.00
04468              14.00    -7000.00
04469             -30.00    -7000.00
04470              26.00    -7200.00
04471              16.00    -7200.00
04472              26.00    -7400.00
04473               8.00    -7600.00
04474             -30.00    -7600.00
04475              38.00    -8000.00
04476              24.00    -8000.00
04477              -8.00    -8200.00
04478               6.00    -8400.00
04479               8.00    -8400.00
04480              22.00    -8600.00
04481              22.00    -8600.00
04482               8.00    -9000.00
04483              -2.00    -8800.00
04484              20.00    -9200.00
04485              16.00    -9200.00
04486               8.00    -9200.00
04487              22.00    -9400.00
04488              10.00    -9600.00
04489              10.00    -9600.00
04490              16.00    -9600.00
04491               0.00    -9800.00
04492              22.00   -10000.00
04493              26.00   -10000.00
04494              14.00   -10200.00
04495               8.00   -10400.00
04496               6.00   -10200.00
04497               6.00   -10400.00
04498              18.00   -10400.00
04499              26.00   -10400.00
04500              14.00   -10800.00
04501              14.00   -10800.00
04502               8.00   -10800.00
04503               6.00   -10800.00
04504              22.00   -11000.00
04505              22.00   -11000.00
04506              16.00   -11200.00
04507              18.00   -11200.00
04508               8.00   -11200.00
04509               8.00   -11200.00
04510              16.00   -11400.00
04511              14.00   -11200.00
04512              18.00   -11200.00
04513              20.00   -11400.00
04514              16.00   -11600.00
04515              12.00   -11400.00
04516              16.00   -11600.00
04517              10.00   -11600.00
04518              14.00   -11600.00
04519              22.00   -11600.00
04520              18.00   -11600.00
04521              22.00   -11600.00
04522              16.00   -11600.00
04523              10.00   -11600.00
04524              16.00   -11600.00
04525              18.00   -11600.00
04526              18.00   -11600.00
04527              20.00   -11600.00
04528              18.00   -11600.00
04529              16.00   -11600.00
04530              14.00   -11600.00
04531              14.00   -11600.00
04532              18.00   -11600.00
04533              24.00   -11200.00
04534              20.00   -11200.00
04535              14.00   -11400.00
04536              10.00   -11200.00
04537              14.00   -11200.00
04538              18.00   -11200.00
04539              22.00   -11000.00
04540              18.00   -11200.00
04541              14.00   -11000.00
04542              14.00   -11200.00
04543              12.00   -11000.00
04544              16.00   -11000.00
04545              20.00   -11000.00
04546              22.00   -10800.00
04547              16.00   -10800.00
04548              16.00   -10800.00
04549              10.00   -10800.00
04550              14.00   -10800.00
04551              16.00   -10400.00
04552              18.00   -10200.00
04553              18.00   -10400.00
04554              14.00   -10200.00
04555              12.00   -10000.00
04556              10.00   -10000.00
04557              14.00   -10000.00
04558              14.00    -9600.00
04559              14.00    -9600.00
04560              16.00    -9600.00
04561              12.00    -9600.00
04562               8.00    -9400.00
04563               8.00    -9200.00
04564              10.00    -9200.00
04565              14.00    -9200.00
04566              14.00    -8800.00
04567              14.00    -8800.00
04568               8.00    -8600.00
04569               6.00    -8600.00
04570               8.00    -8400.00
04571              10.00    -8400.00
04572              14.00    -8200.00
04573              14.00    -8000.00
04574               8.00    -7800.00
04575               8.00    -7800.00
04576               6.00    -7400.00
04577               6.00    -7400.00
04578               8.00    -7200.00
04579              10.00    -7000.00
04580              10.00    -7000.00
04581               8.00    -7000.00
04582               6.00    -6800.00
04583               6.00    -6400.00
04584               6.00    -6400.00
04585               8.00    -6200.00
04586               8.00    -6000.00
04587               8.00    -6000.00
04588               8.00    -5600.00
04589               2.00    -5600.00
04590               0.00    -5200.00
04591               6.00    -5200.00
04592               6.00    -5000.00
04593               6.00    -4800.00
04594               8.00    -4600.00
04595               0.00    -4600.00
04596               2.00    -4400.00
04597              10.00    -4200.00
04598               2.00    -3800.00
04599               0.00    -3800.00
04600               6.00    -3600.00
04601               6.00    -3400.00
04602               6.00    -3200.00
04603               0.00    -3000.00
04604              -6.00    -3000.00
04605               0.00    -2600.00
04606               6.00    -2400.00
04607               2.00    -2400.00
04608               2.00    -2000.00
04609               0.00    -2000.00
04610               0.00    -1600.00
04611              -2.00    -1400.00
04612              -6.00    -1400.00
04613              -2.00    -1000.00
04614               8.00    -1000.00
04615               2.00     -600.00
04616              -6.00     -600.00
04617              -8.00     -400.00
04618              -2.00     -400.00
04619               0.00        0.00
04620               6.00      200.00
04621               6.00      400.00
04622               2.00      400.00
04623              24.00      800.00
04624              16.00      800.00
04625              -6.00     1000.00
04626             -14.00     1200.00
04627              -4.00     1400.00
04628               8.00     1800.00
04629              78.00     1800.00
04630             246.00     2000.00
04631              94.00     2400.00
04632            -254.00     2400.00
04633            -254.00     2400.00
04634             -74.00     2800.00
04635             246.00     2800.00
04636             246.00     3200.00
04637            -226.00     3200.00
04638            -254.00     3400.00
04639             246.00     3800.00
04640              16.00     3800.00
04641             -58.00     4200.00
04642             126.00     4400.00
04643            -198.00     4200.00
04644             146.00     4800.00
04645              26.00     4600.00
04646            -202.00     5000.00
04647              38.00     5200.00
04648              16.00     5400.00
04649              58.00     5400.00
04650             -34.00     5600.00
04651             -28.00     6000.00
04652             -54.00     5800.00
04653             -10.00     6400.00
04654             102.00     6400.00
04655            -112.00     6400.00
04656              -2.00     6600.00
04657               6.00     6800.00
04658             -30.00     6800.00
04659              16.00     7200.00
04660             -62.00     7200.00
04661              -2.00     7400.00
04662              16.00     7600.00
04663               0.00     8000.00
04664             -64.00     7600.00
04665             -14.00     8000.00
04666               0.00     8200.00
04667             -12.00     8200.00
04668              -8.00     8600.00
04669             -46.00     8400.00
04670             -24.00     8800.00
04671               0.00     8800.00
04672               0.00     9000.00
04673             -34.00     9200.00
04674             -10.00     9400.00
04675             -32.00     9400.00
04676             -18.00     9400.00
04677             -12.00     9600.00
04678             -26.00     9800.00
04679              -2.00    10000.00
04680             -16.00    10000.00
04681             -34.00    10000.00
04682             -32.00    10200.00
04683              -8.00    10400.00
04684             -16.00    10400.00
04685             -10.00    10400.00
04686             -22.00    10600.00
04687             -34.00    10600.00
04688             -24.00    10800.00
04689             -16.00    10800.00
04690             -22.00    10800.00
04691             -22.00    11200.00
04692             -22.00    11200.00
04693             -20.00    11200.00
04694             -14.00    11200.00
04695             -30.00    11200.00
04696             -34.00    11400.00
04697             -18.00    11400.00
04698             -14.00    11400.00
04699             -16.00    11400.00
04700             -24.00    11800.00
04701             -32.00    11600.00
04702             -32.00    11800.00
04703             -16.00    11800.00
04704             -14.00    11800.00
04705             -16.00    11800.00
04706             -24.00    11800.00
04707             -36.00    11800.00
04708             -32.00    11600.00
04709             -24.00    12000.00
04710             -16.00    12000.00
04711             -10.00    11800.00
04712             -22.00    12000.00
04713             -32.00    12000.00
04714             -30.00    12000.00
04715             -20.00    12000.00
04716             -16.00    12000.00
04717             -18.00    12000.00
04718             -24.00    12000.00
04719             -26.00    12000.00
04720             -26.00    11800.00
04721             -24.00    12000.00
04722             -26.00    11800.00
04723             -22.00    12000.00
04724             -22.00    12000.00
04725             -16.00    11800.00
04726             -20.00    11800.00
04727             -28.00    11800.00
04728             -28.00    12000.00
04729             -24.00    11600.00
04730             -18.00    11600.00
04731             -16.00    11400.00
04732             -18.00    11800.00
04733             -26.00    11400.00
04734             -26.00    11400.00
04735             -24.00    11400.00
04736             -22.00    11200.00
04737             -16.00    11200.00
04738             -18.00    11200.00
04739             -26.00    11000.00
04740             -26.00    11000.00
04741             -24.00    11000.00
04742             -24.00    10800.00
04743             -18.00    10800.00
04744             -18.00    10800.00
04745             -18.00    10600.00
04746             -22.00    10400.00
04747             -22.00    10400.00
04748             -24.00    10400.00
04749             -24.00    10400.00
04750             -18.00    10000.00
04751             -16.00    10000.00
04752             -16.00    10000.00
04753             -24.00     9800.00
04754             -26.00     9800.00
04755             -24.00     9800.00
04756             -18.00     9600.00
04757             -16.00     9200.00
04758             -16.00     9200.00
04759             -22.00     9200.00
04760             -26.00     9000.00
04761             -24.00     8800.00
04762             -20.00     8600.00
04763             -16.00     8400.00
04764             -16.00     8400.00
04765             -16.00     8400.00
04766             -22.00     8200.00
04767             -22.00     8000.00
04768             -22.00     8000.00
04769             -16.00     7600.00
04770             -14.00     7600.00
04771             -16.00     7400.00
04772             -16.00     7400.00
04773             -18.00     7200.00
04774             -22.00     7000.00
04775             -16.00     6800.00
04776             -16.00     6600.00
04777             -14.00     6400.00
04778             -16.00     6400.00
04779             -16.00     6200.00
04780             -16.00     6000.00
04781             -16.00     6000.00
04782             -16.00     5600.00
04783             -14.00     5600.00
04784             -10.00     5400.00
04785             -10.00     5200.00
04786             -14.00     5000.00
04787             -18.00     4800.00
04788             -16.00     4400.00
04789             -16.00     4400.00
04790              -6.00     4200.00
04791              -6.00     4200.00
04792              -8.00     4000.00
04793             -12.00     3600.00
04794             -16.00     3400.00
04795             -10.00     3400.00
04796              -8.00     3200.00
04797              -6.00     3000.00
04798              -6.00     2800.00
04799              -8.00     2600.00
04800             -14.00     2400.00
04801              -8.00     2400.00
04802              -8.00     2000.00
04803              -8.00     1800.00
04804              -4.00     1800.00
04805              -8.00     1600.00
04806              -8.00     1200.00
04807              -8.00     1200.00
04808              -8.00      800.00
04809              -6.00      800.00
04810              -2.00      800.00
04811               0.00      400.00
04812               0.00      200.00
04813               0.00      200.00
04814              12.00     -200.00
04815              26.00     -200.00
04816               6.00     -400.00
04817             -16.00     -600.00
04818             -10.00     -800.00
04819               8.00    -1200.00
04820              16.00    -1200.00
04821              48.00    -1400.00
04822             202.00    -1600.00
04823             194.00    -2200.00
04824            -254.00    -2400.00
04825            -254.00    -2400.00
04826             -96.00    -2600.00
04827              94.00    -2400.00
04828             246.00    -2400.00
04829             246.00    -3000.00
04830            -254.00    -3200.00
04831            -170.00    -3200.00
04832             246.00    -3800.00
04833             -26.00    -3400.00
04834              36.00    -4000.00
04835             -48.00    -4200.00
04836             -18.00    -4200.00
04837             130.00    -4600.00
04838             -62.00    -4600.00
04839             -70.00    -4800.00
04840             -42.00    -4800.00
04841              88.00    -5200.00
04842             102.00    -5400.00
04843             -80.00    -5200.00
04844              -8.00    -6000.00
04845             -26.00    -5600.00
04846              54.00    -6000.00
04847              64.00    -6400.00
04848             -58.00    -6200.00
04849               6.00    -6400.00
04850              16.00    -6400.00
04851              34.00    -6800.00
04852             -24.00    -7000.00
04853              -6.00    -7000.00
04854              30.00    -7200.00
04855              10.00    -7200.00
04856              32.00    -7600.00
04857             -24.00    -7400.00
04858               8.00    -7800.00
04859              42.00    -8000.00
04860               2.00    -8000.00
04861              -2.00    -8400.00
04862               8.00    -8400.00
04863              16.00    -8600.00
04864              26.00    -8800.00
04865              18.00    -8800.00
04866              -2.00    -8800.00
04867               6.00    -9000.00
04868              18.00    -9200.00
04869              10.00    -9400.00
04870              18.00    -9400.00
04871              22.00    -9400.00
04872               4.00    -9600.00
04873              16.00    -9600.00
04874               6.00    -9600.00
04875               8.00    -9800.00
04876              34.00   -10000.00
04877              24.00   -10200.00
04878               6.00   -10000.00
04879              10.00   -10200.00
04880               8.00   -10400.00
04881              16.00   -10600.00
04882              26.00   -10400.00
04883              16.00   -10800.00
04884              10.00   -10800.00
04885              16.00   -10800.00
04886              10.00   -10800.00
04887              10.00   -11000.00
04888              22.00   -11000.00
04889              14.00   -10800.00
04890              18.00   -11000.00
04891              22.00   -11200.00
04892               8.00   -11200.00
04893              14.00   -11200.00
04894              16.00   -11200.00
04895              14.00   -11200.00
04896              22.00   -11400.00
04897              22.00   -11400.00
04898              10.00   -11600.00
04899              14.00   -11600.00
04900              10.00   -11600.00
04901              10.00   -11600.00
04902              22.00   -11600.00
04903              22.00   -11600.00
04904              18.00   -11600.00
04905              16.00   -11600.00
04906              10.00   -11600.00
04907              10.00   -11600.00
04908              18.00   -11600.00
04909              20.00   -11600.00
04910              18.00   -11600.00
04911              22.00   -11600.00
04912              14.00   -11800.00
04913               8.00   -11600.00
04914              14.00   -11600.00
04915              18.00   -11400.00
04916              22.00   -11400.00
04917              22.00   -11400.00
04918              14.00   -11400.00
04919              14.00   -11600.00
04920              10.00   -11400.00
04921              14.00   -11200.00
04922              22.00   -11200.00
04923              22.00   -11200.00
04924              18.00   -11200.00
04925              16.00   -11200.00
04926              12.00   -11000.00
04927              14.00   -11000.00
04928              16.00   -11000.00
04929              22.00   -11000.00
04930              18.00   -10800.00
04931              18.00   -10800.00
04932              12.00   -10800.00
04933              10.00   -10800.00
04934              14.00   -10400.00
04935              16.00   -10400.00
04936              16.00   -10200.00
04937              20.00   -10200.00
04938              14.00   -10200.00
04939              10.00   -10200.00
04940              10.00   -10000.00
04941              14.00   -10000.00
04942              16.00    -9600.00
04943              18.00    -9600.00
04944              16.00    -9600.00
04945              10.00    -9400.00
04946               6.00    -9400.00
04947               8.00    -9200.00
04948              10.00    -9200.00
04949              14.00    -8800.00
04950              16.00    -8800.00
04951              12.00    -8800.00
04952              10.00    -8600.00
04953               8.00    -8400.00
04954              10.00    -8400.00
04955              10.00    -8200.00
04956              14.00    -8000.00
04957              12.00    -7800.00
04958               8.00    -7800.00
04959               6.00    -7400.00
04960               6.00    -7600.00
04961               8.00    -7400.00
04962              10.00    -7200.00
04963              10.00    -7200.00
04964              10.00    -6800.00
04965               6.00    -6800.00
04966               4.00    -6600.00
04967               4.00    -6400.00
04968               6.00    -6200.00
04969              10.00    -6200.00
04970               8.00    -6000.00
04971               6.00    -5800.00
04972               2.00    -5600.00
04973               2.00    -5600.00
04974               2.00    -5200.00
04975               6.00    -5200.00
04976               8.00    -5000.00
04977               8.00    -4800.00
04978               2.00    -4600.00
04979               2.00    -4400.00
04980               2.00    -4400.00
04981               2.00    -4000.00
04982               6.00    -3800.00
04983               6.00    -3600.00
04984               4.00    -3600.00
04985               2.00    -3400.00
04986               0.00    -3200.00
04987               0.00    -3000.00
04988               0.00    -2800.00
04989               2.00    -2400.00
04990               2.00    -2400.00
04991               2.00    -2200.00
04992               0.00    -2000.00
04993              -2.00    -2000.00
04994              -2.00    -1600.00
04995               0.00    -1400.00
04996               0.00    -1200.00
04997               0.00    -1000.00
04998               0.00     -800.00
04999              -6.00     -800.00
05000              -6.00     -600.00
