Unit:(mV)
                     CH1         CH2
Frequency              ?           ?
00001               0.00    -2800.00
00002               0.00    -2800.00
00003              -2.00    -2600.00
00004              -4.00    -2400.00
00005              -2.00    -2400.00
00006              -2.00    -2400.00
00007              -2.00    -2400.00
00008              -2.00    -2400.00
00009              -6.00    -2200.00
00010              -4.00    -2200.00
00011              -2.00    -2400.00
00012               0.00    -2200.00
00013               0.00    -2200.00
00014              -2.00    -2000.00
00015              -2.00    -2000.00
00016              -4.00    -1800.00
00017              -2.00    -2000.00
00018              -2.00    -2000.00
00019              -4.00    -1600.00
00020              -2.00    -1600.00
00021              -6.00    -1600.00
00022              -6.00    -1600.00
00023              -2.00    -1400.00
00024              -2.00    -1400.00
00025               0.00    -1400.00
00026               0.00    -1000.00
00027              -4.00    -1400.00
00028              -8.00    -1000.00
00029              -8.00    -1000.00
00030              -2.00    -1000.00
00031              -2.00     -800.00
00032               0.00     -800.00
00033              -2.00     -800.00
00034              -2.00     -800.00
00035              -4.00     -800.00
00036              -2.00     -600.00
00037              -2.00     -600.00
00038              -2.00     -400.00
00039              -2.00     -400.00
00040              -2.00     -400.00
00041               0.00        0.00
00042              -4.00     -200.00
00043              -8.00     -200.00
00044              -6.00        0.00
00045              -2.00        0.00
00046               0.00        0.00
00047              -2.00      200.00
00048               2.00        0.00
00049               2.00      200.00
00050               2.00      400.00
00051               2.00      400.00
00052               8.00      400.00
00053               0.00      400.00
00054              -8.00      600.00
00055              -2.00      600.00
00056               4.00      800.00
00057              34.00      800.00
00058             158.00     1000.00
00059              70.00     1000.00
00060            -254.00      800.00
00061            -254.00      800.00
00062             246.00     1200.00
00063             246.00     1600.00
00064            -254.00     1000.00
00065            -254.00     1000.00
00066             246.00     1600.00
00067             246.00     1400.00
00068            -254.00     1200.00
00069            -254.00     1600.00
00070             246.00     1800.00
00071              48.00     1400.00
00072            -254.00     1600.00
00073              96.00     2000.00
00074              96.00     1800.00
00075            -120.00     1600.00
00076             104.00     2000.00
00077              34.00     2000.00
00078            -182.00     2000.00
00079              88.00     2400.00
00080              58.00     2400.00
00081            -106.00     2400.00
00082              84.00     2400.00
00083             -34.00     2400.00
00084            -116.00     2400.00
00085             182.00     2600.00
00086             -14.00     2400.00
00087            -210.00     2600.00
00088             134.00     3000.00
00089              78.00     2600.00
00090            -136.00     2800.00
00091              50.00     3000.00
00092               8.00     2800.00
00093             -62.00     2800.00
00094              70.00     3200.00
00095             -32.00     3000.00
00096             -38.00     3200.00
00097              54.00     3200.00
00098             -42.00     3200.00
00099              -2.00     3200.00
00100              46.00     3400.00
00101             -64.00     3400.00
00102               2.00     3400.00
00103              34.00     3400.00
00104             -42.00     3400.00
00105               0.00     3600.00
00106              18.00     3600.00
00107             -16.00     3600.00
00108             -10.00     3800.00
00109             -12.00     3600.00
00110               8.00     3800.00
00111              18.00     3600.00
00112             -24.00     3800.00
00113              -8.00     3600.00
00114               8.00     4000.00
00115             -16.00     4000.00
00116              -2.00     4000.00
00117              16.00     4000.00
00118              -6.00     4000.00
00119             -16.00     4000.00
00120               2.00     4000.00
00121              -2.00     4000.00
00122             -10.00     4000.00
00123              -2.00     4200.00
00124               2.00     4000.00
00125               0.00     4200.00
00126             -10.00     4400.00
00127             -10.00     4200.00
00128               2.00     4200.00
00129              -4.00     4200.00
00130             -12.00     4200.00
00131               6.00     4200.00
00132               0.00     4200.00
00133             -14.00     4200.00
00134              -8.00     4400.00
00135              -6.00     4200.00
00136              -8.00     4200.00
00137              -2.00     4400.00
00138              -4.00     4400.00
00139               0.00     4400.00
00140              -8.00     4400.00
00141             -12.00     4400.00
00142              -2.00     4400.00
00143              -2.00     4200.00
00144              -6.00     4200.00
00145              -2.00     4400.00
00146              -2.00     4200.00
00147             -10.00     4200.00
00148             -10.00     4400.00
00149              -6.00     4200.00
00150              -4.00     4400.00
00151              -2.00     4400.00
00152              -4.00     4400.00
00153              -8.00     4400.00
00154             -10.00     4200.00
00155              -8.00     4200.00
00156              -4.00     4200.00
00157              -2.00     4200.00
00158              -2.00     4200.00
00159              -4.00     4200.00
00160              -4.00     4200.00
00161             -10.00     4200.00
00162              -8.00     4200.00
00163               0.00     4000.00
00164              -2.00     4000.00
00165              -4.00     4000.00
00166              -6.00     4000.00
00167              -6.00     4000.00
00168              -8.00     4000.00
00169              -8.00     4200.00
00170              -2.00     4000.00
00171               0.00     4000.00
00172              -6.00     3800.00
00173              -6.00     4000.00
00174              -2.00     4000.00
00175              -8.00     3600.00
00176              -8.00     3800.00
00177               0.00     3800.00
00178              -2.00     3600.00
00179              -6.00     3600.00
00180              -6.00     3600.00
00181              -6.00     3600.00
00182              -6.00     3600.00
00183              -2.00     3400.00
00184              -2.00     3400.00
00185              -2.00     3400.00
00186              -4.00     3400.00
00187              -8.00     3200.00
00188              -4.00     3400.00
00189              -6.00     3200.00
00190              -4.00     3200.00
00191              -2.00     3200.00
00192               0.00     3200.00
00193              -8.00     3200.00
00194              -6.00     3000.00
00195              -6.00     3000.00
00196              -6.00     3000.00
00197              -8.00     2800.00
00198              -4.00     2800.00
00199              -6.00     2800.00
00200              -6.00     2800.00
00201             -10.00     2600.00
00202              -4.00     2600.00
00203              -2.00     2600.00
00204              -2.00     2600.00
00205              -6.00     2400.00
00206              -2.00     2400.00
00207              -8.00     2400.00
00208              -8.00     2200.00
00209              -6.00     2000.00
00210              -2.00     2000.00
00211              -2.00     2000.00
00212              -6.00     2000.00
00213              -2.00     2000.00
00214              -8.00     1800.00
00215              -8.00     1800.00
00216              -4.00     1800.00
00217               0.00     1800.00
00218              -4.00     1600.00
00219              -6.00     1600.00
00220              -6.00     1600.00
00221              -6.00     1400.00
00222              -6.00     1400.00
00223              -4.00     1200.00
00224              -2.00     1200.00
00225              -2.00     1200.00
00226              -2.00     1200.00
00227              -6.00      800.00
00228              -2.00     1000.00
00229              -6.00     1000.00
00230              -6.00      800.00
00231               0.00     1000.00
00232              -2.00      800.00
00233              -6.00      800.00
00234              -2.00      800.00
00235              -2.00      400.00
00236               0.00      400.00
00237               0.00      400.00
00238              -6.00      400.00
00239               0.00      400.00
00240               2.00      200.00
00241               0.00      200.00
00242               0.00      200.00
00243               8.00        0.00
00244               6.00        0.00
00245              -6.00        0.00
00246              -8.00     -200.00
00247              -4.00     -200.00
00248               6.00     -400.00
00249              42.00     -400.00
00250             142.00     -400.00
00251              54.00     -800.00
00252            -254.00     -800.00
00253            -254.00     -400.00
00254             246.00     -600.00
00255             246.00     -800.00
00256            -254.00    -1200.00
00257            -254.00     -600.00
00258             246.00    -1000.00
00259             246.00     -800.00
00260            -254.00    -1200.00
00261            -254.00    -1200.00
00262             246.00    -1400.00
00263             176.00    -1200.00
00264            -144.00    -1400.00
00265             -40.00    -1600.00
00266             -62.00    -1600.00
00267             -42.00    -1600.00
00268             206.00    -1600.00
00269              38.00    -1600.00
00270            -232.00    -1600.00
00271             -18.00    -2000.00
00272             160.00    -1800.00
00273              -2.00    -2000.00
00274             -38.00    -2000.00
00275             -66.00    -2200.00
00276             -20.00    -2000.00
00277             116.00    -2400.00
00278               2.00    -2200.00
00279            -136.00    -2200.00
00280              32.00    -2400.00
00281              94.00    -2400.00
00282             -48.00    -2400.00
00283             -38.00    -2400.00
00284               0.00    -2600.00
00285              14.00    -2400.00
00286              24.00    -2800.00
00287              -6.00    -2800.00
00288             -48.00    -2800.00
00289               6.00    -2800.00
00290              30.00    -2800.00
00291              -2.00    -2800.00
00292             -16.00    -3000.00
00293              -8.00    -3000.00
00294               6.00    -3000.00
00295              14.00    -3200.00
00296              -6.00    -3000.00
00297             -24.00    -3200.00
00298              12.00    -3200.00
00299              22.00    -3200.00
00300             -18.00    -3200.00
00301             -18.00    -3200.00
00302              14.00    -3200.00
00303              10.00    -3200.00
00304              -4.00    -3400.00
00305              -6.00    -3400.00
00306              -8.00    -3600.00
00307              -2.00    -3400.00
00308               6.00    -3600.00
00309               2.00    -3600.00
00310               0.00    -3600.00
00311              -6.00    -3600.00
00312              -2.00    -3600.00
00313               2.00    -3600.00
00314              -2.00    -3600.00
00315              -6.00    -3800.00
00316               8.00    -3800.00
00317               6.00    -3800.00
00318              -8.00    -3600.00
00319              -8.00    -3800.00
00320               0.00    -3800.00
00321               0.00    -3800.00
00322               0.00    -3800.00
00323               2.00    -3800.00
00324               0.00    -4000.00
00325               0.00    -3800.00
00326              -6.00    -3800.00
00327              -2.00    -4000.00
00328               0.00    -4000.00
00329              -2.00    -3800.00
00330               2.00    -4000.00
00331               0.00    -4000.00
00332              -8.00    -4000.00
00333              -6.00    -3800.00
00334               0.00    -4000.00
00335               0.00    -3800.00
00336               0.00    -4000.00
00337              -2.00    -4000.00
00338              -2.00    -4000.00
00339              -2.00    -4000.00
00340              -2.00    -4000.00
00341              -2.00    -4000.00
00342               0.00    -3800.00
00343              -2.00    -4000.00
00344              -2.00    -3800.00
00345               0.00    -4000.00
00346              -6.00    -3800.00
00347              -6.00    -4000.00
00348               0.00    -3800.00
00349              -2.00    -3800.00
00350              -2.00    -3800.00
00351              -2.00    -3800.00
00352              -2.00    -4000.00
00353              -6.00    -3800.00
00354              -2.00    -3800.00
00355               2.00    -3600.00
00356               0.00    -3600.00
00357               0.00    -3600.00
00358               0.00    -3600.00
00359              -2.00    -3600.00
00360              -4.00    -3600.00
00361              -2.00    -3600.00
00362               0.00    -3600.00
00363               6.00    -3600.00
00364               0.00    -3400.00
00365              -2.00    -3400.00
00366              -4.00    -3600.00
00367              -4.00    -3400.00
00368              -6.00    -3400.00
00369               0.00    -3200.00
00370               4.00    -3200.00
00371               2.00    -3200.00
00372              -2.00    -3200.00
00373              -6.00    -3200.00
00374              -4.00    -3200.00
00375              -2.00    -3000.00
00376               2.00    -3000.00
00377               6.00    -2800.00
00378               0.00    -3000.00
00379              -2.00    -3000.00
00380              -2.00    -3000.00
00381              -2.00    -2800.00
00382               0.00    -3000.00
00383               2.00    -2800.00
00384               0.00    -2600.00
00385              -6.00    -2800.00
00386              -2.00    -2600.00
00387               0.00    -2600.00
00388               0.00    -2600.00
00389               0.00    -2400.00
00390               0.00    -2400.00
00391               0.00    -2400.00
00392              -2.00    -2200.00
00393              -6.00    -2200.00
00394              -4.00    -2200.00
00395              -2.00    -2000.00
00396               0.00    -2200.00
00397               0.00    -2000.00
00398               0.00    -2000.00
00399              -6.00    -2000.00
00400              -6.00    -1800.00
00401              -2.00    -2000.00
00402               0.00    -1800.00
00403               2.00    -1600.00
00404              -2.00    -1600.00
00405              -4.00    -1600.00
00406              -6.00    -1400.00
00407              -8.00    -1400.00
00408              -2.00    -1400.00
00409               0.00    -1200.00
00410               0.00    -1200.00
00411              -2.00    -1000.00
00412              -2.00    -1200.00
00413              -6.00    -1000.00
00414              -4.00     -800.00
00415              -2.00     -800.00
00416               0.00     -800.00
00417               0.00     -800.00
00418              -2.00     -800.00
00419              -2.00     -600.00
00420              -2.00     -600.00
00421              -6.00     -400.00
00422              -6.00     -400.00
00423              -2.00     -400.00
00424               2.00     -400.00
00425               0.00     -200.00
00426              -2.00     -400.00
00427              -6.00        0.00
00428              -2.00        0.00
00429              -2.00        0.00
00430              -2.00      200.00
00431               0.00      200.00
00432               6.00      200.00
00433               2.00      400.00
00434               0.00      400.00
00435               6.00      400.00
00436               0.00      400.00
00437              -2.00      400.00
00438              -2.00      800.00
00439               0.00      800.00
00440              30.00      800.00
00441             150.00     1000.00
00442              96.00     1000.00
00443            -254.00     1000.00
00444            -254.00     1000.00
00445             246.00     1200.00
00446             246.00     1400.00
00447            -254.00     1000.00
00448            -254.00     1000.00
00449             246.00     1600.00
00450             246.00     1600.00
00451            -254.00     1200.00
00452            -254.00     1600.00
00453             246.00     1800.00
00454             112.00     1600.00
00455            -254.00     1600.00
00456              64.00     2000.00
00457             122.00     1800.00
00458            -122.00     1600.00
00459              86.00     2000.00
00460              62.00     2000.00
00461            -190.00     2000.00
00462              74.00     2200.00
00463              78.00     2400.00
00464            -110.00     2400.00
00465              78.00     2200.00
00466             -14.00     2400.00
00467            -132.00     2400.00
00468             170.00     2600.00
00469              20.00     2600.00
00470            -224.00     2600.00
00471             112.00     2800.00
00472              96.00     2800.00
00473            -140.00     2800.00
00474              38.00     3000.00
00475              18.00     2800.00
00476             -66.00     2800.00
00477              66.00     3200.00
00478             -22.00     3200.00
00479             -48.00     3200.00
00480              50.00     3200.00
00481             -42.00     3200.00
00482             -10.00     3200.00
00483              54.00     3400.00
00484             -58.00     3400.00
00485              -8.00     3400.00
00486              40.00     3400.00
00487             -40.00     3600.00
00488              -2.00     3600.00
00489              22.00     3600.00
00490             -16.00     3600.00
00491             -10.00     3600.00
00492             -14.00     3600.00
00493               6.00     3600.00
00494              18.00     3800.00
00495             -22.00     4000.00
00496             -10.00     3800.00
00497               8.00     4000.00
00498             -16.00     4000.00
00499              -8.00     3800.00
00500              14.00     4000.00
00501              -4.00     4000.00
00502             -16.00     4000.00
00503               6.00     4000.00
00504               0.00     4200.00
00505             -14.00     4200.00
00506              -2.00     4200.00
00507               0.00     4200.00
00508               2.00     4000.00
00509              -6.00     4200.00
00510             -10.00     4200.00
00511               2.00     4200.00
00512              -2.00     4400.00
00513             -16.00     4200.00
00514               6.00     4200.00
00515               2.00     4200.00
00516             -10.00     4400.00
00517              -2.00     4400.00
00518              -2.00     4200.00
00519              -8.00     4400.00
00520              -2.00     4200.00
00521              -2.00     4200.00
00522               0.00     4400.00
00523              -6.00     4400.00
00524             -14.00     4200.00
00525              -6.00     4400.00
00526               0.00     4400.00
00527              -6.00     4200.00
00528              -2.00     4400.00
00529              -2.00     4200.00
00530             -10.00     4400.00
00531             -10.00     4400.00
00532              -4.00     4400.00
00533              -6.00     4200.00
00534              -2.00     4400.00
00535              -6.00     4400.00
00536              -6.00     4400.00
00537             -10.00     4200.00
00538              -8.00     4200.00
00539              -6.00     4200.00
00540              -2.00     4200.00
00541              -6.00     4200.00
00542              -6.00     4200.00
00543              -6.00     4200.00
00544             -12.00     4200.00
00545             -10.00     4000.00
00546              -2.00     4200.00
00547              -2.00     4000.00
00548              -6.00     4000.00
00549              -8.00     4000.00
00550              -6.00     4000.00
00551              -8.00     4000.00
00552              -8.00     4000.00
00553               0.00     4000.00
00554               0.00     4000.00
00555              -2.00     4000.00
00556              -8.00     4000.00
00557              -6.00     3800.00
00558              -8.00     3800.00
00559              -8.00     3800.00
00560              -2.00     3800.00
00561              -2.00     3600.00
00562              -6.00     3600.00
00563              -8.00     3400.00
00564              -6.00     3600.00
00565              -6.00     3600.00
00566              -4.00     3400.00
00567              -2.00     3400.00
00568              -2.00     3400.00
00569              -2.00     3400.00
00570              -8.00     3400.00
00571              -6.00     3400.00
00572              -2.00     3200.00
00573              -6.00     3200.00
00574               0.00     3200.00
00575               0.00     3200.00
00576              -8.00     3200.00
00577              -6.00     3000.00
00578              -2.00     3000.00
00579               0.00     2800.00
00580              -8.00     2800.00
00581              -6.00     2800.00
00582              -2.00     2800.00
00583               0.00     2800.00
00584              -6.00     2600.00
00585              -6.00     2600.00
00586              -4.00     2600.00
00587              -2.00     2400.00
00588              -4.00     2400.00
00589              -2.00     2400.00
00590              -6.00     2200.00
00591              -8.00     2400.00
00592              -6.00     2200.00
00593              -4.00     2000.00
00594              -6.00     2000.00
00595              -2.00     2000.00
00596              -2.00     2000.00
00597              -4.00     1800.00
00598              -8.00     1800.00
00599              -6.00     1800.00
00600              -6.00     1600.00
00601              -2.00     1600.00
00602              -2.00     1600.00
00603              -6.00     1600.00
00604              -8.00     1200.00
00605              -8.00     1400.00
00606              -2.00     1200.00
00607               0.00     1200.00
00608              -2.00     1200.00
00609              -6.00     1000.00
00610              -8.00     1000.00
00611              -6.00     1000.00
00612              -6.00      800.00
00613              -2.00      800.00
00614              -2.00      800.00
00615               0.00      800.00
00616              -6.00      800.00
00617              -8.00      600.00
00618              -4.00      400.00
00619               0.00      400.00
00620              -2.00      400.00
00621              -6.00      400.00
00622              -6.00      200.00
00623              -2.00      200.00
00624               0.00      200.00
00625               0.00        0.00
00626               6.00        0.00
00627               4.00        0.00
00628              -6.00        0.00
00629              -8.00        0.00
00630              -2.00     -400.00
00631               6.00     -200.00
00632              34.00     -400.00
00633             136.00     -400.00
00634              72.00     -600.00
00635            -254.00     -800.00
00636            -254.00     -400.00
00637             246.00     -600.00
00638             246.00     -800.00
00639            -174.00    -1200.00
00640            -254.00     -800.00
00641             186.00    -1000.00
00642             246.00    -1000.00
00643            -254.00    -1000.00
00644            -254.00    -1200.00
00645             240.00    -1400.00
00646             208.00    -1200.00
00647            -138.00    -1400.00
00648             -50.00    -1400.00
00649             -54.00    -1400.00
00650             -56.00    -1400.00
00651             194.00    -1800.00
00652              72.00    -1600.00
00653            -230.00    -1600.00
00654             -40.00    -2000.00
00655             160.00    -2000.00
00656               2.00    -2000.00
00657             -38.00    -2000.00
00658             -64.00    -2200.00
00659             -22.00    -2200.00
00660             112.00    -2200.00
00661              14.00    -2200.00
00662            -146.00    -2200.00
00663              16.00    -2200.00
00664             104.00    -2400.00
00665             -34.00    -2400.00
00666             -40.00    -2400.00
00667              -4.00    -2600.00
00668               6.00    -2400.00
00669              22.00    -2800.00
00670               0.00    -2800.00
00671             -46.00    -2800.00
00672               2.00    -2800.00
00673              26.00    -2800.00
00674              -2.00    -2800.00
00675             -18.00    -3000.00
00676             -14.00    -3200.00
00677               6.00    -3000.00
00678              10.00    -3000.00
00679              -2.00    -3200.00
00680             -26.00    -3000.00
00681               6.00    -3200.00
00682              18.00    -3200.00
00683             -16.00    -3200.00
00684             -24.00    -3400.00
00685              16.00    -3200.00
00686               8.00    -3200.00
00687              -2.00    -3200.00
00688              -6.00    -3200.00
00689             -10.00    -3600.00
00690              -8.00    -3600.00
00691               6.00    -3400.00
00692               2.00    -3600.00
00693               0.00    -3600.00
00694              -4.00    -3600.00
00695              -2.00    -3600.00
00696               2.00    -3600.00
00697              -6.00    -3600.00
00698              -8.00    -3600.00
00699               8.00    -3800.00
00700               8.00    -3800.00
00701             -10.00    -3800.00
00702              -8.00    -3800.00
00703               0.00    -3800.00
00704              -2.00    -3600.00
00705               0.00    -3800.00
00706               2.00    -3800.00
00707               0.00    -3800.00
00708               0.00    -4000.00
00709              -8.00    -3800.00
00710              -2.00    -3800.00
00711               0.00    -3800.00
00712              -2.00    -3800.00
00713               2.00    -4000.00
00714               4.00    -3800.00
00715              -6.00    -4000.00
00716              -8.00    -3800.00
00717              -2.00    -4000.00
00718               0.00    -3800.00
00719               0.00    -4000.00
00720               0.00    -4000.00
00721              -2.00    -4000.00
00722              -6.00    -4000.00
00723              -6.00    -4000.00
00724              -2.00    -3800.00
00725               2.00    -4000.00
00726               0.00    -3800.00
00727               0.00    -3800.00
00728               0.00    -4000.00
00729              -6.00    -4000.00
00730              -8.00    -3800.00
00731              -2.00    -3800.00
00732               0.00    -3800.00
00733               0.00    -3800.00
00734              -2.00    -3800.00
00735              -4.00    -4000.00
00736              -4.00    -3800.00
00737               0.00    -3800.00
00738               0.00    -3800.00
00739               0.00    -3800.00
00740               0.00    -3600.00
00741              -2.00    -3600.00
00742              -2.00    -3800.00
00743              -6.00    -3600.00
00744              -2.00    -3600.00
00745              -2.00    -3600.00
00746               0.00    -3600.00
00747              -2.00    -3400.00
00748               0.00    -3600.00
00749              -4.00    -3600.00
00750              -2.00    -3400.00
00751              -2.00    -3200.00
00752               2.00    -3400.00
00753               0.00    -3200.00
00754               0.00    -3400.00
00755              -2.00    -3200.00
00756              -2.00    -3200.00
00757              -2.00    -3000.00
00758               0.00    -3200.00
00759               2.00    -3000.00
00760               0.00    -3000.00
00761              -2.00    -3000.00
00762              -2.00    -2800.00
00763              -2.00    -3000.00
00764               0.00    -2800.00
00765               0.00    -2800.00
00766               0.00    -2800.00
00767               0.00    -2800.00
00768               0.00    -2600.00
00769              -4.00    -2600.00
00770              -2.00    -2400.00
00771               0.00    -2400.00
00772               0.00    -2400.00
00773               2.00    -2400.00
00774               0.00    -2400.00
00775               0.00    -2200.00
00776              -2.00    -2200.00
00777              -2.00    -2200.00
00778               0.00    -2200.00
00779              -2.00    -2000.00
00780               0.00    -2000.00
00781               0.00    -2000.00
00782              -2.00    -2000.00
00783              -2.00    -1800.00
00784              -2.00    -1600.00
00785               0.00    -1800.00
00786              -2.00    -1600.00
00787               0.00    -1600.00
00788              -2.00    -1400.00
00789              -2.00    -1400.00
00790              -6.00    -1600.00
00791              -6.00    -1400.00
00792               0.00    -1400.00
00793               0.00    -1000.00
00794              -2.00    -1200.00
00795              -6.00    -1000.00
00796              -6.00    -1000.00
00797              -6.00     -800.00
00798              -2.00     -800.00
00799               0.00     -800.00
00800               0.00     -800.00
00801              -6.00     -600.00
00802              -8.00     -800.00
00803              -2.00     -600.00
00804              -2.00     -600.00
00805              -2.00     -600.00
00806              -2.00     -400.00
00807              -2.00     -400.00
00808              -2.00        0.00
00809              -2.00     -200.00
00810              -2.00     -200.00
00811              -2.00        0.00
00812              -2.00        0.00
00813              -8.00      200.00
00814               0.00      200.00
00815               2.00      200.00
00816               0.00      200.00
00817               0.00      400.00
00818               6.00      400.00
00819               2.00      600.00
00820              -6.00      600.00
00821              -6.00      600.00
00822              -2.00      600.00
00823              22.00      800.00
00824             142.00     1000.00
00825             112.00     1200.00
00826            -254.00     1000.00
00827            -254.00      800.00
00828             246.00     1200.00
00829             246.00     1400.00
00830            -210.00     1200.00
00831            -254.00      800.00
00832             246.00     1600.00
00833             246.00     1600.00
00834            -254.00     1200.00
00835            -254.00     1600.00
00836             246.00     2000.00
00837             174.00     1600.00
00838            -254.00     1400.00
00839              24.00     2000.00
00840             146.00     1800.00
00841            -122.00     1800.00
00842              68.00     2000.00
00843              88.00     2000.00
00844            -192.00     2000.00
00845              54.00     2200.00
00846              90.00     2400.00
00847            -110.00     2400.00
00848              62.00     2400.00
00849               6.00     2400.00
00850            -146.00     2400.00
00851             152.00     2600.00
00852              50.00     2400.00
00853            -226.00     2600.00
00854              90.00     2800.00
00855             118.00     2600.00
00856            -138.00     2600.00
00857              24.00     3000.00
00858              30.00     3000.00
00859             -74.00     2800.00
00860              60.00     3200.00
00861             -10.00     3200.00
00862             -58.00     3200.00
00863              54.00     3200.00
00864             -32.00     3200.00
00865             -22.00     3200.00
00866              54.00     3400.00
00867             -54.00     3200.00
00868             -18.00     3400.00
00869              42.00     3600.00
00870             -34.00     3600.00
00871             -14.00     3600.00
00872              22.00     3600.00
00873             -16.00     3400.00
00874             -14.00     3400.00
00875             -14.00     3600.00
00876               0.00     3600.00
00877              18.00     3800.00
00878             -18.00     3800.00
00879             -16.00     3800.00
00880               8.00     3800.00
00881             -14.00     4000.00
00882             -10.00     4000.00
00883              14.00     4000.00
00884              -6.00     4000.00
00885             -18.00     4000.00
00886               0.00     4000.00
00887               0.00     4200.00
00888             -14.00     4000.00
00889              -8.00     4200.00
00890               0.00     4000.00
00891               4.00     4200.00
00892              -6.00     4200.00
00893             -16.00     4200.00
00894               0.00     4200.00
00895              -4.00     4200.00
00896             -10.00     4200.00
00897              10.00     4200.00
00898              -2.00     4200.00
00899             -16.00     4200.00
00900              -6.00     4400.00
00901               0.00     4400.00
00902              -2.00     4400.00
00903              -6.00     4400.00
00904             -10.00     4400.00
00905               0.00     4200.00
00906               2.00     4400.00
00907              -8.00     4200.00
00908             -10.00     4400.00
00909             -10.00     4200.00
00910              -2.00     4400.00
00911              12.00     4400.00
00912              -2.00     4200.00
00913             -18.00     4400.00
00914             -14.00     4400.00
00915              -2.00     4400.00
00916               2.00     4400.00
00917               0.00     4200.00
00918              -2.00     4200.00
00919             -10.00     4200.00
00920             -14.00     4200.00
00921             -14.00     4200.00
00922              -2.00     4400.00
00923               2.00     4400.00
00924              -2.00     4200.00
00925               0.00     4200.00
00926              -6.00     4000.00
00927             -18.00     4200.00
00928             -10.00     4200.00
00929               6.00     4200.00
00930               6.00     4200.00
00931              -8.00     4200.00
00932             -18.00     4000.00
00933              -8.00     4000.00
00934               0.00     4000.00
00935               0.00     4000.00
00936              -6.00     4000.00
00937              -6.00     4000.00
00938             -10.00     3800.00
00939              -8.00     4000.00
00940               0.00     3600.00
00941              -2.00     3800.00
00942              -8.00     3800.00
00943              -8.00     3600.00
00944              -4.00     3600.00
00945              -6.00     3600.00
00946              -2.00     3600.00
00947              -2.00     3600.00
00948              -8.00     3600.00
00949              -8.00     3600.00
00950              -2.00     3600.00
00951              -2.00     3400.00
00952              -4.00     3400.00
00953              -8.00     3400.00
00954              -8.00     3400.00
00955              -2.00     3400.00
00956              -4.00     3200.00
00957              -2.00     3200.00
00958              -2.00     3000.00
00959              -6.00     3200.00
00960              -2.00     3000.00
00961              -2.00     3000.00
00962              -6.00     3000.00
00963              -8.00     2800.00
00964              -2.00     2800.00
00965               0.00     2800.00
00966              -2.00     2600.00
00967              -8.00     2600.00
00968              -6.00     2600.00
00969              -2.00     2400.00
00970               0.00     2600.00
00971               0.00     2400.00
00972              -2.00     2400.00
00973              -8.00     2400.00
00974              -8.00     2200.00
00975              -2.00     2200.00
00976              -2.00     2000.00
00977              -2.00     2000.00
00978              -2.00     2000.00
00979              -6.00     2000.00
00980              -6.00     1800.00
00981              -8.00     1800.00
00982              -6.00     1800.00
00983              -2.00     1600.00
00984              -2.00     1600.00
00985              -6.00     1600.00
00986              -6.00     1600.00
00987              -6.00     1600.00
00988              -8.00     1400.00
00989              -2.00     1200.00
00990              -2.00     1200.00
00991              -2.00     1200.00
00992              -8.00     1200.00
00993              -6.00     1000.00
00994              -2.00     1000.00
00995              -6.00      800.00
00996              -8.00      800.00
00997              -4.00      800.00
00998              -2.00      800.00
00999              -6.00      800.00
01000              -8.00      800.00
01001              -8.00      600.00
01002              -2.00      400.00
01003              -6.00      400.00
01004              -8.00      400.00
01005              -2.00      200.00
01006               0.00      200.00
01007               0.00      200.00
01008               0.00        0.00
01009               2.00      200.00
01010               6.00        0.00
01011              -2.00        0.00
01012              -8.00     -200.00
01013              -4.00        0.00
01014               2.00     -400.00
01015              30.00     -400.00
01016             126.00     -400.00
01017              88.00     -800.00
01018            -254.00     -800.00
01019            -254.00     -600.00
01020             240.00     -400.00
01021             246.00     -800.00
01022             -82.00     -800.00
01023            -254.00     -800.00
01024             112.00     -800.00
01025             246.00    -1200.00
01026            -208.00    -1000.00
01027            -254.00    -1000.00
01028             202.00    -1200.00
01029             242.00    -1000.00
01030            -134.00    -1400.00
01031             -60.00    -1400.00
01032             -46.00    -1600.00
01033             -66.00    -1400.00
01034             178.00    -1600.00
01035             102.00    -1600.00
01036            -226.00    -1600.00
01037             -62.00    -2000.00
01038             160.00    -2000.00
01039              16.00    -2000.00
01040             -38.00    -2000.00
01041             -62.00    -2200.00
01042             -32.00    -2000.00
01043             110.00    -2200.00
01044              38.00    -2400.00
01045            -146.00    -2200.00
01046               0.00    -2400.00
01047             104.00    -2400.00
01048             -24.00    -2400.00
01049             -42.00    -2600.00
01050              -2.00    -2600.00
01051               4.00    -2600.00
01052              16.00    -2600.00
01053               2.00    -2800.00
01054             -42.00    -2800.00
01055               0.00    -2800.00
01056              30.00    -2800.00
01057              -2.00    -3000.00
01058             -26.00    -3000.00
01059             -14.00    -3000.00
01060               6.00    -3000.00
01061              18.00    -3200.00
01062              -4.00    -3000.00
01063             -26.00    -3200.00
01064               2.00    -3200.00
01065              22.00    -3400.00
01066             -14.00    -3200.00
01067             -24.00    -3400.00
01068              10.00    -3400.00
01069              14.00    -3400.00
01070              -6.00    -3400.00
01071              -4.00    -3600.00
01072              -6.00    -3600.00
01073              -4.00    -3600.00
01074               0.00    -3600.00
01075               0.00    -3600.00
01076              -2.00    -3600.00
01077              -2.00    -3600.00
01078              -2.00    -3600.00
01079               0.00    -3600.00
01080              -8.00    -3600.00
01081              -8.00    -3800.00
01082               8.00    -3800.00
01083              14.00    -3600.00
01084              -2.00    -4000.00
01085              -8.00    -3800.00
01086              -2.00    -3800.00
01087              -6.00    -3800.00
01088               0.00    -3800.00
01089               6.00    -3800.00
01090               6.00    -3800.00
01091               0.00    -3800.00
01092              -8.00    -4000.00
01093              -6.00    -3800.00
01094               4.00    -3800.00
01095               0.00    -4000.00
01096               2.00    -4000.00
01097               2.00    -4000.00
01098              -8.00    -4000.00
01099              -6.00    -4000.00
01100               0.00    -3800.00
01101               2.00    -3800.00
01102               0.00    -3800.00
01103              -2.00    -4000.00
01104               0.00    -4000.00
01105               0.00    -4000.00
01106              -2.00    -4000.00
01107              -2.00    -4000.00
01108              -2.00    -4000.00
01109              -2.00    -3800.00
01110               0.00    -4000.00
01111               2.00    -4000.00
01112              -2.00    -3800.00
01113              -6.00    -3800.00
01114              -2.00    -4000.00
01115               0.00    -3800.00
01116               0.00    -3800.00
01117               0.00    -3800.00
01118              -4.00    -3800.00
01119              -6.00    -3800.00
01120              -6.00    -3800.00
01121               0.00    -3600.00
01122               2.00    -3800.00
01123               0.00    -3600.00
01124              -2.00    -3600.00
01125              -2.00    -3800.00
01126              -8.00    -3600.00
01127              -2.00    -3600.00
01128              -2.00    -3600.00
01129               0.00    -3600.00
01130               0.00    -3600.00
01131               0.00    -3600.00
01132              -6.00    -3600.00
01133              -2.00    -3600.00
01134              -2.00    -3600.00
01135               0.00    -3400.00
01136               0.00    -3200.00
01137               0.00    -3200.00
01138              -6.00    -3200.00
01139               0.00    -3200.00
01140              -2.00    -3000.00
01141              -2.00    -3200.00
01142               0.00    -3000.00
01143               0.00    -3200.00
01144              -2.00    -3000.00
01145              -2.00    -3000.00
01146              -2.00    -3000.00
01147               0.00    -2800.00
01148              -2.00    -2800.00
01149               0.00    -2800.00
01150               2.00    -2800.00
01151               0.00    -2800.00
01152              -2.00    -2600.00
01153               0.00    -2400.00
01154               0.00    -2400.00
01155              -2.00    -2400.00
01156               0.00    -2400.00
01157               0.00    -2400.00
01158              -2.00    -2400.00
01159               0.00    -2200.00
01160               0.00    -2200.00
01161               0.00    -2200.00
01162               0.00    -2000.00
01163              -2.00    -2000.00
01164              -2.00    -2000.00
01165              -2.00    -2000.00
01166              -6.00    -1800.00
01167              -2.00    -1600.00
01168               2.00    -1600.00
01169               0.00    -1600.00
01170              -2.00    -1600.00
01171              -4.00    -1600.00
01172              -4.00    -1400.00
01173               0.00    -1400.00
01174               0.00    -1400.00
01175              -2.00    -1200.00
01176               0.00    -1200.00
01177              -2.00    -1000.00
01178              -4.00    -1200.00
01179              -6.00    -1000.00
01180             -10.00     -800.00
01181              -2.00     -800.00
01182               2.00     -800.00
01183               0.00     -800.00
01184              -6.00     -600.00
01185              -8.00     -600.00
01186              -6.00     -600.00
01187              -2.00     -600.00
01188              -2.00     -400.00
01189              -2.00     -400.00
01190               0.00     -400.00
01191              -2.00     -200.00
01192             -10.00        0.00
01193              -8.00        0.00
01194               0.00        0.00
01195               0.00        0.00
01196              -6.00        0.00
01197              -2.00      200.00
01198               0.00      200.00
01199               0.00      200.00
01200               0.00      400.00
01201               6.00      400.00
01202               2.00      400.00
01203              -6.00      400.00
01204              -8.00      400.00
01205               0.00      600.00
01206              18.00      800.00
01207             130.00      800.00
01208             128.00     1000.00
01209            -254.00      800.00
01210            -254.00      800.00
01211             246.00     1200.00
01212             246.00     1400.00
01213            -116.00     1000.00
01214            -254.00     1000.00
01215             170.00     1600.00
01216             246.00     1600.00
01217            -254.00     1200.00
01218            -254.00     1600.00
01219             246.00     1800.00
01220             232.00     1600.00
01221            -254.00     1400.00
01222             -16.00     2000.00
01223             168.00     1800.00
01224            -118.00     1800.00
01225              50.00     2000.00
01226             106.00     2000.00
01227            -194.00     1800.00
01228              30.00     2400.00
01229             110.00     2200.00
01230            -102.00     2200.00
01231              48.00     2400.00
01232              22.00     2400.00
01233            -158.00     2600.00
01234             136.00     2800.00
01235              82.00     2400.00
01236            -226.00     2600.00
01237              62.00     2800.00
01238             136.00     2800.00
01239            -136.00     2600.00
01240              14.00     2800.00
01241              42.00     2800.00
01242             -72.00     2800.00
01243              50.00     3200.00
01244               0.00     2800.00
01245             -62.00     3200.00
01246              54.00     3400.00
01247             -22.00     3200.00
01248             -30.00     3400.00
01249              56.00     3400.00
01250             -48.00     3200.00
01251             -26.00     3400.00
01252              46.00     3400.00
01253             -30.00     3400.00
01254             -18.00     3400.00
01255              24.00     3600.00
01256             -10.00     3400.00
01257             -14.00     3600.00
01258             -14.00     3800.00
01259              -2.00     3600.00
01260              16.00     3600.00
01261             -16.00     4000.00
01262             -16.00     3800.00
01263              10.00     4000.00
01264             -14.00     3800.00
01265             -14.00     4000.00
01266              10.00     4000.00
01267               0.00     4000.00
01268             -16.00     4000.00
01269               6.00     4000.00
01270               0.00     4000.00
01271             -16.00     4000.00
01272             -10.00     4000.00
01273               2.00     4000.00
01274               6.00     4200.00
01275              -2.00     4200.00
01276             -16.00     4200.00
01277              -2.00     4400.00
01278              -2.00     4200.00
01279             -14.00     4200.00
01280               2.00     4400.00
01281               8.00     4400.00
01282             -10.00     4200.00
01283              -8.00     4400.00
01284              -2.00     4200.00
01285              -6.00     4200.00
01286              -4.00     4200.00
01287               0.00     4400.00
01288               0.00     4400.00
01289              -8.00     4400.00
01290             -10.00     4400.00
01291              -4.00     4400.00
01292               2.00     4400.00
01293              -2.00     4200.00
01294              -2.00     4400.00
01295              -2.00     4400.00
01296              -8.00     4200.00
01297              -8.00     4200.00
01298              -2.00     4400.00
01299              -4.00     4400.00
01300              -2.00     4200.00
01301               0.00     4400.00
01302              -2.00     4200.00
01303              -8.00     4200.00
01304             -10.00     4200.00
01305              -8.00     4400.00
01306               0.00     4200.00
01307              -2.00     4200.00
01308              -2.00     4200.00
01309              -2.00     4200.00
01310             -10.00     4200.00
01311             -10.00     4000.00
01312              -2.00     4200.00
01313               0.00     4000.00
01314              -2.00     4000.00
01315              -4.00     4000.00
01316              -8.00     4000.00
01317             -10.00     4000.00
01318             -10.00     4000.00
01319              -6.00     4000.00
01320               0.00     4000.00
01321              -2.00     4000.00
01322              -8.00     3800.00
01323              -8.00     3800.00
01324              -8.00     3800.00
01325              -8.00     3600.00
01326              -2.00     3600.00
01327               0.00     3600.00
01328              -6.00     3600.00
01329              -8.00     3600.00
01330              -8.00     3600.00
01331              -6.00     3400.00
01332              -6.00     3400.00
01333              -2.00     3600.00
01334              -2.00     3400.00
01335              -8.00     3400.00
01336             -10.00     3600.00
01337              -6.00     3400.00
01338              -6.00     3200.00
01339              -2.00     3400.00
01340              -2.00     3200.00
01341              -2.00     3200.00
01342              -6.00     3200.00
01343              -6.00     3000.00
01344              -6.00     3000.00
01345              -2.00     2800.00
01346              -6.00     2800.00
01347              -6.00     2800.00
01348              -4.00     2800.00
01349              -2.00     2600.00
01350              -8.00     2600.00
01351              -2.00     2800.00
01352              -2.00     2600.00
01353              -4.00     2400.00
01354              -4.00     2400.00
01355              -2.00     2400.00
01356              -2.00     2400.00
01357              -4.00     2400.00
01358              -8.00     2200.00
01359              -2.00     2200.00
01360              -2.00     2000.00
01361               0.00     2000.00
01362              -2.00     2000.00
01363              -4.00     2000.00
01364              -8.00     1800.00
01365              -8.00     1800.00
01366              -2.00     1600.00
01367              -2.00     1600.00
01368              -2.00     1600.00
01369              -6.00     1600.00
01370              -8.00     1200.00
01371              -8.00     1400.00
01372              -6.00     1200.00
01373              -2.00     1200.00
01374              -2.00     1000.00
01375              -6.00     1200.00
01376              -8.00     1000.00
01377              -6.00      800.00
01378              -8.00     1000.00
01379              -6.00      800.00
01380              -2.00      800.00
01381              -2.00      800.00
01382              -2.00      600.00
01383              -8.00      400.00
01384              -6.00      600.00
01385              -2.00      400.00
01386              -2.00      400.00
01387              -8.00      400.00
01388              -6.00      200.00
01389               0.00      200.00
01390               0.00        0.00
01391               0.00      200.00
01392               2.00        0.00
01393               6.00        0.00
01394              -2.00        0.00
01395             -10.00     -200.00
01396              -6.00     -200.00
01397               4.00     -200.00
01398              24.00     -400.00
01399             122.00     -400.00
01400             102.00     -600.00
01401            -250.00     -600.00
01402            -254.00     -600.00
01403             186.00     -400.00
01404             246.00     -800.00
01405               6.00    -1000.00
01406            -254.00     -800.00
01407              38.00     -800.00
01408             246.00    -1200.00
01409            -144.00    -1000.00
01410            -254.00    -1000.00
01411             158.00    -1400.00
01412             246.00    -1400.00
01413            -120.00    -1200.00
01414             -72.00    -1400.00
01415             -38.00    -1600.00
01416             -74.00    -1400.00
01417             166.00    -1800.00
01418             128.00    -1600.00
01419            -218.00    -1600.00
01420             -90.00    -2000.00
01421             152.00    -2000.00
01422              30.00    -2000.00
01423             -32.00    -2000.00
01424             -50.00    -2000.00
01425             -32.00    -2000.00
01426              94.00    -2200.00
01427              48.00    -2400.00
01428            -148.00    -2200.00
01429              -6.00    -2400.00
01430             118.00    -2400.00
01431             -10.00    -2400.00
01432             -50.00    -2400.00
01433              -8.00    -2400.00
01434               6.00    -2600.00
01435              24.00    -2600.00
01436              14.00    -2800.00
01437             -42.00    -2800.00
01438              -8.00    -2800.00
01439              26.00    -2800.00
01440               6.00    -2800.00
01441             -22.00    -3000.00
01442             -14.00    -3000.00
01443               0.00    -3000.00
01444              14.00    -3200.00
01445               0.00    -3200.00
01446             -24.00    -3000.00
01447               2.00    -3200.00
01448              16.00    -3200.00
01449             -14.00    -3200.00
01450             -24.00    -3200.00
01451              14.00    -3400.00
01452              14.00    -3200.00
01453              -6.00    -3400.00
01454              -8.00    -3400.00
01455             -10.00    -3600.00
01456              -6.00    -3600.00
01457               6.00    -3600.00
01458               6.00    -3600.00
01459              -2.00    -3600.00
01460              -8.00    -3600.00
01461              -4.00    -3800.00
01462               2.00    -3600.00
01463              -2.00    -3800.00
01464              -8.00    -3600.00
01465               6.00    -3800.00
01466               4.00    -3800.00
01467             -10.00    -3800.00
01468              -8.00    -3800.00
01469               0.00    -3800.00
01470               4.00    -3800.00
01471               0.00    -3800.00
01472               0.00    -3800.00
01473               0.00    -4000.00
01474              -2.00    -4000.00
01475              -8.00    -3800.00
01476               0.00    -3800.00
01477               2.00    -3800.00
01478               0.00    -3800.00
01479              -2.00    -4000.00
01480               2.00    -3800.00
01481              -2.00    -4000.00
01482              -6.00    -4000.00
01483               0.00    -3800.00
01484               2.00    -3800.00
01485               0.00    -3800.00
01486              -2.00    -4200.00
01487               0.00    -3800.00
01488              -2.00    -4000.00
01489              -2.00    -3800.00
01490              -2.00    -4000.00
01491               2.00    -4000.00
01492               8.00    -3800.00
01493               0.00    -4000.00
01494              -6.00    -4000.00
01495              -2.00    -4000.00
01496              -4.00    -3800.00
01497               2.00    -4000.00
01498               8.00    -3800.00
01499               0.00    -3800.00
01500              -6.00    -3800.00
01501              -4.00    -4000.00
01502              -6.00    -3600.00
01503               2.00    -3800.00
01504               2.00    -3800.00
01505              -6.00    -3800.00
01506               0.00    -3600.00
01507              -2.00    -3600.00
01508             -10.00    -3600.00
01509               2.00    -3600.00
01510               6.00    -3800.00
01511              -2.00    -3600.00
01512               2.00    -3600.00
01513              -8.00    -3600.00
01514              -8.00    -3400.00
01515               0.00    -3400.00
01516               4.00    -3400.00
01517               2.00    -3400.00
01518               0.00    -3200.00
01519             -16.00    -3400.00
01520             -14.00    -3400.00
01521               2.00    -3200.00
01522               8.00    -3200.00
01523               8.00    -3200.00
01524              -6.00    -3000.00
01525             -10.00    -3200.00
01526              -6.00    -3000.00
01527               0.00    -3000.00
01528               0.00    -3000.00
01529               0.00    -2800.00
01530              -6.00    -2800.00
01531             -14.00    -2800.00
01532              -6.00    -2800.00
01533               8.00    -2800.00
01534              10.00    -2600.00
01535               2.00    -2600.00
01536             -14.00    -2600.00
01537             -16.00    -2600.00
01538              -2.00    -2400.00
01539               8.00    -2400.00
01540              -2.00    -2400.00
01541              -4.00    -2200.00
01542              -2.00    -2400.00
01543               0.00    -2200.00
01544               6.00    -2200.00
01545               0.00    -2000.00
01546              -2.00    -2000.00
01547              -2.00    -2000.00
01548              -6.00    -2000.00
01549             -12.00    -2000.00
01550              -2.00    -1800.00
01551               6.00    -1800.00
01552               8.00    -1600.00
01553               0.00    -1600.00
01554             -10.00    -1600.00
01555              -8.00    -1400.00
01556              -4.00    -1400.00
01557               0.00    -1200.00
01558               2.00    -1400.00
01559               6.00    -1000.00
01560              -6.00    -1200.00
01561             -12.00    -1000.00
01562              -6.00    -1000.00
01563               0.00    -1000.00
01564               8.00    -1000.00
01565               6.00     -800.00
01566             -10.00     -800.00
01567             -12.00     -600.00
01568              -6.00     -600.00
01569               0.00     -600.00
01570               0.00     -600.00
01571               0.00     -400.00
01572              -8.00     -400.00
01573              -4.00     -400.00
01574               2.00        0.00
01575              -6.00     -200.00
01576             -10.00        0.00
01577              -2.00        0.00
01578              -6.00        0.00
01579              -6.00        0.00
01580              -2.00      200.00
01581              -2.00      200.00
01582               2.00      400.00
01583               6.00      400.00
01584               0.00      400.00
01585               0.00      400.00
01586              -6.00      600.00
01587              -2.00      600.00
01588               6.00      600.00
01589               8.00      800.00
01590             106.00      800.00
01591             144.00     1000.00
01592            -248.00     1000.00
01593            -254.00      800.00
01594             206.00     1200.00
01595             246.00     1400.00
01596             -26.00     1200.00
01597            -254.00      800.00
01598              94.00     1600.00
01599             246.00     1600.00
01600            -254.00     1400.00
01601            -254.00     1600.00
01602             246.00     1800.00
01603             246.00     1600.00
01604            -254.00     1400.00
01605             -52.00     2000.00
01606             186.00     1800.00
01607            -120.00     1600.00
01608              28.00     2000.00
01609             128.00     2000.00
01610            -186.00     2000.00
01611              10.00     2000.00
01612             118.00     2400.00
01613            -104.00     2200.00
01614              38.00     2400.00
01615              48.00     2400.00
01616            -162.00     2400.00
01617             112.00     2600.00
01618             106.00     2800.00
01619            -224.00     2600.00
01620              44.00     2800.00
01621             156.00     2800.00
01622            -132.00     2600.00
01623              -8.00     3000.00
01624              54.00     2800.00
01625             -72.00     2800.00
01626              50.00     3200.00
01627              16.00     3200.00
01628             -74.00     3000.00
01629              44.00     3200.00
01630             -16.00     3200.00
01631             -26.00     3200.00
01632              64.00     3400.00
01633             -38.00     3200.00
01634             -38.00     3400.00
01635              40.00     3600.00
01636             -26.00     3600.00
01637             -18.00     3400.00
01638              30.00     3600.00
01639              -8.00     3400.00
01640             -16.00     3400.00
01641             -16.00     3800.00
01642              -8.00     3600.00
01643              18.00     3600.00
01644             -10.00     3800.00
01645             -14.00     3600.00
01646               8.00     4000.00
01647             -14.00     4000.00
01648             -20.00     4000.00
01649               6.00     4000.00
01650               6.00     4000.00
01651             -14.00     3800.00
01652               0.00     4000.00
01653               0.00     4000.00
01654             -18.00     4000.00
01655             -10.00     4000.00
01656               6.00     4200.00
01657               2.00     4200.00
01658              -6.00     4200.00
01659             -16.00     4200.00
01660              -6.00     4200.00
01661               0.00     4200.00
01662             -14.00     4000.00
01663               0.00     4200.00
01664               8.00     4400.00
01665             -10.00     4200.00
01666             -10.00     4200.00
01667              -2.00     4200.00
01668              -6.00     4200.00
01669              -2.00     4200.00
01670              -2.00     4200.00
01671              -2.00     4200.00
01672             -10.00     4400.00
01673             -10.00     4200.00
01674              -6.00     4200.00
01675               6.00     4400.00
01676              -4.00     4200.00
01677              -6.00     4200.00
01678              -2.00     4200.00
01679              -8.00     4400.00
01680             -10.00     4400.00
01681              -4.00     4400.00
01682               0.00     4200.00
01683              -6.00     4200.00
01684               0.00     4400.00
01685              -6.00     4200.00
01686              -8.00     4200.00
01687              -6.00     4200.00
01688              -2.00     4200.00
01689              -2.00     4200.00
01690              -2.00     4200.00
01691              -6.00     4200.00
01692              -2.00     4200.00
01693              -6.00     4200.00
01694              -8.00     4200.00
01695              -2.00     4200.00
01696              -2.00     4000.00
01697              -4.00     4000.00
01698              -4.00     4400.00
01699              -2.00     4000.00
01700              -8.00     4000.00
01701             -10.00     4000.00
01702              -6.00     4000.00
01703              -2.00     4000.00
01704               0.00     3800.00
01705              -8.00     3800.00
01706              -8.00     3800.00
01707              -8.00     4000.00
01708              -8.00     3800.00
01709              -2.00     3800.00
01710               0.00     3800.00
01711              -8.00     3600.00
01712             -10.00     3600.00
01713              -8.00     3400.00
01714             -10.00     3600.00
01715              -6.00     3400.00
01716              -2.00     3400.00
01717              -2.00     3400.00
01718              -6.00     3200.00
01719             -10.00     3400.00
01720             -10.00     3200.00
01721              -6.00     3200.00
01722              -2.00     3200.00
01723              -2.00     3200.00
01724              -2.00     3200.00
01725              -8.00     3000.00
01726             -10.00     3200.00
01727              -6.00     2800.00
01728              -2.00     3000.00
01729              -2.00     2800.00
01730              -6.00     2800.00
01731              -6.00     2800.00
01732              -6.00     2600.00
01733              -8.00     2600.00
01734              -2.00     2600.00
01735              -2.00     2600.00
01736              -2.00     2400.00
01737              -6.00     2400.00
01738              -6.00     2400.00
01739              -6.00     2200.00
01740              -2.00     2400.00
01741              -6.00     2200.00
01742               0.00     2200.00
01743              -2.00     2000.00
01744              -2.00     2000.00
01745              -6.00     2000.00
01746              -2.00     2000.00
01747              -6.00     2000.00
01748              -6.00     1800.00
01749               0.00     1600.00
01750              -2.00     1600.00
01751              -2.00     1600.00
01752              -2.00     1600.00
01753              -6.00     1600.00
01754              -6.00     1200.00
01755              -2.00     1400.00
01756               0.00     1200.00
01757              -2.00     1200.00
01758              -2.00     1200.00
01759              -6.00     1000.00
01760              -2.00     1200.00
01761              -2.00      800.00
01762              -6.00      800.00
01763              -2.00      800.00
01764              -2.00      800.00
01765              -6.00      800.00
01766              -6.00      400.00
01767              -6.00      800.00
01768              -2.00      400.00
01769              -2.00      400.00
01770              -6.00      400.00
01771              -6.00      200.00
01772               0.00      200.00
01773              -2.00      200.00
01774               0.00      200.00
01775               2.00        0.00
01776               6.00     -200.00
01777              -2.00        0.00
01778              -8.00        0.00
01779              -6.00     -200.00
01780               2.00     -400.00
01781              24.00     -400.00
01782             112.00     -400.00
01783             114.00     -800.00
01784            -216.00     -800.00
01785            -254.00     -600.00
01786             128.00     -400.00
01787             246.00     -800.00
01788              94.00    -1000.00
01789            -254.00     -800.00
01790             -38.00     -800.00
01791             246.00    -1200.00
01792             -72.00    -1200.00
01793            -254.00    -1200.00
01794             110.00    -1400.00
01795             246.00    -1400.00
01796            -108.00    -1400.00
01797             -80.00    -1400.00
01798             -32.00    -1600.00
01799             -86.00    -1400.00
01800             144.00    -1800.00
01801             156.00    -2000.00
01802            -208.00    -1600.00
01803            -106.00    -2000.00
01804             150.00    -2000.00
01805              44.00    -2000.00
01806             -36.00    -2000.00
01807             -56.00    -2200.00
01808             -42.00    -2000.00
01809              90.00    -2000.00
01810              70.00    -2200.00
01811            -144.00    -2200.00
01812             -26.00    -2200.00
01813             112.00    -2400.00
01814               0.00    -2400.00
01815             -50.00    -2600.00
01816              -8.00    -2600.00
01817               4.00    -2600.00
01818              22.00    -2600.00
01819              14.00    -2800.00
01820             -42.00    -2800.00
01821              -8.00    -2800.00
01822              30.00    -2800.00
01823              12.00    -2800.00
01824             -22.00    -2800.00
01825             -10.00    -3000.00
01826               0.00    -3000.00
01827              14.00    -3200.00
01828               0.00    -3200.00
01829             -22.00    -3000.00
01830               0.00    -3200.00
01831              24.00    -3200.00
01832             -10.00    -3200.00
01833             -26.00    -3200.00
01834               6.00    -3200.00
01835              14.00    -3200.00
01836              -2.00    -3600.00
01837              -4.00    -3400.00
01838             -10.00    -3600.00
01839              -6.00    -3600.00
01840               2.00    -3600.00
01841               6.00    -3600.00
01842               0.00    -3600.00
01843              -6.00    -3600.00
01844              -6.00    -3600.00
01845              -2.00    -3600.00
01846              -4.00    -3800.00
01847              -6.00    -3800.00
01848               4.00    -3800.00
01849               8.00    -3800.00
01850              -8.00    -3800.00
01851              -6.00    -4000.00
01852               0.00    -3800.00
01853              -2.00    -4000.00
01854               0.00    -3800.00
01855               0.00    -3800.00
01856               2.00    -4000.00
01857               0.00    -3800.00
01858              -8.00    -4000.00
01859              -8.00    -3800.00
01860               0.00    -4000.00
01861              -2.00    -4000.00
01862               2.00    -4000.00
01863               4.00    -3800.00
01864              -2.00    -4000.00
01865             -10.00    -4000.00
01866               0.00    -3800.00
01867               2.00    -3800.00
01868               0.00    -4000.00
01869               0.00    -4000.00
01870               0.00    -4000.00
01871              -2.00    -4000.00
01872              -2.00    -4000.00
01873               0.00    -4000.00
01874               0.00    -3800.00
01875               0.00    -4000.00
01876               0.00    -4000.00
01877               0.00    -3800.00
01878              -2.00    -3800.00
01879              -4.00    -3800.00
01880              -2.00    -3800.00
01881               0.00    -3800.00
01882               0.00    -3800.00
01883               0.00    -4000.00
01884              -2.00    -3800.00
01885              -2.00    -3800.00
01886              -2.00    -3800.00
01887               0.00    -3600.00
01888               0.00    -3600.00
01889               0.00    -3600.00
01890              -2.00    -3800.00
01891              -2.00    -3600.00
01892              -6.00    -3600.00
01893              -2.00    -3600.00
01894              -2.00    -3600.00
01895               0.00    -3600.00
01896              -2.00    -3600.00
01897              -2.00    -3600.00
01898              -2.00    -3400.00
01899              -2.00    -3600.00
01900              -6.00    -3400.00
01901               0.00    -3400.00
01902               0.00    -3200.00
01903               0.00    -3200.00
01904              -2.00    -3200.00
01905              -2.00    -3200.00
01906              -2.00    -3000.00
01907              -2.00    -3000.00
01908               0.00    -3200.00
01909               0.00    -3000.00
01910              -2.00    -3000.00
01911              -6.00    -3000.00
01912              -6.00    -2800.00
01913              -2.00    -3000.00
01914              -2.00    -2800.00
01915              -2.00    -3000.00
01916               0.00    -2800.00
01917              -6.00    -2800.00
01918              -4.00    -2600.00
01919              -6.00    -2800.00
01920               0.00    -2600.00
01921              -2.00    -2400.00
01922               0.00    -2400.00
01923               0.00    -2400.00
01924              -2.00    -2200.00
01925              -8.00    -2200.00
01926              -2.00    -2200.00
01927               0.00    -2200.00
01928              -2.00    -2000.00
01929              -2.00    -2000.00
01930               0.00    -2000.00
01931              -2.00    -2000.00
01932              -8.00    -2000.00
01933              -4.00    -1600.00
01934               0.00    -1800.00
01935               0.00    -1600.00
01936              -2.00    -1400.00
01937              -2.00    -1600.00
01938              -2.00    -1400.00
01939              -2.00    -1400.00
01940               0.00    -1200.00
01941              -2.00    -1000.00
01942              -6.00    -1200.00
01943              -2.00    -1200.00
01944               2.00    -1000.00
01945               0.00    -1200.00
01946              -6.00     -800.00
01947             -10.00     -800.00
01948              -4.00     -800.00
01949               6.00     -800.00
01950               0.00     -600.00
01951              -2.00     -600.00
01952              -2.00     -600.00
01953              -6.00     -400.00
01954              -2.00     -400.00
01955               0.00     -200.00
01956               4.00     -400.00
01957               0.00     -400.00
01958              -8.00     -200.00
01959             -10.00        0.00
01960               2.00        0.00
01961               2.00      200.00
01962              -2.00      200.00
01963              -8.00      200.00
01964             -10.00      200.00
01965              -6.00      200.00
01966               6.00      400.00
01967              18.00      400.00
01968              14.00      400.00
01969              -8.00      400.00
01970             -20.00      400.00
01971             -10.00      800.00
01972              16.00      800.00
01973             118.00      800.00
01974             162.00     1200.00
01975            -214.00      800.00
01976            -254.00      800.00
01977             136.00     1000.00
01978             246.00     1200.00
01979              86.00     1200.00
01980            -254.00     1000.00
01981               2.00     1400.00
01982             246.00     1600.00
01983            -176.00     1200.00
01984            -254.00     1200.00
01985             246.00     1800.00
01986             246.00     1600.00
01987            -254.00     1600.00
01988             -98.00     2000.00
01989             200.00     1800.00
01990            -106.00     1800.00
01991               8.00     1800.00
01992             138.00     2000.00
01993            -176.00     2000.00
01994             -16.00     2400.00
01995             130.00     2200.00
01996             -90.00     2200.00
01997              16.00     2200.00
01998              58.00     2400.00
01999            -162.00     2400.00
02000              86.00     2800.00
02001             136.00     2600.00
02002            -216.00     2600.00
02003              10.00     2800.00
02004             168.00     2800.00
02005            -118.00     2600.00
02006             -24.00     3000.00
02007              62.00     3000.00
02008             -72.00     2800.00
02009              38.00     3200.00
02010              26.00     3000.00
02011             -74.00     3200.00
02012              40.00     3200.00
02013              -8.00     3200.00
02014             -42.00     3200.00
02015              58.00     3400.00
02016             -30.00     3200.00
02017             -38.00     3400.00
02018              48.00     3400.00
02019             -16.00     3400.00
02020             -26.00     3400.00
02021              26.00     3600.00
02022              -8.00     3400.00
02023             -14.00     3600.00
02024             -14.00     3800.00
02025              -6.00     3600.00
02026              18.00     3800.00
02027             -10.00     3600.00
02028             -24.00     3600.00
02029              10.00     3800.00
02030             -10.00     3800.00
02031             -18.00     3800.00
02032               8.00     4000.00
02033               2.00     4000.00
02034             -20.00     4000.00
02035              -4.00     4000.00
02036               0.00     4000.00
02037             -14.00     4000.00
02038             -10.00     4200.00
02039               0.00     4000.00
02040               0.00     4000.00
02041              -6.00     4200.00
02042             -18.00     4200.00
02043              -2.00     4200.00
02044               0.00     4200.00
02045             -16.00     4200.00
02046              -4.00     4200.00
02047               6.00     4200.00
02048             -10.00     4200.00
02049             -10.00     4200.00
02050              -6.00     4200.00
02051              -6.00     4000.00
02052              -6.00     4400.00
02053              -2.00     4400.00
02054              -2.00     4400.00
02055              -4.00     4400.00
02056             -12.00     4400.00
02057             -10.00     4200.00
02058              -2.00     4200.00
02059              -6.00     4200.00
02060              -6.00     4400.00
02061               0.00     4400.00
02062              -6.00     4400.00
02063             -10.00     4200.00
02064              -8.00     4400.00
02065              -6.00     4400.00
02066              -2.00     4400.00
02067               0.00     4400.00
02068              -4.00     4200.00
02069              -8.00     4200.00
02070              -8.00     4200.00
02071              -6.00     4200.00
02072              -2.00     4200.00
02073              -2.00     4200.00
02074              -2.00     4200.00
02075              -2.00     4200.00
02076              -8.00     4200.00
02077              -8.00     4200.00
02078              -2.00     4200.00
02079               0.00     4200.00
02080              -4.00     4000.00
02081              -6.00     4200.00
02082              -2.00     4000.00
02083              -8.00     4000.00
02084              -8.00     4000.00
02085              -6.00     4000.00
02086              -2.00     4000.00
02087              -2.00     3800.00
02088              -6.00     4000.00
02089              -6.00     3800.00
02090              -8.00     4000.00
02091              -8.00     4000.00
02092              -4.00     3600.00
02093              -2.00     3600.00
02094              -6.00     3600.00
02095             -10.00     3600.00
02096              -6.00     3600.00
02097              -8.00     3600.00
02098              -6.00     3400.00
02099              -6.00     3400.00
02100              -2.00     3400.00
02101              -6.00     3400.00
02102              -8.00     3400.00
02103              -6.00     3400.00
02104              -2.00     3200.00
02105              -8.00     3200.00
02106              -4.00     3200.00
02107              -2.00     3200.00
02108              -8.00     3200.00
02109              -8.00     3200.00
02110              -6.00     3000.00
02111              -6.00     3000.00
02112              -8.00     2800.00
02113              -6.00     2800.00
02114              -6.00     2800.00
02115              -8.00     2800.00
02116              -8.00     2600.00
02117              -6.00     2600.00
02118              -2.00     2600.00
02119              -6.00     2600.00
02120              -8.00     2400.00
02121              -2.00     2400.00
02122              -2.00     2400.00
02123              -4.00     2200.00
02124              -8.00     2200.00
02125              -6.00     2000.00
02126              -4.00     2000.00
02127              -2.00     2000.00
02128               0.00     2000.00
02129              -2.00     2000.00
02130              -6.00     1800.00
02131              -6.00     1800.00
02132              -2.00     1800.00
02133              -2.00     1800.00
02134              -6.00     1600.00
02135              -4.00     1600.00
02136              -2.00     1600.00
02137              -6.00     1200.00
02138              -6.00     1200.00
02139              -2.00     1200.00
02140              -2.00     1200.00
02141              -2.00     1200.00
02142              -6.00     1000.00
02143              -2.00     1000.00
02144              -2.00     1200.00
02145              -4.00      800.00
02146              -2.00      800.00
02147              -2.00      800.00
02148              -2.00      600.00
02149              -6.00      800.00
02150              -4.00      800.00
02151               0.00      400.00
02152              -2.00      400.00
02153              -6.00      200.00
02154              -6.00      400.00
02155               0.00      200.00
02156               2.00      200.00
02157              -2.00      200.00
02158               2.00        0.00
02159               6.00        0.00
02160              -2.00        0.00
02161             -10.00     -400.00
02162              -6.00        0.00
02163               0.00     -200.00
02164              22.00     -400.00
02165             104.00     -400.00
02166             126.00     -600.00
02167            -182.00     -800.00
02168            -254.00     -800.00
02169              70.00     -400.00
02170             246.00     -600.00
02171             178.00     -800.00
02172            -254.00     -800.00
02173            -110.00     -800.00
02174             246.00    -1200.00
02175               4.00    -1000.00
02176            -254.00    -1000.00
02177              60.00    -1200.00
02178             246.00    -1200.00
02179             -90.00    -1200.00
02180             -94.00    -1400.00
02181             -26.00    -1400.00
02182             -90.00    -1400.00
02183             122.00    -1600.00
02184             176.00    -1600.00
02185            -194.00    -1600.00
02186            -128.00    -2000.00
02187             138.00    -2000.00
02188              58.00    -1800.00
02189             -34.00    -2000.00
02190             -54.00    -2200.00
02191             -50.00    -2000.00
02192              74.00    -2000.00
02193              82.00    -2400.00
02194            -128.00    -2400.00
02195             -34.00    -2200.00
02196             106.00    -2400.00
02197               4.00    -2400.00
02198             -62.00    -2600.00
02199             -10.00    -2600.00
02200               8.00    -2600.00
02201              24.00    -2600.00
02202              20.00    -2800.00
02203             -46.00    -2800.00
02204             -18.00    -2800.00
02205              24.00    -2800.00
02206              14.00    -2800.00
02207             -14.00    -3000.00
02208             -10.00    -3000.00
02209               0.00    -3200.00
02210              14.00    -3000.00
02211               0.00    -3200.00
02212             -24.00    -3000.00
02213              -2.00    -3200.00
02214              24.00    -3200.00
02215              -2.00    -3200.00
02216             -24.00    -3200.00
02217               6.00    -3200.00
02218              14.00    -3400.00
02219              -2.00    -3200.00
02220              -6.00    -3600.00
02221              -4.00    -3600.00
02222              -6.00    -3400.00
02223               0.00    -3600.00
02224               2.00    -3600.00
02225              -2.00    -3600.00
02226              -6.00    -3600.00
02227              -2.00    -3800.00
02228               0.00    -3600.00
02229              -2.00    -3800.00
02230              -8.00    -3600.00
02231               2.00    -3800.00
02232               8.00    -3800.00
02233              -6.00    -3800.00
02234             -10.00    -3800.00
02235              -2.00    -3800.00
02236               0.00    -3800.00
02237              -2.00    -3800.00
02238               0.00    -3800.00
02239              -2.00    -3800.00
02240              -2.00    -3800.00
02241              -8.00    -3800.00
02242              -4.00    -3800.00
02243               0.00    -4000.00
02244              -2.00    -3800.00
02245               0.00    -4000.00
02246               2.00    -4000.00
02247              -8.00    -4000.00
02248              -8.00    -3800.00
02249              -2.00    -3800.00
02250               2.00    -4000.00
02251               0.00    -4000.00
02252               0.00    -3800.00
02253              -2.00    -4000.00
02254              -2.00    -4000.00
02255              -2.00    -3800.00
02256               0.00    -3800.00
02257               0.00    -3800.00
02258               0.00    -4000.00
02259              -2.00    -4000.00
02260               0.00    -4000.00
02261               0.00    -4000.00
02262              -2.00    -3800.00
02263               0.00    -4000.00
02264               2.00    -3800.00
02265               0.00    -3800.00
02266               0.00    -3800.00
02267               0.00    -3800.00
02268              -2.00    -3800.00
02269              -4.00    -3800.00
02270              -2.00    -3600.00
02271               0.00    -3600.00
02272               0.00    -3600.00
02273              -2.00    -3600.00
02274               0.00    -3600.00
02275              -2.00    -3600.00
02276              -2.00    -3600.00
02277              -2.00    -3600.00
02278               2.00    -3600.00
02279               0.00    -3400.00
02280               0.00    -3400.00
02281              -4.00    -3600.00
02282              -4.00    -3600.00
02283              -4.00    -3400.00
02284               0.00    -3200.00
02285              -2.00    -3200.00
02286               0.00    -3200.00
02287               0.00    -3200.00
02288               0.00    -3200.00
02289              -6.00    -3200.00
02290              -2.00    -3000.00
02291              -4.00    -3200.00
02292               0.00    -3200.00
02293               2.00    -3000.00
02294              -2.00    -3000.00
02295              -2.00    -3000.00
02296              -6.00    -2800.00
02297              -4.00    -2800.00
02298               0.00    -2800.00
02299               0.00    -2800.00
02300              -2.00    -2800.00
02301              -6.00    -2600.00
02302              -8.00    -2600.00
02303               0.00    -2600.00
02304               0.00    -2600.00
02305              -2.00    -2400.00
02306              -2.00    -2400.00
02307              -2.00    -2400.00
02308              -2.00    -2400.00
02309              -2.00    -2400.00
02310              -2.00    -2200.00
02311              -2.00    -2200.00
02312              -2.00    -2000.00
02313               2.00    -2000.00
02314              -2.00    -2000.00
02315              -6.00    -1800.00
02316              -6.00    -1800.00
02317              -2.00    -1800.00
02318               0.00    -1600.00
02319               0.00    -1600.00
02320               0.00    -1600.00
02321              -2.00    -1400.00
02322              -8.00    -1400.00
02323              -6.00    -1400.00
02324               0.00    -1000.00
02325               0.00    -1200.00
02326               2.00    -1000.00
02327               0.00    -1000.00
02328              -2.00    -1000.00
02329              -2.00    -1200.00
02330              -2.00    -1000.00
02331               0.00     -800.00
02332               0.00     -800.00
02333              -2.00     -600.00
02334              -2.00     -600.00
02335               0.00     -600.00
02336              -2.00     -400.00
02337              -2.00     -600.00
02338              -2.00     -400.00
02339               0.00     -200.00
02340               0.00     -200.00
02341              -2.00     -400.00
02342              -4.00        0.00
02343              -2.00        0.00
02344              -2.00        0.00
02345              -6.00      200.00
02346              -2.00      200.00
02347               2.00      200.00
02348               2.00      200.00
02349               2.00      400.00
02350               6.00      400.00
02351               2.00      400.00
02352              -6.00      400.00
02353             -10.00      400.00
02354               0.00      800.00
02355              14.00      800.00
02356             102.00      800.00
02357             166.00     1000.00
02358            -174.00      800.00
02359            -254.00      800.00
02360              78.00     1200.00
02361             246.00     1200.00
02362             178.00     1200.00
02363            -254.00      800.00
02364             -84.00     1400.00
02365             246.00     1600.00
02366             -80.00     1200.00
02367            -254.00     1400.00
02368             240.00     1800.00
02369             246.00     1800.00
02370            -254.00     1600.00
02371            -136.00     2000.00
02372             208.00     2000.00
02373             -96.00     1800.00
02374             -14.00     2000.00
02375             150.00     2200.00
02376            -158.00     1800.00
02377             -38.00     2000.00
02378             134.00     2400.00
02379             -86.00     2000.00
02380              -2.00     2400.00
02381              76.00     2400.00
02382            -156.00     2200.00
02383              66.00     2800.00
02384             152.00     2600.00
02385            -208.00     2600.00
02386             -26.00     2800.00
02387             182.00     2800.00
02388             -98.00     2600.00
02389             -40.00     2800.00
02390              70.00     3200.00
02391             -70.00     3000.00
02392              24.00     3200.00
02393              38.00     3200.00
02394             -74.00     3000.00
02395              34.00     3200.00
02396               6.00     3200.00
02397             -48.00     3400.00
02398              54.00     3400.00
02399             -22.00     3200.00
02400             -48.00     3200.00
02401              46.00     3400.00
02402             -14.00     3400.00
02403             -30.00     3400.00
02404              24.00     3600.00
02405              -4.00     3600.00
02406             -14.00     3600.00
02407             -14.00     3600.00
02408              -6.00     3600.00
02409              18.00     3600.00
02410              -6.00     3800.00
02411             -24.00     3800.00
02412               8.00     4000.00
02413              -6.00     4000.00
02414             -16.00     4000.00
02415              10.00     4000.00
02416               6.00     4000.00
02417             -18.00     4000.00
02418              -4.00     4000.00
02419               2.00     4000.00
02420             -10.00     4200.00
02421              -8.00     4200.00
02422              -2.00     4200.00
02423               0.00     4200.00
02424              -2.00     4200.00
02425             -16.00     4000.00
02426              -2.00     4000.00
02427               0.00     4200.00
02428             -16.00     4200.00
02429              -2.00     4200.00
02430               8.00     4200.00
02431             -10.00     4200.00
02432             -10.00     4400.00
02433              -4.00     4200.00
02434              -6.00     4200.00
02435              -6.00     4400.00
02436              -2.00     4400.00
02437               0.00     4200.00
02438              -4.00     4400.00
02439             -14.00     4400.00
02440             -10.00     4200.00
02441               0.00     4400.00
02442              -4.00     4400.00
02443              -2.00     4400.00
02444               4.00     4800.00
02445              -8.00     4200.00
02446             -10.00     4200.00
02447             -10.00     4400.00
02448              -2.00     4200.00
02449             -12.00     4400.00
02450             -14.00     4400.00
02451               6.00     4200.00
02452               6.00     4200.00
02453               8.00     4400.00
02454             -10.00     4200.00
02455              -2.00     4400.00
02456             -10.00     4200.00
02457             -16.00     4200.00
02458             -16.00     4400.00
02459              -2.00     4200.00
02460              -2.00     4200.00
02461               6.00     4200.00
02462               2.00     4000.00
02463              -6.00     4200.00
02464               0.00     4000.00
02465              -6.00     4200.00
02466             -10.00     4000.00
02467             -10.00     4000.00
02468              -6.00     4000.00
02469             -10.00     4000.00
02470               2.00     3800.00
02471               0.00     4000.00
02472               0.00     4000.00
02473              -6.00     3800.00
02474             -14.00     4000.00
02475               0.00     3800.00
02476               6.00     3800.00
02477              -6.00     3600.00
02478             -10.00     3600.00
02479             -10.00     3600.00
02480             -10.00     3600.00
02481              -2.00     3400.00
02482               0.00     3400.00
02483               0.00     3400.00
02484               6.00     3400.00
02485              -8.00     3200.00
02486             -14.00     3200.00
02487             -14.00     3400.00
02488             -10.00     3200.00
02489              -2.00     3200.00
02490               2.00     3200.00
02491              -6.00     3200.00
02492              -2.00     3200.00
02493              -2.00     3000.00
02494              -2.00     2800.00
02495              -8.00     2800.00
02496              -6.00     2800.00
02497             -10.00     2800.00
02498             -10.00     2600.00
02499              -8.00     2600.00
02500              -4.00     2600.00
02501               0.00     2600.00
02502               0.00     2600.00
02503              -6.00     2400.00
02504              -6.00     2400.00
02505              -8.00     2400.00
02506             -10.00     2200.00
02507              -6.00     2000.00
02508               0.00     2000.00
02509              -4.00     2000.00
02510              -2.00     2000.00
02511              -6.00     2000.00
02512              -2.00     1800.00
02513              -2.00     1800.00
02514              -2.00     1800.00
02515              -2.00     1800.00
02516              -2.00     1600.00
02517              -8.00     1600.00
02518              -6.00     1600.00
02519              -2.00     1600.00
02520              -6.00     1600.00
02521               0.00     1400.00
02522               0.00     1200.00
02523              -2.00     1200.00
02524              -6.00     1200.00
02525              -4.00     1000.00
02526               0.00     1000.00
02527              -2.00     1000.00
02528              -6.00      800.00
02529              -2.00      800.00
02530               0.00      800.00
02531              -2.00      800.00
02532              -6.00      600.00
02533              -6.00      600.00
02534              -2.00      600.00
02535               0.00      400.00
02536              -6.00      400.00
02537              -8.00      400.00
02538               0.00      200.00
02539               0.00      200.00
02540               2.00      200.00
02541               6.00        0.00
02542               8.00        0.00
02543              -2.00        0.00
02544              -8.00     -200.00
02545              -2.00        0.00
02546               0.00     -200.00
02547              16.00     -400.00
02548              94.00     -400.00
02549             134.00     -600.00
02550            -150.00     -800.00
02551            -254.00     -600.00
02552              14.00     -400.00
02553             246.00     -800.00
02554             246.00    -1000.00
02555            -254.00    -1000.00
02556            -184.00     -800.00
02557             246.00    -1200.00
02558              78.00    -1000.00
02559            -254.00    -1200.00
02560               8.00    -1200.00
02561             246.00    -1400.00
02562             -66.00    -1200.00
02563            -104.00    -1400.00
02564             -24.00    -1600.00
02565             -96.00    -1400.00
02566             102.00    -1600.00
02567             194.00    -1800.00
02568            -178.00    -1600.00
02569            -146.00    -2000.00
02570             126.00    -2000.00
02571              72.00    -2000.00
02572             -34.00    -2000.00
02573             -50.00    -2400.00
02574             -54.00    -2000.00
02575              68.00    -2200.00
02576              94.00    -2400.00
02577            -128.00    -2400.00
02578             -56.00    -2200.00
02579             102.00    -2400.00
02580              22.00    -2400.00
02581             -60.00    -2600.00
02582             -10.00    -2400.00
02583               2.00    -2600.00
02584              16.00    -2600.00
02585              22.00    -2800.00
02586             -38.00    -2800.00
02587             -22.00    -2800.00
02588              24.00    -2800.00
02589              16.00    -2800.00
02590             -16.00    -3000.00
02591             -16.00    -3000.00
02592               0.00    -3000.00
02593              14.00    -3200.00
02594               6.00    -3200.00
02595             -22.00    -3000.00
02596              -6.00    -3200.00
02597              22.00    -3200.00
02598              -2.00    -3200.00
02599             -26.00    -3200.00
02600               2.00    -3200.00
02601              16.00    -3400.00
02602               0.00    -3400.00
02603              -6.00    -3600.00
02604              -6.00    -3600.00
02605              -6.00    -3600.00
02606               4.00    -3600.00
02607               6.00    -3600.00
02608               0.00    -3600.00
02609              -2.00    -3600.00
02610              -2.00    -3800.00
02611               0.00    -3600.00
02612              -2.00    -3600.00
02613             -10.00    -3800.00
02614               0.00    -3800.00
02615               8.00    -3800.00
02616              -6.00    -3800.00
02617             -10.00    -3800.00
02618              -2.00    -3800.00
02619              -2.00    -3800.00
02620              -2.00    -4000.00
02621              -2.00    -4000.00
02622               0.00    -4000.00
02623               0.00    -3800.00
02624              -4.00    -4000.00
02625              -8.00    -4000.00
02626              -2.00    -4000.00
02627               0.00    -3800.00
02628               0.00    -3800.00
02629               4.00    -4000.00
02630              -2.00    -4000.00
02631             -10.00    -4000.00
02632              -6.00    -4000.00
02633               2.00    -3800.00
02634              -2.00    -4000.00
02635               0.00    -4000.00
02636              -2.00    -4000.00
02637              -2.00    -4200.00
02638              -6.00    -4000.00
02639              -4.00    -3800.00
02640               0.00    -4000.00
02641               0.00    -3800.00
02642               0.00    -4000.00
02643               0.00    -4000.00
02644              -2.00    -3800.00
02645              -4.00    -3800.00
02646              -2.00    -3800.00
02647               0.00    -3800.00
02648              -2.00    -4000.00
02649               0.00    -3800.00
02650              -2.00    -3800.00
02651              -2.00    -3800.00
02652              -2.00    -3800.00
02653              -2.00    -3800.00
02654               0.00    -3600.00
02655               2.00    -3600.00
02656               0.00    -3600.00
02657              -2.00    -3800.00
02658              -4.00    -3600.00
02659              -2.00    -3600.00
02660               0.00    -3600.00
02661               2.00    -3600.00
02662               0.00    -3600.00
02663               0.00    -3400.00
02664               0.00    -3400.00
02665              -2.00    -3400.00
02666              -2.00    -3200.00
02667               2.00    -3400.00
02668               2.00    -3200.00
02669               0.00    -3200.00
02670               0.00    -3200.00
02671              -2.00    -3200.00
02672              -2.00    -3000.00
02673               0.00    -3000.00
02674               0.00    -3000.00
02675               2.00    -3000.00
02676               0.00    -3000.00
02677              -4.00    -3000.00
02678              -6.00    -3000.00
02679              -2.00    -2800.00
02680               0.00    -2800.00
02681              -2.00    -2800.00
02682               0.00    -2800.00
02683              -2.00    -2800.00
02684              -6.00    -2800.00
02685              -2.00    -2600.00
02686              -2.00    -2400.00
02687               0.00    -2400.00
02688              -2.00    -2200.00
02689              -2.00    -2600.00
02690              -2.00    -2200.00
02691              -2.00    -2400.00
02692              -2.00    -2200.00
02693              -2.00    -2200.00
02694               0.00    -2200.00
02695              -2.00    -2000.00
02696              -2.00    -2000.00
02697              -2.00    -2000.00
02698              -4.00    -2000.00
02699              -6.00    -2000.00
02700              -2.00    -1600.00
02701              -2.00    -1600.00
02702               0.00    -1600.00
02703              -2.00    -1600.00
02704              -6.00    -1600.00
02705              -6.00    -1400.00
02706              -2.00    -1400.00
02707               0.00    -1200.00
02708               0.00    -1000.00
02709              -2.00    -1000.00
02710               0.00    -1200.00
02711              -2.00    -1200.00
02712              -4.00    -1000.00
02713              -2.00     -800.00
02714              -2.00     -800.00
02715               0.00     -800.00
02716              -2.00     -600.00
02717              -2.00     -600.00
02718              -2.00     -400.00
02719               0.00     -600.00
02720              -2.00     -400.00
02721              -2.00     -400.00
02722               0.00     -400.00
02723               0.00     -200.00
02724              -2.00        0.00
02725              -2.00        0.00
02726               0.00        0.00
02727               0.00        0.00
02728              -4.00      200.00
02729              -2.00      200.00
02730               2.00      200.00
02731               2.00      200.00
02732               2.00      400.00
02733               6.00      200.00
02734               6.00      400.00
02735              -2.00      400.00
02736              -6.00      600.00
02737              -2.00      400.00
02738               8.00      800.00
02739              88.00      800.00
02740             174.00     1000.00
02741            -130.00      800.00
02742            -254.00      800.00
02743              16.00     1000.00
02744             246.00     1400.00
02745             246.00     1200.00
02746            -254.00      800.00
02747            -162.00     1200.00
02748             246.00     1600.00
02749              12.00     1400.00
02750            -254.00     1200.00
02751             176.00     1800.00
02752             246.00     1600.00
02753            -254.00     1400.00
02754            -176.00     1800.00
02755             208.00     1800.00
02756             -80.00     1600.00
02757             -34.00     1800.00
02758             158.00     2000.00
02759            -138.00     1800.00
02760             -64.00     2000.00
02761             140.00     2400.00
02762             -70.00     2000.00
02763             -24.00     2200.00
02764              88.00     2400.00
02765            -148.00     2400.00
02766              38.00     2600.00
02767             168.00     2600.00
02768            -194.00     2400.00
02769             -56.00     2800.00
02770             186.00     2800.00
02771             -80.00     2600.00
02772             -54.00     2800.00
02773              72.00     3200.00
02774             -66.00     2800.00
02775              10.00     3000.00
02776              48.00     3200.00
02777             -74.00     3000.00
02778              26.00     3200.00
02779              12.00     3200.00
02780             -50.00     3200.00
02781              50.00     3400.00
02782             -10.00     3400.00
02783             -54.00     3400.00
02784              44.00     3400.00
02785              -2.00     3400.00
02786             -34.00     3400.00
02787              26.00     3600.00
02788              -2.00     3600.00
02789             -16.00     3600.00
02790             -10.00     3800.00
02791              -6.00     3600.00
02792              22.00     3600.00
02793              -4.00     4000.00
02794             -26.00     3800.00
02795               6.00     4000.00
02796               6.00     4000.00
02797             -22.00     3800.00
02798               0.00     4000.00
02799               8.00     4000.00
02800             -16.00     4000.00
02801               0.00     4000.00
02802               6.00     4000.00
02803             -16.00     4000.00
02804             -10.00     4200.00
02805               6.00     4200.00
02806               6.00     4200.00
02807              -4.00     4200.00
02808             -24.00     4200.00
02809              -6.00     4200.00
02810              16.00     4200.00
02811             -10.00     4000.00
02812             -18.00     4000.00
02813               0.00     4400.00
02814              -6.00     4200.00
02815              -6.00     4200.00
02816               0.00     4400.00
02817              -8.00     4200.00
02818              -8.00     4400.00
02819              -8.00     4400.00
02820              -8.00     4400.00
02821              -2.00     4400.00
02822              -8.00     4400.00
02823             -10.00     4400.00
02824               0.00     4200.00
02825               0.00     4200.00
02826             -14.00     4200.00
02827              -8.00     4400.00
02828              -2.00     4400.00
02829              -2.00     4200.00
02830              -2.00     4400.00
02831             -14.00     4200.00
02832              -8.00     4200.00
02833               4.00     4200.00
02834               2.00     4400.00
02835              -8.00     4200.00
02836             -10.00     4200.00
02837             -10.00     4200.00
02838              -2.00     4200.00
02839               2.00     4400.00
02840               0.00     4200.00
02841              -2.00     4200.00
02842             -14.00     4200.00
02843             -18.00     4200.00
02844               0.00     4200.00
02845               4.00     4200.00
02846               0.00     4200.00
02847              -6.00     4000.00
02848              -8.00     4200.00
02849             -10.00     4000.00
02850              -6.00     4000.00
02851               0.00     4000.00
02852               2.00     4000.00
02853              -6.00     4000.00
02854              -6.00     4000.00
02855              -2.00     3800.00
02856              -4.00     3800.00
02857             -10.00     3600.00
02858              -6.00     3800.00
02859               2.00     3600.00
02860              -2.00     3600.00
02861              -6.00     3600.00
02862              -8.00     3600.00
02863              -6.00     3600.00
02864              -6.00     3600.00
02865               0.00     3400.00
02866               2.00     3600.00
02867              -2.00     3400.00
02868             -10.00     3600.00
02869              -8.00     3200.00
02870              -2.00     3200.00
02871              -2.00     3400.00
02872               0.00     3200.00
02873              -2.00     3400.00
02874              -6.00     3000.00
02875              -6.00     3200.00
02876              -6.00     3000.00
02877              -6.00     3000.00
02878              -8.00     2800.00
02879              -6.00     2800.00
02880              -4.00     2800.00
02881              -2.00     2600.00
02882              -8.00     2600.00
02883              -6.00     2600.00
02884              -6.00     2400.00
02885              -6.00     2400.00
02886              -6.00     2400.00
02887               0.00     2400.00
02888              -6.00     2400.00
02889              -6.00     2200.00
02890             -10.00     2200.00
02891              -2.00     2000.00
02892              -2.00     2000.00
02893               0.00     2000.00
02894              -6.00     1800.00
02895              -6.00     1800.00
02896             -10.00     1800.00
02897              -8.00     1800.00
02898              -4.00     1800.00
02899              -2.00     1600.00
02900              -4.00     1600.00
02901              -6.00     1600.00
02902              -8.00     1400.00
02903              -6.00     1600.00
02904              -6.00     1200.00
02905              -2.00     1200.00
02906               0.00     1200.00
02907              -2.00     1200.00
02908              -8.00     1200.00
02909              -2.00     1000.00
02910              -2.00     1000.00
02911              -4.00      800.00
02912              -2.00      800.00
02913               0.00      800.00
02914              -2.00      800.00
02915              -8.00      800.00
02916              -6.00      600.00
02917              -2.00      600.00
02918              -2.00      400.00
02919              -6.00      400.00
02920              -6.00      200.00
02921              -2.00      200.00
02922               2.00      200.00
02923              -2.00      200.00
02924               2.00        0.00
02925               8.00        0.00
02926               0.00        0.00
02927              -8.00        0.00
02928              -8.00        0.00
02929              -2.00     -400.00
02930              16.00     -400.00
02931              86.00     -400.00
02932             142.00     -400.00
02933            -116.00     -800.00
02934            -254.00     -600.00
02935             -48.00     -400.00
02936             246.00     -800.00
02937             246.00    -1000.00
02938            -254.00     -800.00
02939            -254.00     -800.00
02940             246.00    -1200.00
02941             152.00    -1000.00
02942            -254.00    -1200.00
02943             -42.00    -1200.00
02944             246.00    -1200.00
02945             -44.00    -1400.00
02946            -112.00    -1400.00
02947             -20.00    -1600.00
02948             -96.00    -1400.00
02949              82.00    -1600.00
02950             208.00    -1800.00
02951            -154.00    -1600.00
02952            -164.00    -1800.00
02953             112.00    -2000.00
02954              86.00    -2000.00
02955             -32.00    -2000.00
02956             -48.00    -2000.00
02957             -62.00    -2000.00
02958              54.00    -2200.00
02959             110.00    -2400.00
02960            -118.00    -2200.00
02961             -74.00    -2400.00
02962              98.00    -2400.00
02963              38.00    -2400.00
02964             -62.00    -2400.00
02965             -14.00    -2600.00
02966               0.00    -2600.00
02967              14.00    -2800.00
02968              24.00    -2800.00
02969             -28.00    -2800.00
02970             -20.00    -2800.00
02971              16.00    -2800.00
02972               6.00    -3000.00
02973             -22.00    -3000.00
02974              -8.00    -3000.00
02975               8.00    -3000.00
02976              16.00    -3000.00
02977               2.00    -3200.00
02978             -26.00    -3000.00
02979             -14.00    -3200.00
02980              24.00    -3200.00
02981               8.00    -3400.00
02982             -26.00    -3200.00
02983              -6.00    -3200.00
02984               6.00    -3200.00
02985              -2.00    -3400.00
02986               6.00    -3400.00
02987              10.00    -3400.00
02988              -8.00    -3600.00
02989             -10.00    -3400.00
02990              -6.00    -3600.00
02991               4.00    -3600.00
02992               6.00    -3600.00
02993               0.00    -3600.00
02994              -2.00    -3800.00
02995              -2.00    -3600.00
02996              -6.00    -3800.00
02997               4.00    -3800.00
02998              10.00    -3600.00
02999              -2.00    -3800.00
03000              -8.00    -3800.00
03001              -2.00    -3800.00
03002               0.00    -3800.00
03003              -2.00    -3800.00
03004               6.00    -3800.00
03005               8.00    -4000.00
03006               2.00    -3800.00
03007              -6.00    -3800.00
03008             -10.00    -4000.00
03009              -6.00    -4000.00
03010              -4.00    -3800.00
03011               0.00    -4000.00
03012               8.00    -4000.00
03013               2.00    -4000.00
03014              -8.00    -4000.00
03015              -6.00    -3800.00
03016               0.00    -4000.00
03017               0.00    -4000.00
03018              -2.00    -4000.00
03019               0.00    -4000.00
03020              -4.00    -4000.00
03021              -8.00    -3800.00
03022              -6.00    -4000.00
03023               0.00    -4000.00
03024               6.00    -3800.00
03025               0.00    -3800.00
03026               0.00    -3800.00
03027              -8.00    -4000.00
03028              -8.00    -3800.00
03029              -2.00    -3800.00
03030               6.00    -3800.00
03031               4.00    -4000.00
03032               0.00    -3800.00
03033              -2.00    -3800.00
03034              -6.00    -3600.00
03035               0.00    -3600.00
03036               0.00    -3800.00
03037               0.00    -3600.00
03038               0.00    -3800.00
03039              -2.00    -3600.00
03040              -2.00    -3800.00
03041              -4.00    -3600.00
03042              -2.00    -3600.00
03043              -2.00    -3600.00
03044               4.00    -3600.00
03045               2.00    -3600.00
03046               2.00    -3400.00
03047              -2.00    -3400.00
03048              -6.00    -3400.00
03049              -6.00    -3200.00
03050               0.00    -3200.00
03051               2.00    -3200.00
03052               2.00    -3200.00
03053              -2.00    -3000.00
03054              -2.00    -3200.00
03055              -6.00    -3200.00
03056               0.00    -3200.00
03057               2.00    -3000.00
03058               2.00    -3000.00
03059               0.00    -3000.00
03060              -2.00    -3000.00
03061              -4.00    -3000.00
03062              -2.00    -2800.00
03063               0.00    -2800.00
03064               0.00    -2800.00
03065               2.00    -2600.00
03066               0.00    -2800.00
03067              -6.00    -2600.00
03068              -6.00    -2600.00
03069              -2.00    -2800.00
03070               0.00    -2400.00
03071              -2.00    -2400.00
03072               0.00    -2200.00
03073              -2.00    -2400.00
03074              -6.00    -2400.00
03075              -6.00    -2200.00
03076               0.00    -2200.00
03077              -2.00    -2200.00
03078              -2.00    -2000.00
03079               0.00    -2000.00
03080              -2.00    -2000.00
03081              -6.00    -2000.00
03082              -4.00    -1600.00
03083              -2.00    -1800.00
03084              -2.00    -1600.00
03085              -2.00    -1600.00
03086              -2.00    -1600.00
03087              -6.00    -1400.00
03088              -2.00    -1400.00
03089              -6.00    -1200.00
03090              -2.00    -1200.00
03091              -2.00    -1000.00
03092              -2.00    -1200.00
03093              -6.00    -1000.00
03094              -2.00    -1200.00
03095              -6.00    -1000.00
03096              -2.00    -1000.00
03097               0.00     -800.00
03098              -2.00     -800.00
03099              -2.00     -800.00
03100              -2.00     -600.00
03101              -2.00     -800.00
03102              -2.00     -400.00
03103              -6.00     -400.00
03104              -8.00     -400.00
03105               2.00     -400.00
03106              -2.00     -200.00
03107              -8.00     -200.00
03108              -6.00        0.00
03109               0.00        0.00
03110               0.00      200.00
03111               0.00        0.00
03112              -6.00        0.00
03113              -2.00      200.00
03114               0.00      400.00
03115               0.00      400.00
03116               8.00      400.00
03117              10.00      400.00
03118              -2.00      400.00
03119             -12.00      600.00
03120              -2.00      800.00
03121               8.00      800.00
03122              82.00      800.00
03123             178.00     1000.00
03124             -96.00      800.00
03125            -254.00      800.00
03126             -48.00     1000.00
03127             246.00     1400.00
03128             246.00     1200.00
03129            -254.00      800.00
03130            -246.00     1400.00
03131             246.00     1600.00
03132             106.00     1600.00
03133            -254.00     1200.00
03134             110.00     1800.00
03135             246.00     1800.00
03136            -252.00     1200.00
03137            -214.00     1800.00
03138             210.00     2000.00
03139             -50.00     1600.00
03140             -52.00     1800.00
03141             150.00     2000.00
03142            -122.00     2000.00
03143             -82.00     2000.00
03144             144.00     2400.00
03145             -48.00     2000.00
03146             -44.00     2400.00
03147              86.00     2400.00
03148            -144.00     2400.00
03149              16.00     2600.00
03150             190.00     2800.00
03151            -168.00     2400.00
03152             -88.00     2800.00
03153             182.00     2800.00
03154             -64.00     2600.00
03155             -70.00     2800.00
03156              82.00     3000.00
03157             -54.00     2800.00
03158              -8.00     2800.00
03159              48.00     3200.00
03160             -74.00     3000.00
03161              24.00     3200.00
03162              22.00     3200.00
03163             -56.00     3400.00
03164              40.00     3400.00
03165              -6.00     3200.00
03166             -58.00     3400.00
03167              48.00     3600.00
03168               2.00     3600.00
03169             -42.00     3400.00
03170              16.00     3600.00
03171               0.00     3600.00
03172              -8.00     3600.00
03173              -6.00     3800.00
03174             -10.00     3600.00
03175              12.00     3600.00
03176              -4.00     3800.00
03177             -20.00     3800.00
03178              16.00     4000.00
03179               0.00     4000.00
03180             -26.00     3800.00
03181               2.00     4000.00
03182              16.00     4000.00
03183             -10.00     4000.00
03184              -6.00     4000.00
03185               6.00     4000.00
03186             -10.00     4000.00
03187             -10.00     4000.00
03188               0.00     4200.00
03189               6.00     4000.00
03190               0.00     4200.00
03191             -16.00     4200.00
03192              -6.00     4200.00
03193               6.00     4200.00
03194             -14.00     4200.00
03195              -8.00     4200.00
03196               8.00     4200.00
03197              -8.00     4200.00
03198             -10.00     4400.00
03199               0.00     4400.00
03200              -6.00     4200.00
03201              -6.00     4200.00
03202              -6.00     4400.00
03203              -2.00     4400.00
03204               0.00     4200.00
03205              -8.00     4400.00
03206             -10.00     4200.00
03207              -6.00     4200.00
03208              -6.00     4400.00
03209              -6.00     4400.00
03210               6.00     4200.00
03211              -6.00     4400.00
03212             -14.00     4400.00
03213             -10.00     4400.00
03214              -2.00     4400.00
03215               0.00     4200.00
03216               0.00     4200.00
03217              -6.00     4400.00
03218             -10.00     4200.00
03219             -10.00     4200.00
03220              -6.00     4200.00
03221               0.00     4200.00
03222              -2.00     4200.00
03223              -4.00     4200.00
03224              -6.00     4200.00
03225              -8.00     4200.00
03226             -10.00     4200.00
03227              -2.00     4200.00
03228               0.00     4200.00
03229               0.00     4200.00
03230              -2.00     4000.00
03231              -6.00     4000.00
03232              -8.00     4000.00
03233              -8.00     4000.00
03234              -6.00     4000.00
03235               2.00     4000.00
03236              -4.00     4000.00
03237              -8.00     4000.00
03238              -6.00     4000.00
03239              -6.00     4000.00
03240              -8.00     3600.00
03241              -2.00     3600.00
03242               0.00     3800.00
03243              -2.00     3800.00
03244              -6.00     3600.00
03245              -6.00     3600.00
03246              -4.00     3600.00
03247              -2.00     3600.00
03248              -2.00     3600.00
03249               0.00     3400.00
03250              -2.00     3400.00
03251              -6.00     3400.00
03252              -6.00     3400.00
03253               0.00     3200.00
03254              -6.00     3200.00
03255              -8.00     3200.00
03256              -2.00     3200.00
03257              -6.00     3200.00
03258              -2.00     3000.00
03259              -2.00     3000.00
03260              -6.00     2800.00
03261              -6.00     3000.00
03262              -6.00     2800.00
03263              -2.00     2800.00
03264              -2.00     2600.00
03265              -8.00     2800.00
03266              -8.00     2600.00
03267               0.00     2600.00
03268              -2.00     2400.00
03269              -8.00     2400.00
03270              -8.00     2400.00
03271              -8.00     2400.00
03272              -2.00     2400.00
03273              -4.00     2200.00
03274              -4.00     2000.00
03275              -4.00     2000.00
03276              -6.00     2000.00
03277              -6.00     2000.00
03278              -2.00     1800.00
03279              -2.00     1800.00
03280              -8.00     2000.00
03281              -8.00     1600.00
03282              -6.00     1800.00
03283               0.00     1600.00
03284               0.00     1400.00
03285              -2.00     1600.00
03286             -10.00     1400.00
03287             -16.00     1200.00
03288             -10.00     1200.00
03289               0.00     1200.00
03290               8.00     1200.00
03291               2.00     1200.00
03292              -6.00     1000.00
03293             -16.00      800.00
03294             -14.00      800.00
03295              -2.00      800.00
03296               8.00      800.00
03297               8.00      800.00
03298              -8.00      800.00
03299             -12.00      600.00
03300              -8.00      400.00
03301              -2.00      400.00
03302               2.00      400.00
03303               0.00      200.00
03304              -2.00      200.00
03305              -2.00      200.00
03306               0.00        0.00
03307              -2.00        0.00
03308              10.00        0.00
03309               6.00        0.00
03310              -8.00        0.00
03311              -6.00     -200.00
03312              -2.00     -400.00
03313              14.00     -400.00
03314              82.00     -400.00
03315             142.00     -600.00
03316             -88.00     -800.00
03317            -254.00     -800.00
03318             -98.00     -400.00
03319             246.00     -800.00
03320             246.00     -800.00
03321            -254.00     -800.00
03322            -254.00     -800.00
03323             246.00    -1200.00
03324             230.00    -1000.00
03325            -254.00    -1200.00
03326             -88.00    -1000.00
03327             246.00    -1200.00
03328             -16.00    -1200.00
03329            -126.00    -1400.00
03330             -24.00    -1600.00
03331             -96.00    -1400.00
03332              62.00    -1600.00
03333             224.00    -1600.00
03334            -126.00    -1600.00
03335            -182.00    -1800.00
03336              88.00    -2200.00
03337              96.00    -1800.00
03338             -32.00    -2000.00
03339             -34.00    -2200.00
03340             -56.00    -2000.00
03341              42.00    -2200.00
03342             106.00    -2400.00
03343            -106.00    -2200.00
03344             -80.00    -2200.00
03345              94.00    -2400.00
03346              48.00    -2400.00
03347             -62.00    -2400.00
03348             -14.00    -2600.00
03349              -2.00    -2800.00
03350              16.00    -2600.00
03351              22.00    -2800.00
03352             -32.00    -2800.00
03353             -24.00    -2800.00
03354              22.00    -3000.00
03355              22.00    -2800.00
03356             -16.00    -3000.00
03357             -20.00    -3000.00
03358              -8.00    -3000.00
03359              16.00    -3000.00
03360              10.00    -3200.00
03361             -14.00    -3200.00
03362             -10.00    -3200.00
03363              18.00    -3200.00
03364               2.00    -3200.00
03365             -30.00    -3200.00
03366              -2.00    -3400.00
03367              18.00    -3400.00
03368               6.00    -3600.00
03369              -2.00    -3600.00
03370              -8.00    -3400.00
03371             -10.00    -3600.00
03372               2.00    -3600.00
03373               8.00    -3600.00
03374               2.00    -3600.00
03375               0.00    -3600.00
03376              -8.00    -3800.00
03377               0.00    -3600.00
03378              -2.00    -3800.00
03379              -8.00    -3800.00
03380               0.00    -3600.00
03381              14.00    -3800.00
03382              -2.00    -3800.00
03383              -8.00    -3800.00
03384               0.00    -3800.00
03385               0.00    -4000.00
03386               0.00    -3800.00
03387               0.00    -3800.00
03388               0.00    -4000.00
03389               2.00    -4000.00
03390               0.00    -4000.00
03391              -8.00    -3800.00
03392              -2.00    -4000.00
03393               0.00    -3800.00
03394               8.00    -4000.00
03395               8.00    -4000.00
03396              -6.00    -4000.00
03397             -10.00    -4000.00
03398              -6.00    -3800.00
03399              -2.00    -4000.00
03400               6.00    -4000.00
03401               0.00    -4000.00
03402              -2.00    -4000.00
03403               0.00    -4000.00
03404              -4.00    -4000.00
03405              -6.00    -3800.00
03406               6.00    -3800.00
03407               2.00    -4000.00
03408              -8.00    -4000.00
03409               0.00    -4000.00
03410             -10.00    -3800.00
03411              -6.00    -4000.00
03412               6.00    -4000.00
03413               0.00    -3800.00
03414              -2.00    -4000.00
03415               0.00    -3800.00
03416              -6.00    -3800.00
03417              -2.00    -3800.00
03418              -2.00    -3600.00
03419               0.00    -3600.00
03420               6.00    -3800.00
03421               0.00    -3600.00
03422              -8.00    -3600.00
03423              -6.00    -3600.00
03424              -2.00    -3600.00
03425              -2.00    -3600.00
03426               2.00    -3600.00
03427               2.00    -3600.00
03428               0.00    -3600.00
03429               0.00    -3600.00
03430              -8.00    -3600.00
03431              -6.00    -3600.00
03432               0.00    -3200.00
03433               0.00    -3400.00
03434               2.00    -3200.00
03435               2.00    -3200.00
03436              -2.00    -3200.00
03437               0.00    -3200.00
03438              -4.00    -3200.00
03439             -10.00    -3000.00
03440              -2.00    -3000.00
03441               6.00    -3000.00
03442               6.00    -3000.00
03443               2.00    -3000.00
03444             -10.00    -3000.00
03445             -16.00    -2800.00
03446              -2.00    -2800.00
03447              10.00    -2800.00
03448              14.00    -2800.00
03449               0.00    -2800.00
03450             -16.00    -2800.00
03451             -10.00    -2600.00
03452               2.00    -2600.00
03453               4.00    -2400.00
03454               0.00    -2400.00
03455              -6.00    -2400.00
03456              -6.00    -2200.00
03457              -2.00    -2200.00
03458              -2.00    -2000.00
03459               0.00    -2200.00
03460               6.00    -2200.00
03461               6.00    -2200.00
03462               2.00    -2200.00
03463               0.00    -2000.00
03464             -10.00    -2000.00
03465             -14.00    -2000.00
03466             -10.00    -1600.00
03467              -8.00    -1600.00
03468              -2.00    -1800.00
03469               2.00    -1600.00
03470               8.00    -1400.00
03471              12.00    -1400.00
03472               6.00    -1400.00
03473              -8.00    -1400.00
03474             -16.00    -1000.00
03475             -16.00    -1200.00
03476             -10.00    -1000.00
03477               4.00    -1000.00
03478               2.00    -1000.00
03479               2.00     -800.00
03480               6.00     -800.00
03481              -2.00     -800.00
03482              -4.00     -600.00
03483              -2.00     -600.00
03484             -10.00     -600.00
03485             -10.00     -600.00
03486              -2.00     -400.00
03487              -8.00     -400.00
03488               0.00     -400.00
03489               2.00     -200.00
03490              -2.00     -400.00
03491               2.00     -200.00
03492               2.00        0.00
03493              -8.00        0.00
03494              -8.00      200.00
03495              -8.00      200.00
03496               0.00        0.00
03497              10.00      200.00
03498               0.00      400.00
03499              -4.00      400.00
03500               8.00      400.00
03501               6.00      400.00
03502              -2.00      400.00
03503               0.00      600.00
03504               0.00      800.00
03505              62.00      800.00
03506             178.00     1000.00
03507             -64.00     1000.00
03508            -254.00      800.00
03509            -100.00     1000.00
03510             246.00     1200.00
03511             246.00     1200.00
03512            -254.00      800.00
03513            -254.00     1200.00
03514             246.00     1600.00
03515             198.00     1400.00
03516            -254.00     1200.00
03517              40.00     1800.00
03518             246.00     1800.00
03519            -206.00     1400.00
03520            -242.00     1600.00
03521             200.00     2000.00
03522             -38.00     1800.00
03523             -66.00     2000.00
03524             160.00     2200.00
03525             -98.00     2000.00
03526            -108.00     2000.00
03527             136.00     2400.00
03528             -32.00     2000.00
03529             -48.00     2400.00
03530              96.00     2400.00
03531            -136.00     2400.00
03532             -24.00     2600.00
03533             192.00     2600.00
03534            -138.00     2600.00
03535            -100.00     2600.00
03536             184.00     2800.00
03537             -50.00     2600.00
03538             -98.00     2800.00
03539              76.00     3000.00
03540             -42.00     2800.00
03541              -6.00     3000.00
03542              62.00     3000.00
03543             -74.00     3000.00
03544               2.00     3200.00
03545              24.00     3200.00
03546             -50.00     3200.00
03547              40.00     3400.00
03548              10.00     3400.00
03549             -64.00     3200.00
03550              32.00     3400.00
03551               6.00     3400.00
03552             -38.00     3400.00
03553              22.00     3600.00
03554               6.00     3600.00
03555             -18.00     3600.00
03556             -14.00     3800.00
03557             -10.00     3600.00
03558              18.00     3600.00
03559               6.00     3800.00
03560             -24.00     3600.00
03561               0.00     3800.00
03562              -2.00     4000.00
03563             -22.00     3800.00
03564               6.00     4000.00
03565              12.00     4000.00
03566             -14.00     3800.00
03567             -10.00     4200.00
03568               4.00     4000.00
03569              -8.00     4000.00
03570             -10.00     4200.00
03571               0.00     4200.00
03572               2.00     4200.00
03573              -2.00     4200.00
03574             -16.00     4200.00
03575              -6.00     4200.00
03576               6.00     4200.00
03577             -10.00     4200.00
03578             -10.00     4200.00
03579               6.00     4400.00
03580              -6.00     4200.00
03581              -8.00     4200.00
03582               0.00     4400.00
03583              -2.00     4400.00
03584              -8.00     4400.00
03585              -6.00     4400.00
03586               0.00     4400.00
03587               0.00     4400.00
03588              -8.00     4400.00
03589             -10.00     4400.00
03590              -2.00     4400.00
03591              -8.00     4400.00
03592              -6.00     4400.00
03593               0.00     4400.00
03594              -2.00     4200.00
03595             -10.00     4200.00
03596             -10.00     4400.00
03597              -8.00     4400.00
03598              -6.00     4200.00
03599              -2.00     4200.00
03600              -2.00     4200.00
03601              -2.00     4200.00
03602              -8.00     4200.00
03603              -8.00     4200.00
03604              -6.00     4200.00
03605              -6.00     4200.00
03606              -2.00     4200.00
03607              -2.00     4200.00
03608              -8.00     4000.00
03609             -12.00     4200.00
03610             -10.00     4200.00
03611              -2.00     4200.00
03612              -2.00     4200.00
03613              -4.00     4000.00
03614              -4.00     4000.00
03615              -6.00     4000.00
03616             -10.00     4000.00
03617              -8.00     4000.00
03618               0.00     4000.00
03619              -2.00     4000.00
03620              -6.00     4000.00
03621              -2.00     3800.00
03622              -6.00     3800.00
03623             -10.00     3800.00
03624              -8.00     3800.00
03625              -2.00     3600.00
03626              -2.00     3600.00
03627              -6.00     3600.00
03628              -8.00     3600.00
03629              -6.00     3600.00
03630              -6.00     3600.00
03631              -2.00     3400.00
03632              -2.00     3400.00
03633               0.00     3400.00
03634              -8.00     3400.00
03635              -6.00     3400.00
03636              -6.00     3200.00
03637              -8.00     3200.00
03638              -2.00     3400.00
03639              -2.00     3200.00
03640              -2.00     3200.00
03641              -6.00     3200.00
03642              -2.00     3200.00
03643              -6.00     3000.00
03644              -4.00     3000.00
03645              -8.00     2800.00
03646               0.00     2800.00
03647              -2.00     2800.00
03648              -8.00     2600.00
03649              -8.00     2600.00
03650               0.00     2600.00
03651              -2.00     2400.00
03652              -2.00     2600.00
03653              -4.00     2400.00
03654              -6.00     2400.00
03655              -6.00     2400.00
03656              -6.00     2200.00
03657              -2.00     2200.00
03658              -2.00     2000.00
03659              -6.00     2000.00
03660              -6.00     2000.00
03661              -6.00     1800.00
03662              -6.00     1800.00
03663              -6.00     1800.00
03664              -2.00     1800.00
03665              -2.00     1800.00
03666              -6.00     1600.00
03667              -6.00     1600.00
03668              -6.00     1400.00
03669              -6.00     1200.00
03670              -6.00     1400.00
03671              -6.00     1200.00
03672              -2.00     1200.00
03673              -2.00     1000.00
03674              -6.00     1000.00
03675              -6.00     1000.00
03676              -6.00      800.00
03677              -6.00     1000.00
03678              -4.00     1000.00
03679              -2.00      800.00
03680              -6.00      800.00
03681              -8.00      800.00
03682              -6.00      400.00
03683              -6.00      400.00
03684              -2.00      400.00
03685              -4.00      400.00
03686              -8.00      400.00
03687              -2.00      200.00
03688               2.00      200.00
03689               0.00      200.00
03690               2.00      200.00
03691               6.00        0.00
03692               0.00        0.00
03693              -6.00     -200.00
03694              -6.00     -200.00
03695               0.00     -400.00
03696              14.00     -400.00
03697              72.00     -400.00
03698             146.00     -400.00
03699             -56.00     -800.00
03700            -254.00     -800.00
03701            -154.00     -400.00
03702             246.00     -600.00
03703             246.00     -800.00
03704            -254.00    -1000.00
03705            -254.00     -800.00
03706             246.00    -1200.00
03707             246.00    -1000.00
03708            -254.00    -1000.00
03709            -142.00    -1200.00
03710             246.00    -1400.00
03711              14.00    -1000.00
03712            -130.00    -1400.00
03713             -16.00    -1600.00
03714             -92.00    -1400.00
03715              40.00    -1400.00
03716             224.00    -1600.00
03717            -102.00    -1600.00
03718            -190.00    -1800.00
03719              82.00    -2000.00
03720             114.00    -1800.00
03721             -32.00    -2000.00
03722             -44.00    -2400.00
03723             -62.00    -2000.00
03724              34.00    -2000.00
03725             118.00    -2400.00
03726             -88.00    -2400.00
03727             -98.00    -2200.00
03728              82.00    -2600.00
03729              60.00    -2400.00
03730             -60.00    -2400.00
03731             -16.00    -2600.00
03732               0.00    -2600.00
03733              10.00    -2600.00
03734              22.00    -2800.00
03735             -26.00    -2800.00
03736             -32.00    -2800.00
03737              18.00    -2800.00
03738              22.00    -2800.00
03739             -16.00    -3000.00
03740             -16.00    -3000.00
03741              -6.00    -3000.00
03742              14.00    -3000.00
03743               8.00    -3000.00
03744             -16.00    -3000.00
03745             -16.00    -3000.00
03746              20.00    -3200.00
03747               8.00    -3200.00
03748             -28.00    -3200.00
03749              -6.00    -3200.00
03750              18.00    -3200.00
03751               2.00    -3200.00
03752              -6.00    -3400.00
03753              -6.00    -3600.00
03754              -8.00    -3600.00
03755               0.00    -3600.00
03756               6.00    -3600.00
03757               0.00    -3600.00
03758              -6.00    -3600.00
03759              -4.00    -3600.00
03760               2.00    -3800.00
03761               0.00    -3600.00
03762              -6.00    -3600.00
03763               0.00    -3800.00
03764              10.00    -3600.00
03765               0.00    -3800.00
03766             -10.00    -3600.00
03767              -2.00    -3800.00
03768               2.00    -3800.00
03769               0.00    -3800.00
03770               0.00    -3800.00
03771               2.00    -3800.00
03772               0.00    -4000.00
03773              -2.00    -3800.00
03774              -8.00    -4000.00
03775              -2.00    -3800.00
03776               0.00    -3800.00
03777               0.00    -3800.00
03778               4.00    -4000.00
03779               0.00    -4000.00
03780              -8.00    -3800.00
03781              -2.00    -4000.00
03782               0.00    -4000.00
03783               4.00    -4000.00
03784               2.00    -3800.00
03785               0.00    -4000.00
03786              -2.00    -4000.00
03787              -6.00    -3800.00
03788              -4.00    -4000.00
03789               2.00    -4000.00
03790               2.00    -4000.00
03791              -2.00    -4000.00
03792              -2.00    -4000.00
03793              -4.00    -4000.00
03794              -8.00    -4000.00
03795              -4.00    -3800.00
03796               0.00    -3800.00
03797               0.00    -3800.00
03798               0.00    -4000.00
03799              -2.00    -3800.00
03800              -4.00    -3800.00
03801              -2.00    -3800.00
03802              -6.00    -3800.00
03803               0.00    -3600.00
03804               0.00    -3800.00
03805               0.00    -3600.00
03806              -2.00    -3600.00
03807              -6.00    -3600.00
03808              -6.00    -3600.00
03809               0.00    -3600.00
03810               0.00    -3600.00
03811               0.00    -3600.00
03812              -2.00    -3400.00
03813              -2.00    -3600.00
03814              -6.00    -3400.00
03815              -6.00    -3200.00
03816               0.00    -3200.00
03817               2.00    -3200.00
03818               0.00    -3200.00
03819              -2.00    -3200.00
03820              -2.00    -3200.00
03821              -2.00    -3200.00
03822              -2.00    -3000.00
03823               0.00    -3000.00
03824               0.00    -3000.00
03825               0.00    -3000.00
03826              -4.00    -3000.00
03827              -2.00    -3000.00
03828              -2.00    -3000.00
03829               0.00    -2800.00
03830               0.00    -2800.00
03831               2.00    -2800.00
03832               0.00    -2600.00
03833              -2.00    -2800.00
03834              -2.00    -2600.00
03835              -2.00    -2600.00
03836               0.00    -2400.00
03837               2.00    -2400.00
03838              -2.00    -2400.00
03839              -2.00    -2400.00
03840              -2.00    -2200.00
03841              -2.00    -2200.00
03842               0.00    -2200.00
03843               0.00    -2200.00
03844               0.00    -2000.00
03845               0.00    -2000.00
03846              -2.00    -2000.00
03847              -2.00    -1800.00
03848              -2.00    -1600.00
03849               0.00    -1800.00
03850               0.00    -1600.00
03851               0.00    -1600.00
03852              -2.00    -1600.00
03853              -2.00    -1600.00
03854              -2.00    -1400.00
03855              -2.00    -1400.00
03856              -4.00    -1200.00
03857               0.00    -1400.00
03858              -2.00    -1000.00
03859              -2.00    -1000.00
03860              -4.00    -1200.00
03861              -6.00    -1000.00
03862              -2.00     -800.00
03863              -2.00    -1000.00
03864              -2.00     -800.00
03865              -4.00     -800.00
03866              -2.00     -600.00
03867              -6.00     -600.00
03868              -2.00     -600.00
03869              -2.00     -400.00
03870              -2.00     -400.00
03871               0.00     -400.00
03872              -2.00     -400.00
03873              -6.00     -400.00
03874              -8.00     -200.00
03875              -6.00        0.00
03876               0.00        0.00
03877              -2.00      200.00
03878              -2.00        0.00
03879               0.00      200.00
03880               0.00      200.00
03881               0.00      400.00
03882               6.00      400.00
03883              10.00      400.00
03884               0.00      600.00
03885             -10.00      600.00
03886              -8.00      800.00
03887               2.00      800.00
03888              62.00      800.00
03889             176.00     1000.00
03890             -30.00     1000.00
03891            -254.00      800.00
03892            -170.00     1000.00
03893             246.00     1200.00
03894             246.00     1400.00
03895            -254.00     1000.00
03896            -254.00     1200.00
03897             246.00     1600.00
03898             246.00     1600.00
03899            -254.00     1200.00
03900             -26.00     1600.00
03901             246.00     1800.00
03902            -160.00     1600.00
03903            -254.00     1800.00
03904             186.00     2000.00
03905             -10.00     1800.00
03906             -84.00     2000.00
03907             150.00     2000.00
03908             -66.00     2000.00
03909            -128.00     2000.00
03910             134.00     2400.00
03911             -10.00     2200.00
03912             -70.00     2400.00
03913             104.00     2600.00
03914            -106.00     2400.00
03915             -38.00     2600.00
03916             194.00     2800.00
03917            -128.00     2600.00
03918            -138.00     2800.00
03919             186.00     2800.00
03920             -16.00     2600.00
03921            -104.00     2800.00
03922              76.00     3000.00
03923             -40.00     2800.00
03924             -26.00     3000.00
03925              66.00     3200.00
03926             -64.00     3000.00
03927               0.00     3200.00
03928              34.00     3200.00
03929             -56.00     3200.00
03930              30.00     3200.00
03931              16.00     3200.00
03932             -64.00     3400.00
03933              30.00     3400.00
03934              16.00     3600.00
03935             -44.00     3400.00
03936              14.00     3600.00
03937               4.00     3600.00
03938             -18.00     3600.00
03939             -10.00     3600.00
03940              -8.00     3600.00
03941              16.00     3600.00
03942               6.00     3800.00
03943             -26.00     3800.00
03944               0.00     3800.00
03945               0.00     3800.00
03946             -22.00     3800.00
03947               0.00     4000.00
03948              10.00     4000.00
03949             -14.00     4000.00
03950             -10.00     4000.00
03951               6.00     4200.00
03952              -6.00     4000.00
03953             -10.00     4000.00
03954               0.00     4200.00
03955               0.00     4200.00
03956              -2.00     4200.00
03957             -14.00     4200.00
03958              -8.00     4000.00
03959               6.00     4200.00
03960             -10.00     4200.00
03961             -10.00     4200.00
03962              10.00     4200.00
03963              -2.00     4400.00
03964             -12.00     4200.00
03965              -2.00     4400.00
03966              -2.00     4200.00
03967              -8.00     4400.00
03968              -4.00     4400.00
03969              -2.00     4200.00
03970               0.00     4200.00
03971              -8.00     4400.00
03972             -10.00     4400.00
03973               0.00     4400.00
03974              -2.00     4400.00
03975              -6.00     4200.00
03976              -2.00     4400.00
03977              -2.00     4400.00
03978             -10.00     4200.00
03979              -6.00     4400.00
03980              -2.00     4400.00
03981               0.00     4400.00
03982              -2.00     4200.00
03983              -6.00     4200.00
03984              -8.00     4200.00
03985              -6.00     4400.00
03986              -8.00     4200.00
03987              -2.00     4200.00
03988              -2.00     4200.00
03989              -8.00     4200.00
03990              -4.00     4200.00
03991              -8.00     4200.00
03992              -8.00     4200.00
03993              -6.00     4200.00
03994              -2.00     4200.00
03995              -6.00     4000.00
03996              -8.00     4200.00
03997              -8.00     4000.00
03998              -8.00     4000.00
03999             -10.00     4000.00
04000              -6.00     4000.00
04001               0.00     4000.00
04002              -2.00     4000.00
04003              -8.00     3800.00
04004              -6.00     4000.00
04005              -6.00     4000.00
04006             -10.00     3800.00
04007              -4.00     4000.00
04008              -2.00     3600.00
04009              -2.00     3600.00
04010              -8.00     3800.00
04011             -10.00     3600.00
04012              -6.00     3600.00
04013              -6.00     3600.00
04014              -6.00     3600.00
04015               0.00     3600.00
04016              -4.00     3400.00
04017              -8.00     3400.00
04018              -8.00     3400.00
04019              -8.00     3200.00
04020              -8.00     3200.00
04021              -2.00     3200.00
04022               0.00     3200.00
04023              -2.00     3200.00
04024             -10.00     3200.00
04025              -6.00     3200.00
04026              -2.00     3000.00
04027               0.00     2800.00
04028              -6.00     2800.00
04029              -2.00     2800.00
04030              -2.00     2800.00
04031              -6.00     2800.00
04032              -8.00     2800.00
04033               0.00     2600.00
04034              -2.00     2600.00
04035              -2.00     2600.00
04036              -2.00     2400.00
04037              -2.00     2400.00
04038              -8.00     2200.00
04039              -2.00     2400.00
04040              -6.00     2400.00
04041               0.00     2000.00
04042              -2.00     2000.00
04043              -2.00     1800.00
04044              -2.00     1800.00
04045              -6.00     1800.00
04046              -2.00     1800.00
04047              -2.00     1800.00
04048              -2.00     1800.00
04049              -6.00     1600.00
04050              -6.00     1600.00
04051              -2.00     1400.00
04052              -6.00     1400.00
04053              -8.00     1600.00
04054              -4.00     1200.00
04055              -2.00     1200.00
04056              -2.00     1200.00
04057              -2.00     1000.00
04058              -2.00     1000.00
04059              -6.00     1000.00
04060              -6.00     1000.00
04061              -6.00      800.00
04062              -2.00      800.00
04063              -2.00      800.00
04064              -6.00      800.00
04065              -8.00      600.00
04066              -2.00      400.00
04067              -2.00      400.00
04068              -6.00      400.00
04069              -6.00      400.00
04070              -6.00      200.00
04071               0.00      200.00
04072               0.00      200.00
04073               0.00        0.00
04074               6.00        0.00
04075               0.00     -200.00
04076              -8.00        0.00
04077              -8.00     -400.00
04078               0.00     -200.00
04079              14.00     -200.00
04080              60.00     -400.00
04081             150.00     -400.00
04082             -32.00     -800.00
04083            -254.00     -800.00
04084            -210.00     -400.00
04085             246.00     -600.00
04086             246.00     -800.00
04087            -254.00    -1000.00
04088            -254.00     -600.00
04089             246.00    -1200.00
04090             246.00    -1000.00
04091            -254.00    -1200.00
04092            -186.00    -1000.00
04093             246.00    -1400.00
04094              46.00    -1200.00
04095            -138.00    -1400.00
04096             -22.00    -1600.00
04097             -94.00    -1400.00
04098              18.00    -1400.00
04099             230.00    -1800.00
04100             -70.00    -1600.00
04101            -202.00    -1600.00
04102              62.00    -2000.00
04103             126.00    -2000.00
04104             -32.00    -1800.00
04105             -40.00    -2200.00
04106             -58.00    -2200.00
04107              30.00    -2000.00
04108             126.00    -2400.00
04109             -72.00    -2400.00
04110            -110.00    -2200.00
04111              72.00    -2400.00
04112              68.00    -2400.00
04113             -56.00    -2600.00
04114             -18.00    -2400.00
04115               0.00    -2800.00
04116               8.00    -2600.00
04117              18.00    -2800.00
04118             -24.00    -2800.00
04119             -34.00    -2800.00
04120              16.00    -2800.00
04121              26.00    -2800.00
04122             -14.00    -2800.00
04123             -18.00    -3000.00
04124              -8.00    -3000.00
04125              10.00    -3000.00
04126               8.00    -3200.00
04127             -14.00    -3200.00
04128             -16.00    -3200.00
04129              18.00    -3200.00
04130              10.00    -3200.00
04131             -30.00    -3200.00
04132             -10.00    -3200.00
04133              16.00    -3200.00
04134               6.00    -3400.00
04135              -8.00    -3600.00
04136              -6.00    -3400.00
04137             -10.00    -3400.00
04138              -2.00    -3600.00
04139               4.00    -3600.00
04140               0.00    -3600.00
04141              -2.00    -3600.00
04142              -2.00    -3600.00
04143               2.00    -3600.00
04144               0.00    -3600.00
04145             -10.00    -3800.00
04146              -2.00    -3600.00
04147              10.00    -3800.00
04148               2.00    -3600.00
04149             -10.00    -3800.00
04150              -6.00    -3800.00
04151               0.00    -3800.00
04152              -2.00    -3800.00
04153               0.00    -3800.00
04154               2.00    -3800.00
04155               2.00    -4000.00
04156              -4.00    -3800.00
04157              -8.00    -3800.00
04158              -2.00    -3800.00
04159               0.00    -3800.00
04160               2.00    -4000.00
04161               4.00    -3800.00
04162               0.00    -4000.00
04163              -6.00    -4000.00
04164              -6.00    -4000.00
04165               0.00    -4000.00
04166               2.00    -3800.00
04167               2.00    -3800.00
04168               0.00    -4000.00
04169              -2.00    -4000.00
04170              -6.00    -4000.00
04171              -6.00    -3800.00
04172               2.00    -4000.00
04173               2.00    -4000.00
04174               0.00    -4000.00
04175               0.00    -3800.00
04176              -2.00    -3800.00
04177              -8.00    -3800.00
04178              -2.00    -3800.00
04179               0.00    -3800.00
04180               2.00    -3800.00
04181               0.00    -4000.00
04182              -2.00    -3800.00
04183              -6.00    -3800.00
04184              -6.00    -3600.00
04185              -4.00    -3800.00
04186               2.00    -3800.00
04187               4.00    -3600.00
04188              -2.00    -3600.00
04189              -6.00    -3600.00
04190              -8.00    -3600.00
04191              -4.00    -3600.00
04192               0.00    -3600.00
04193               0.00    -3400.00
04194               2.00    -3600.00
04195               0.00    -3600.00
04196              -2.00    -3600.00
04197              -8.00    -3200.00
04198              -2.00    -3200.00
04199              -4.00    -3400.00
04200               2.00    -3400.00
04201               2.00    -3200.00
04202               0.00    -3200.00
04203              -2.00    -3200.00
04204              -6.00    -3200.00
04205              -6.00    -3200.00
04206               0.00    -3000.00
04207               0.00    -3200.00
04208              -2.00    -3000.00
04209              -2.00    -2800.00
04210              -4.00    -3000.00
04211               0.00    -2800.00
04212               0.00    -2800.00
04213              -2.00    -3000.00
04214               0.00    -2800.00
04215               0.00    -2800.00
04216              -6.00    -2600.00
04217              -6.00    -2400.00
04218              -2.00    -2600.00
04219               0.00    -2400.00
04220               4.00    -2400.00
04221               0.00    -2400.00
04222              -2.00    -2400.00
04223              -6.00    -2200.00
04224              -6.00    -2200.00
04225              -2.00    -2200.00
04226               0.00    -2200.00
04227               0.00    -2000.00
04228               0.00    -2000.00
04229              -2.00    -2000.00
04230              -6.00    -2000.00
04231              -6.00    -2000.00
04232               2.00    -1600.00
04233               2.00    -1600.00
04234               2.00    -1800.00
04235               0.00    -1400.00
04236              -4.00    -1400.00
04237              -4.00    -1600.00
04238              -2.00    -1400.00
04239               0.00    -1200.00
04240               0.00    -1000.00
04241               0.00    -1200.00
04242              -2.00    -1000.00
04243              -2.00    -1200.00
04244              -2.00    -1000.00
04245              -6.00    -1000.00
04246              -2.00     -800.00
04247              -2.00     -800.00
04248               0.00     -800.00
04249              -2.00     -600.00
04250              -2.00     -600.00
04251              -6.00     -600.00
04252              -4.00     -400.00
04253              -4.00     -400.00
04254              -2.00     -200.00
04255               0.00     -400.00
04256              -6.00     -400.00
04257              -6.00        0.00
04258              -4.00        0.00
04259              -6.00        0.00
04260              -8.00        0.00
04261              -2.00      200.00
04262               2.00      200.00
04263               2.00      400.00
04264               0.00      200.00
04265               2.00      400.00
04266               2.00      400.00
04267               0.00      400.00
04268              -8.00      600.00
04269              -2.00      800.00
04270               2.00      800.00
04271              54.00      800.00
04272             174.00     1000.00
04273               0.00     1200.00
04274            -254.00      800.00
04275            -224.00     1000.00
04276             246.00     1200.00
04277             246.00     1400.00
04278            -254.00      800.00
04279            -254.00     1200.00
04280             246.00     1600.00
04281             246.00     1400.00
04282            -254.00     1200.00
04283             -94.00     1600.00
04284             246.00     1800.00
04285            -110.00     1400.00
04286            -254.00     1600.00
04287             170.00     2000.00
04288              20.00     1800.00
04289             -96.00     1800.00
04290             144.00     2000.00
04291             -40.00     1800.00
04292            -144.00     2000.00
04293             128.00     2400.00
04294               6.00     2200.00
04295             -80.00     2200.00
04296             102.00     2400.00
04297             -92.00     2400.00
04298             -58.00     2600.00
04299             200.00     2600.00
04300             -96.00     2400.00
04301            -160.00     2800.00
04302             176.00     2800.00
04303               8.00     2600.00
04304            -118.00     2800.00
04305              72.00     2800.00
04306             -24.00     2800.00
04307             -34.00     3200.00
04308              72.00     3200.00
04309             -58.00     3000.00
04310             -12.00     3200.00
04311              40.00     3200.00
04312             -52.00     3200.00
04313              22.00     3200.00
04314              24.00     3400.00
04315             -68.00     3200.00
04316              22.00     3400.00
04317              18.00     3400.00
04318             -44.00     3400.00
04319              10.00     3600.00
04320               8.00     3600.00
04321             -16.00     3600.00
04322             -10.00     3600.00
04323             -16.00     3600.00
04324               8.00     3600.00
04325               8.00     3800.00
04326             -26.00     3800.00
04327               0.00     3800.00
04328               4.00     4000.00
04329             -24.00     4000.00
04330               0.00     3800.00
04331              10.00     4200.00
04332             -12.00     4000.00
04333             -10.00     4200.00
04334               2.00     4000.00
04335              -8.00     4000.00
04336             -10.00     4200.00
04337              -6.00     4000.00
04338              -2.00     4200.00
04339               2.00     4200.00
04340              -6.00     4200.00
04341             -14.00     4000.00
04342               0.00     4200.00
04343              -6.00     4200.00
04344              -8.00     4200.00
04345               6.00     4400.00
04346              -6.00     4200.00
04347             -16.00     4200.00
04348              -2.00     4400.00
04349              -2.00     4200.00
04350               0.00     4200.00
04351               0.00     4400.00
04352              -8.00     4400.00
04353             -10.00     4200.00
04354              -8.00     4400.00
04355              -2.00     4400.00
04356               8.00     4400.00
04357               0.00     4200.00
04358             -14.00     4400.00
04359             -10.00     4400.00
04360              -6.00     4400.00
04361              -2.00     4400.00
04362              -6.00     4400.00
04363              -2.00     4400.00
04364             -10.00     4400.00
04365             -10.00     4400.00
04366              -2.00     4200.00
04367               8.00     4400.00
04368               4.00     4400.00
04369              -8.00     4200.00
04370             -14.00     4200.00
04371             -10.00     4200.00
04372              -6.00     4200.00
04373               2.00     4200.00
04374               0.00     4200.00
04375              -8.00     4000.00
04376             -10.00     4200.00
04377              -2.00     4200.00
04378              -2.00     4200.00
04379              -6.00     4000.00
04380              -6.00     4200.00
04381              -6.00     4000.00
04382             -10.00     4000.00
04383             -14.00     4000.00
04384              -6.00     4000.00
04385               2.00     4000.00
04386               0.00     4000.00
04387              -2.00     3800.00
04388             -10.00     3800.00
04389              -8.00     3600.00
04390             -10.00     3800.00
04391              -8.00     3600.00
04392              -2.00     3600.00
04393              -2.00     3600.00
04394              -6.00     3600.00
04395             -14.00     3600.00
04396             -10.00     3600.00
04397               0.00     3400.00
04398               4.00     3400.00
04399              -6.00     3400.00
04400             -10.00     3400.00
04401             -10.00     3400.00
04402              -6.00     3400.00
04403              -4.00     3200.00
04404               0.00     3200.00
04405               2.00     3200.00
04406               0.00     3200.00
04407             -10.00     3200.00
04408             -10.00     3000.00
04409              -6.00     3000.00
04410              -2.00     2800.00
04411              -4.00     2800.00
04412              -2.00     2800.00
04413              -6.00     2800.00
04414              -8.00     2600.00
04415              -6.00     2400.00
04416               2.00     2600.00
04417               0.00     2600.00
04418              -2.00     2400.00
04419              -6.00     2600.00
04420              -4.00     2400.00
04421              -6.00     2400.00
04422              -6.00     2200.00
04423              -2.00     2000.00
04424               0.00     2000.00
04425              -2.00     2000.00
04426              -2.00     2000.00
04427              -2.00     1800.00
04428              -6.00     1800.00
04429              -6.00     2000.00
04430              -6.00     1800.00
04431               0.00     1800.00
04432               0.00     1600.00
04433               0.00     1600.00
04434              -6.00     1600.00
04435             -10.00     1200.00
04436             -10.00     1400.00
04437               2.00     1200.00
04438               8.00     1200.00
04439              -2.00     1200.00
04440             -10.00     1200.00
04441             -14.00     1000.00
04442              -6.00     1000.00
04443               0.00     1000.00
04444              -2.00     1000.00
04445               0.00     1000.00
04446               0.00      800.00
04447              -8.00      600.00
04448             -10.00      600.00
04449              -6.00      600.00
04450               0.00      400.00
04451              -2.00      400.00
04452              -8.00      400.00
04453              -8.00      200.00
04454               2.00      200.00
04455               2.00        0.00
04456               0.00        0.00
04457               2.00        0.00
04458              -8.00     -400.00
04459             -10.00        0.00
04460              -2.00     -200.00
04461              10.00     -400.00
04462              14.00     -400.00
04463              48.00     -400.00
04464             134.00     -600.00
04465             -14.00     -800.00
04466            -254.00     -800.00
04467            -248.00     -400.00
04468             246.00     -600.00
04469             246.00     -800.00
04470            -254.00    -1200.00
04471            -254.00     -800.00
04472             246.00    -1200.00
04473             246.00    -1000.00
04474            -254.00    -1000.00
04475            -238.00    -1200.00
04476             246.00    -1200.00
04477              78.00    -1200.00
04478            -142.00    -1400.00
04479             -22.00    -1600.00
04480             -80.00    -1400.00
04481               2.00    -1600.00
04482             224.00    -1600.00
04483             -48.00    -1600.00
04484            -216.00    -1600.00
04485              42.00    -2000.00
04486             136.00    -1800.00
04487             -26.00    -1800.00
04488             -40.00    -2000.00
04489             -58.00    -2000.00
04490              16.00    -2000.00
04491             122.00    -2200.00
04492             -58.00    -2400.00
04493            -122.00    -2200.00
04494              64.00    -2400.00
04495              86.00    -2400.00
04496             -50.00    -2400.00
04497             -24.00    -2600.00
04498              -2.00    -2600.00
04499              10.00    -2600.00
04500              24.00    -2800.00
04501             -16.00    -2800.00
04502             -34.00    -2800.00
04503              16.00    -2800.00
04504              28.00    -2800.00
04505             -14.00    -3000.00
04506             -22.00    -3000.00
04507             -10.00    -3200.00
04508              10.00    -3000.00
04509              14.00    -3000.00
04510             -10.00    -3000.00
04511             -20.00    -3200.00
04512              16.00    -3200.00
04513              10.00    -3200.00
04514             -28.00    -3200.00
04515             -10.00    -3200.00
04516              16.00    -3400.00
04517               6.00    -3400.00
04518              -6.00    -3600.00
04519              -8.00    -3200.00
04520              -8.00    -3600.00
04521              -2.00    -3600.00
04522               6.00    -3400.00
04523               2.00    -3600.00
04524              -2.00    -3600.00
04525              -6.00    -3800.00
04526              -2.00    -3600.00
04527               0.00    -3800.00
04528             -10.00    -3600.00
04529              -2.00    -3800.00
04530              10.00    -3800.00
04531               0.00    -3800.00
04532              -6.00    -3800.00
04533              -2.00    -3800.00
04534               0.00    -3800.00
04535              -2.00    -3800.00
04536               0.00    -3800.00
04537               0.00    -4000.00
04538               0.00    -3800.00
04539               0.00    -4000.00
04540              -6.00    -3800.00
04541              -2.00    -3800.00
04542               0.00    -4000.00
04543              -2.00    -3800.00
04544               6.00    -4000.00
04545               2.00    -3800.00
04546              -6.00    -4000.00
04547              -6.00    -3800.00
04548               0.00    -4000.00
04549               0.00    -4000.00
04550               0.00    -3800.00
04551               0.00    -3800.00
04552               0.00    -4000.00
04553              -2.00    -3800.00
04554               0.00    -3800.00
04555               0.00    -4000.00
04556               2.00    -4000.00
04557               0.00    -3800.00
04558               0.00    -4000.00
04559               0.00    -3800.00
04560              -2.00    -3600.00
04561              -2.00    -4000.00
04562               0.00    -3800.00
04563               2.00    -3600.00
04564               0.00    -3800.00
04565               0.00    -4000.00
04566              -2.00    -3800.00
04567              -2.00    -3600.00
04568               0.00    -3600.00
04569               4.00    -3800.00
04570               2.00    -3800.00
04571               0.00    -3600.00
04572              -2.00    -3600.00
04573              -2.00    -3600.00
04574              -6.00    -3600.00
04575               0.00    -3600.00
04576               0.00    -3600.00
04577               0.00    -3600.00
04578              -2.00    -3600.00
04579              -2.00    -3600.00
04580              -2.00    -3600.00
04581              -2.00    -3200.00
04582               0.00    -3400.00
04583               2.00    -3400.00
04584              -2.00    -3200.00
04585              -2.00    -3200.00
04586              -2.00    -3200.00
04587              -6.00    -3200.00
04588               0.00    -3200.00
04589               0.00    -3200.00
04590               0.00    -3000.00
04591               0.00    -3000.00
04592              -4.00    -3000.00
04593              -8.00    -3000.00
04594              -2.00    -2800.00
04595              -2.00    -2800.00
04596               0.00    -2800.00
04597               0.00    -2800.00
04598               0.00    -2800.00
04599              -6.00    -2800.00
04600              -2.00    -2600.00
04601              -2.00    -2600.00
04602               0.00    -2600.00
04603               0.00    -2400.00
04604               0.00    -2400.00
04605               0.00    -2400.00
04606              -2.00    -2400.00
04607              -6.00    -2200.00
04608              -2.00    -2200.00
04609               0.00    -2000.00
04610               0.00    -2000.00
04611              -2.00    -2000.00
04612              -2.00    -2000.00
04613              -2.00    -2000.00
04614              -2.00    -1800.00
04615               0.00    -1800.00
04616              -2.00    -1600.00
04617               0.00    -1600.00
04618               0.00    -1600.00
04619              -2.00    -1600.00
04620              -4.00    -1400.00
04621              -2.00    -1400.00
04622              -2.00    -1200.00
04623               0.00    -1200.00
04624              -2.00    -1000.00
04625              -2.00    -1000.00
04626              -2.00    -1000.00
04627              -2.00    -1000.00
04628               0.00     -800.00
04629               0.00     -800.00
04630               0.00     -800.00
04631               0.00     -600.00
04632              -2.00     -800.00
04633               0.00     -600.00
04634              -2.00     -600.00
04635              -2.00     -600.00
04636              -2.00     -400.00
04637              -2.00     -400.00
04638               0.00     -200.00
04639              -2.00        0.00
04640              -6.00     -200.00
04641              -6.00        0.00
04642              -2.00        0.00
04643              -2.00        0.00
04644              -2.00      200.00
04645              -2.00      200.00
04646               0.00      200.00
04647              -2.00      200.00
04648               0.00      400.00
04649               6.00      400.00
04650              -2.00      400.00
04651              -6.00      600.00
04652              -6.00      600.00
04653               0.00      800.00
04654              46.00      800.00
04655             168.00     1000.00
04656              26.00     1000.00
04657            -254.00      800.00
04658            -254.00     1000.00
04659             246.00     1400.00
04660             246.00     1200.00
04661            -254.00     1000.00
04662            -254.00     1200.00
04663             246.00     1600.00
04664             246.00     1600.00
04665            -254.00     1200.00
04666            -158.00     1800.00
04667             246.00     1800.00
04668             -56.00     1400.00
04669            -254.00     1600.00
04670             146.00     2000.00
04671              42.00     1800.00
04672            -106.00     1800.00
04673             134.00     2000.00
04674             -14.00     2000.00
04675            -160.00     2000.00
04676             116.00     2400.00
04677              28.00     2400.00
04678             -94.00     2400.00
04679              94.00     2600.00
04680             -70.00     2200.00
04681             -80.00     2600.00
04682             198.00     2600.00
04683             -66.00     2400.00
04684            -180.00     2600.00
04685             166.00     2800.00
04686              40.00     2800.00
04687            -124.00     2600.00
04688              62.00     3000.00
04689             -16.00     2800.00
04690             -42.00     3000.00
04691              74.00     3200.00
04692             -48.00     3200.00
04693             -26.00     3200.00
04694              42.00     3400.00
04695             -46.00     3200.00
04696              24.00     3400.00
04697              32.00     3400.00
04698             -80.00     3200.00
04699               8.00     3600.00
04700              38.00     3400.00
04701             -32.00     3400.00
04702              -2.00     3600.00
04703               2.00     3600.00
04704             -22.00     3600.00
04705              -6.00     3600.00
04706              -8.00     3600.00
04707              14.00     3800.00
04708              10.00     3600.00
04709             -28.00     3800.00
04710             -10.00     3800.00
04711               6.00     4000.00
04712             -18.00     4000.00
04713               0.00     3800.00
04714              16.00     4000.00
04715             -10.00     4000.00
04716             -22.00     4000.00
04717              -2.00     4000.00
04718              -2.00     4200.00
04719              -6.00     4000.00
04720               0.00     4000.00
04721              -8.00     4000.00
04722              -8.00     4200.00
04723             -10.00     4200.00
04724              -2.00     4200.00
04725               6.00     4200.00
04726             -10.00     4200.00
04727             -16.00     4200.00
04728               2.00     4200.00
04729               0.00     4200.00
04730              -6.00     4200.00
04731               0.00     4200.00
04732              -8.00     4400.00
04733             -10.00     4200.00
04734              -6.00     4200.00
04735               2.00     4400.00
04736               2.00     4400.00
04737              -6.00     4400.00
04738             -10.00     4400.00
04739              -6.00     4400.00
04740              -2.00     4400.00
04741              -2.00     4200.00
04742               2.00     4400.00
04743              -2.00     4400.00
04744             -10.00     4400.00
04745             -10.00     4200.00
04746              -4.00     4400.00
04747              -2.00     4200.00
04748               0.00     4400.00
04749               0.00     4400.00
04750               0.00     4400.00
04751             -10.00     4400.00
04752             -10.00     4400.00
04753              -2.00     4200.00
04754               0.00     4200.00
04755              -2.00     4200.00
04756               0.00     4400.00
04757              -6.00     4200.00
04758             -10.00     4200.00
04759              -6.00     4200.00
04760               0.00     4200.00
04761               0.00     4200.00
04762              -6.00     4200.00
04763              -6.00     4000.00
04764              -6.00     4000.00
04765              -6.00     4000.00
04766              -8.00     4000.00
04767              -2.00     3800.00
04768              -2.00     4000.00
04769              -6.00     4000.00
04770              -6.00     4000.00
04771              -2.00     3800.00
04772              -8.00     3800.00
04773              -8.00     3600.00
04774              -2.00     3600.00
04775              -4.00     3600.00
04776              -8.00     3600.00
04777              -4.00     3800.00
04778              -6.00     3600.00
04779              -8.00     3600.00
04780              -8.00     3600.00
04781               0.00     3400.00
04782              -6.00     3400.00
04783              -6.00     3400.00
04784              -8.00     3400.00
04785              -4.00     3400.00
04786              -8.00     3200.00
04787              -4.00     3200.00
04788              -2.00     3200.00
04789              -2.00     3200.00
04790              -8.00     3200.00
04791              -8.00     3200.00
04792              -8.00     2800.00
04793              -2.00     3000.00
04794              -6.00     2800.00
04795              -4.00     2800.00
04796              -2.00     2800.00
04797              -6.00     2800.00
04798              -8.00     2600.00
04799              -2.00     2600.00
04800              -4.00     2400.00
04801              -2.00     2600.00
04802              -2.00     2400.00
04803              -6.00     2400.00
04804              -6.00     2400.00
04805              -6.00     2200.00
04806              -6.00     2000.00
04807              -2.00     2000.00
04808              -2.00     2000.00
04809              -2.00     1800.00
04810              -2.00     2000.00
04811              -2.00     1800.00
04812              -8.00     1800.00
04813              -4.00     1800.00
04814              -2.00     1800.00
04815              -2.00     1600.00
04816              -2.00     1600.00
04817              -2.00     1600.00
04818              -4.00     1600.00
04819              -6.00     1400.00
04820              -2.00     1600.00
04821               0.00     1200.00
04822              -2.00     1200.00
04823              -6.00     1200.00
04824              -6.00     1000.00
04825              -2.00     1000.00
04826              -6.00     1000.00
04827              -2.00      800.00
04828               0.00      800.00
04829               0.00      800.00
04830              -6.00      600.00
04831              -2.00      600.00
04832              -6.00      400.00
04833              -2.00      400.00
04834              -4.00      400.00
04835              -8.00      400.00
04836              -4.00      200.00
04837               0.00      200.00
04838               0.00        0.00
04839               0.00      200.00
04840               2.00        0.00
04841               2.00        0.00
04842              -6.00     -200.00
04843             -10.00     -200.00
04844              -2.00     -200.00
04845               8.00     -400.00
04846              48.00     -200.00
04847             146.00     -400.00
04848              16.00     -800.00
04849            -254.00     -800.00
04850            -254.00     -600.00
04851             246.00     -600.00
04852             246.00     -800.00
04853            -254.00    -1000.00
04854            -254.00     -800.00
04855             246.00    -1200.00
04856             246.00    -1000.00
04857            -254.00    -1200.00
04858            -254.00    -1000.00
04859             246.00    -1400.00
04860             112.00    -1000.00
04861            -144.00    -1400.00
04862             -32.00    -1400.00
04863             -74.00    -1600.00
04864             -16.00    -1400.00
04865             222.00    -1800.00
04866             -14.00    -1600.00
04867            -224.00    -1800.00
04868              18.00    -2000.00
04869             146.00    -1600.00
04870             -22.00    -2000.00
04871             -38.00    -2000.00
04872             -62.00    -2200.00
04873               2.00    -2000.00
04874             124.00    -2400.00
04875             -34.00    -2400.00
04876            -128.00    -2200.00
04877              52.00    -2400.00
04878              88.00    -2400.00
04879             -50.00    -2400.00
04880             -28.00    -2400.00
04881              -2.00    -2400.00
04882              10.00    -2400.00
04883              22.00    -2600.00
04884             -10.00    -2800.00
04885             -40.00    -2800.00
04886              10.00    -2800.00
04887              30.00    -2800.00
04888              -8.00    -3000.00
04889             -16.00    -3000.00
04890              -8.00    -3000.00
04891              10.00    -3000.00
04892              14.00    -3000.00
04893              -8.00    -3000.00
04894             -22.00    -3000.00
04895              16.00    -3200.00
04896              14.00    -3200.00
04897             -26.00    -3200.00
04898             -14.00    -3200.00
04899              16.00    -3400.00
04900               8.00    -3400.00
04901             -10.00    -3400.00
04902              -2.00    -3600.00
04903             -10.00    -3600.00
04904              -2.00    -3600.00
04905               6.00    -3600.00
04906               2.00    -3800.00
04907              -2.00    -3600.00
04908              -6.00    -3600.00
04909              -2.00    -3600.00
04910               0.00    -3600.00
04911              -6.00    -3800.00
04912              -4.00    -3800.00
04913               8.00    -3800.00
04914               0.00    -3800.00
04915             -10.00    -3800.00
04916              -2.00    -4000.00
04917              -2.00    -3800.00
04918              -2.00    -3800.00
04919              -2.00    -3800.00
04920               0.00    -3800.00
04921               0.00    -3800.00
04922              -6.00    -3800.00
04923              -6.00    -4000.00
04924              -2.00    -3800.00
04925               0.00    -3800.00
04926               0.00    -3800.00
04927               6.00    -3800.00
04928               2.00    -4000.00
04929             -10.00    -3800.00
04930              -6.00    -3800.00
04931               0.00    -4000.00
04932               2.00    -3800.00
04933               0.00    -4000.00
04934               0.00    -4000.00
04935              -2.00    -4000.00
04936              -4.00    -3800.00
04937              -2.00    -3800.00
04938               0.00    -4000.00
04939               2.00    -4000.00
04940               0.00    -3800.00
04941               0.00    -3800.00
04942               0.00    -3800.00
04943              -2.00    -3800.00
04944              -6.00    -3800.00
04945              -2.00    -3800.00
04946               2.00    -3600.00
04947               0.00    -3800.00
04948               0.00    -3800.00
04949              -2.00    -3800.00
04950              -6.00    -3800.00
04951               0.00    -3800.00
04952               2.00    -3800.00
04953               2.00    -3800.00
04954               0.00    -3600.00
04955              -2.00    -3600.00
04956              -4.00    -3600.00
04957              -6.00    -3600.00
04958               0.00    -3600.00
04959               2.00    -3600.00
04960               6.00    -3600.00
04961               0.00    -3400.00
04962              -2.00    -3600.00
04963              -6.00    -3600.00
04964              -2.00    -3400.00
04965              -2.00    -3400.00
04966               2.00    -3200.00
04967               0.00    -3200.00
04968               0.00    -3200.00
04969              -6.00    -3200.00
04970              -2.00    -3000.00
04971              -2.00    -3000.00
04972              -2.00    -3200.00
04973               0.00    -3000.00
04974               0.00    -3000.00
04975              -4.00    -3000.00
04976              -6.00    -2800.00
04977              -2.00    -3000.00
04978              -2.00    -2800.00
04979               0.00    -2800.00
04980               0.00    -2800.00
04981              -2.00    -2800.00
04982              -6.00    -2800.00
04983              -6.00    -2600.00
04984              -2.00    -2600.00
04985              -2.00    -2400.00
04986              -2.00    -2400.00
04987               2.00    -2400.00
04988               0.00    -2400.00
04989              -6.00    -2200.00
04990              -8.00    -2400.00
04991              -6.00    -2000.00
04992               0.00    -2200.00
04993               0.00    -2000.00
04994               0.00    -2000.00
04995              -2.00    -2000.00
04996              -6.00    -2000.00
04997              -2.00    -2000.00
04998              -2.00    -1600.00
04999               0.00    -1600.00
05000              -2.00    -1600.00
