Unit:(mV)
                     CH1         CH2
Frequency              ? 260.899 kHz
00001              -6.00     1000.00
00002             -10.00      800.00
00003             -12.00      600.00
00004             -10.00      600.00
00005              -6.00      400.00
00006              -4.00        0.00
00007              -2.00        0.00
00008              -6.00     -200.00
00009              26.00     -400.00
00010              16.00     -600.00
00011             -28.00     -800.00
00012             -28.00    -1000.00
00013              10.00    -1000.00
00014              22.00    -1400.00
00015              90.00    -1400.00
00016             250.00    -1800.00
00017             -36.00    -2400.00
00018            -250.00    -2400.00
00019            -250.00    -2600.00
00020             198.00    -2600.00
00021             250.00    -2000.00
00022             250.00    -3000.00
00023            -250.00    -3200.00
00024            -250.00    -2600.00
00025             250.00    -4200.00
00026             110.00    -3400.00
00027            -250.00    -3600.00
00028            -250.00    -4600.00
00029            -106.00    -3200.00
00030             250.00    -4600.00
00031             -34.00    -4600.00
00032            -250.00    -4200.00
00033            -100.00    -5800.00
00034             106.00    -4000.00
00035             250.00    -5400.00
00036            -196.00    -5800.00
00037            -250.00    -4800.00
00038              62.00    -6600.00
00039             102.00    -5600.00
00040             230.00    -6200.00
00041            -250.00    -6400.00
00042            -174.00    -5800.00
00043             246.00    -7200.00
00044              84.00    -6200.00
00045             -64.00    -7200.00
00046            -188.00    -7000.00
00047             -22.00    -7000.00
00048             222.00    -7800.00
00049              58.00    -6800.00
00050            -158.00    -8000.00
00051            -102.00    -7600.00
00052              60.00    -8000.00
00053             126.00    -8400.00
00054             -18.00    -8000.00
00055             -92.00    -8200.00
00056             -44.00    -8200.00
00057              84.00    -8600.00
00058              66.00    -8400.00
00059             -84.00    -8800.00
00060             -36.00    -9000.00
00061              20.00    -9000.00
00062              50.00    -9200.00
00063              18.00    -9200.00
00064             -52.00    -9600.00
00065             -30.00    -9400.00
00066              36.00    -9600.00
00067              26.00    -9800.00
00068             -10.00   -10000.00
00069             -12.00    -9800.00
00070             -12.00    -9800.00
00071              26.00   -10000.00
00072              10.00   -10000.00
00073             -14.00   -10400.00
00074             -12.00   -10400.00
00075               6.00   -10600.00
00076              20.00   -10600.00
00077               6.00   -10600.00
00078             -10.00   -10600.00
00079              -6.00   -10800.00
00080              10.00   -10800.00
00081               6.00   -10800.00
00082              -2.00   -10800.00
00083              -2.00   -10800.00
00084               8.00   -11200.00
00085               4.00   -11000.00
00086               4.00   -11200.00
00087              -6.00   -11200.00
00088              -6.00   -11400.00
00089              14.00   -11400.00
00090              10.00   -11400.00
00091               0.00   -11400.00
00092              -4.00   -11400.00
00093              -6.00   -11600.00
00094               2.00   -11400.00
00095              10.00   -11600.00
00096               4.00   -11400.00
00097               4.00   -11600.00
00098               2.00   -11800.00
00099              -4.00   -11600.00
00100              -4.00   -11600.00
00101               4.00   -11600.00
00102               6.00   -11600.00
00103               6.00   -11600.00
00104               8.00   -11600.00
00105              -2.00   -11600.00
00106              -4.00   -11600.00
00107              -2.00   -11600.00
00108               2.00   -11400.00
00109              10.00   -11400.00
00110               6.00   -11600.00
00111               2.00   -11600.00
00112               2.00   -11400.00
00113              -2.00   -11400.00
00114               4.00   -11400.00
00115               4.00   -11400.00
00116               4.00   -11000.00
00117               8.00   -11000.00
00118               4.00   -11200.00
00119              -4.00   -11000.00
00120               0.00   -11000.00
00121               8.00   -11000.00
00122              10.00   -10800.00
00123               6.00   -10800.00
00124              -2.00   -10800.00
00125               2.00   -10800.00
00126              10.00   -10800.00
00127               4.00   -10600.00
00128               2.00   -10600.00
00129               4.00   -10400.00
00130               8.00   -10400.00
00131              10.00   -10200.00
00132               2.00   -10000.00
00133              -2.00   -10000.00
00134               6.00   -10000.00
00135              10.00    -9800.00
00136               4.00    -9800.00
00137               2.00    -9600.00
00138               4.00    -9600.00
00139               4.00    -9600.00
00140               4.00    -9600.00
00141               2.00    -9400.00
00142               4.00    -9200.00
00143              10.00    -9000.00
00144               6.00    -8800.00
00145               4.00    -8800.00
00146               2.00    -8800.00
00147               4.00    -8400.00
00148              10.00    -8400.00
00149               4.00    -8400.00
00150               4.00    -8200.00
00151              10.00    -8000.00
00152               6.00    -7800.00
00153               2.00    -8000.00
00154               2.00    -7600.00
00155               2.00    -7400.00
00156               4.00    -7400.00
00157              10.00    -7200.00
00158               2.00    -7200.00
00159              -2.00    -6800.00
00160              -4.00    -6800.00
00161               2.00    -6600.00
00162               4.00    -6400.00
00163              10.00    -6400.00
00164               2.00    -6000.00
00165               2.00    -6000.00
00166              -2.00    -6000.00
00167               4.00    -5600.00
00168               6.00    -5400.00
00169               2.00    -5200.00
00170               2.00    -5200.00
00171               4.00    -5000.00
00172               2.00    -4800.00
00173               0.00    -4600.00
00174              -2.00    -4400.00
00175               2.00    -4200.00
00176              12.00    -4200.00
00177               4.00    -4000.00
00178              -2.00    -3600.00
00179               2.00    -3400.00
00180               2.00    -3400.00
00181               4.00    -3200.00
00182               2.00    -2800.00
00183               0.00    -2800.00
00184               6.00    -2600.00
00185               4.00    -2400.00
00186              -2.00    -2400.00
00187              -2.00    -2000.00
00188               2.00    -1800.00
00189               6.00    -1600.00
00190               2.00    -1600.00
00191              -4.00    -1200.00
00192               2.00    -1000.00
00193               4.00     -800.00
00194               4.00     -800.00
00195               2.00     -400.00
00196               2.00     -400.00
00197               4.00     -200.00
00198               6.00        0.00
00199               2.00      200.00
00200              18.00      400.00
00201              34.00      600.00
00202               4.00      800.00
00203             -22.00      800.00
00204              -2.00     1200.00
00205              26.00     1200.00
00206              28.00     1400.00
00207              62.00     1600.00
00208             242.00     2000.00
00209             106.00     2200.00
00210            -250.00     2200.00
00211            -250.00     2400.00
00212             188.00     2600.00
00213             250.00     2600.00
00214             250.00     3200.00
00215              50.00     3200.00
00216            -250.00     3000.00
00217              68.00     3600.00
00218             250.00     3600.00
00219            -178.00     3800.00
00220            -250.00     4000.00
00221              -6.00     4200.00
00222             166.00     4600.00
00223             250.00     4400.00
00224            -154.00     4800.00
00225            -250.00     5000.00
00226              48.00     4800.00
00227             250.00     5600.00
00228              84.00     5200.00
00229            -234.00     5600.00
00230            -140.00     6000.00
00231              94.00     5600.00
00232             174.00     6400.00
00233             -20.00     6200.00
00234            -222.00     6200.00
00235              10.00     6800.00
00236             218.00     6600.00
00237              -6.00     7000.00
00238            -156.00     7000.00
00239             -86.00     7200.00
00240              70.00     7400.00
00241             172.00     7400.00
00242             -44.00     7800.00
00243            -178.00     7800.00
00244               4.00     8200.00
00245              94.00     8200.00
00246              40.00     8200.00
00247             -54.00     8600.00
00248             -82.00     8600.00
00249              26.00     8600.00
00250              90.00     8800.00
00251             -30.00     8800.00
00252             -86.00     8800.00
00253              -4.00     9200.00
00254              46.00     9200.00
00255              34.00     9200.00
00256             -28.00     9600.00
00257             -62.00     9600.00
00258               0.00     9600.00
00259              42.00     9800.00
00260             -10.00     9800.00
00261             -30.00    10000.00
00262              -6.00    10200.00
00263              12.00    10200.00
00264              18.00    10400.00
00265             -22.00    10400.00
00266             -30.00    10400.00
00267               6.00    10600.00
00268              10.00    10600.00
00269              -6.00    10600.00
00270             -26.00    10800.00
00271             -28.00    11000.00
00272              -2.00    11000.00
00273               4.00    11000.00
00274              -4.00    10800.00
00275               2.00    11000.00
00276              10.00    11000.00
00277              -2.00    11200.00
00278             -20.00    11200.00
00279             -22.00    11200.00
00280             -20.00    11200.00
00281              -2.00    11600.00
00282               4.00    11600.00
00283             -10.00    11600.00
00284             -12.00    11600.00
00285             -12.00    11600.00
00286              -6.00    11600.00
00287               4.00    11600.00
00288              -4.00    11600.00
00289             -18.00    11600.00
00290             -18.00    11600.00
00291             -20.00    11600.00
00292             -12.00    11600.00
00293              -4.00    11600.00
00294              -6.00    11600.00
00295              -4.00    11600.00
00296               0.00    11600.00
00297             -10.00    11600.00
00298             -22.00    11600.00
00299             -22.00    11600.00
00300             -14.00    11600.00
00301              -2.00    11400.00
00302              -4.00    11600.00
00303             -14.00    11600.00
00304             -14.00    11200.00
00305             -12.00    11200.00
00306             -12.00    11200.00
00307              -6.00    11400.00
00308              -6.00    11200.00
00309              -4.00    11200.00
00310             -12.00    11200.00
00311             -18.00    11000.00
00312             -18.00    11200.00
00313             -10.00    11000.00
00314              -4.00    11000.00
00315              -6.00    11000.00
00316             -10.00    10800.00
00317             -12.00    10800.00
00318             -12.00    10800.00
00319             -14.00    10400.00
00320             -14.00    10400.00
00321             -10.00    10400.00
00322              -6.00    10400.00
00323             -12.00    10400.00
00324             -14.00    10200.00
00325             -18.00    10000.00
00326             -10.00    10000.00
00327             -10.00     9800.00
00328              -8.00    10000.00
00329             -10.00     9600.00
00330             -12.00     9600.00
00331             -12.00     9400.00
00332             -14.00     9400.00
00333             -14.00     9200.00
00334              -4.00     9200.00
00335              -6.00     9200.00
00336             -12.00     8800.00
00337             -12.00     8800.00
00338             -14.00     8800.00
00339             -12.00     8600.00
00340             -12.00     8400.00
00341             -12.00     8400.00
00342              -4.00     8000.00
00343              -6.00     8200.00
00344             -12.00     7800.00
00345             -18.00     7800.00
00346             -18.00     7600.00
00347              -8.00     7400.00
00348              -2.00     7200.00
00349              -6.00     7000.00
00350             -12.00     7000.00
00351             -16.00     6800.00
00352             -16.00     6800.00
00353             -12.00     6400.00
00354              -6.00     6400.00
00355              -6.00     6200.00
00356             -10.00     6200.00
00357             -14.00     6000.00
00358             -14.00     5800.00
00359             -10.00     5600.00
00360             -10.00     5400.00
00361              -8.00     5200.00
00362              -6.00     5000.00
00363             -10.00     4800.00
00364             -10.00     4800.00
00365             -14.00     4600.00
00366             -18.00     4400.00
00367              -4.00     4200.00
00368              -4.00     4000.00
00369             -10.00     3800.00
00370             -12.00     3600.00
00371             -12.00     3600.00
00372             -10.00     3200.00
00373             -12.00     3200.00
00374             -12.00     3000.00
00375              -6.00     2800.00
00376              -4.00     2600.00
00377             -10.00     2400.00
00378             -12.00     2200.00
00379             -12.00     2200.00
00380              -6.00     1800.00
00381              -4.00     1600.00
00382              -8.00     1400.00
00383             -12.00     1200.00
00384              -6.00     1000.00
00385             -10.00      800.00
00386             -10.00      600.00
00387             -10.00      600.00
00388              -6.00      400.00
00389              -2.00        0.00
00390              -6.00        0.00
00391              -6.00     -200.00
00392              18.00     -400.00
00393              26.00     -600.00
00394             -16.00     -800.00
00395             -30.00    -1000.00
00396              -2.00    -1000.00
00397              20.00    -1400.00
00398              46.00    -1400.00
00399             250.00    -1600.00
00400             144.00    -2200.00
00401            -250.00    -2400.00
00402            -250.00    -2400.00
00403              90.00    -2600.00
00404             250.00    -2400.00
00405             250.00    -2800.00
00406            -250.00    -3400.00
00407            -250.00    -2600.00
00408             250.00    -3800.00
00409             250.00    -3800.00
00410            -250.00    -3000.00
00411            -204.00    -4600.00
00412            -250.00    -3400.00
00413             250.00    -4000.00
00414             250.00    -5200.00
00415            -250.00    -3800.00
00416            -160.00    -5600.00
00417               4.00    -4600.00
00418             250.00    -4600.00
00419              54.00    -5800.00
00420            -250.00    -4400.00
00421              14.00    -6400.00
00422              68.00    -5800.00
00423             242.00    -5600.00
00424            -102.00    -6800.00
00425            -250.00    -5600.00
00426             190.00    -7000.00
00427             154.00    -6400.00
00428             -28.00    -6800.00
00429            -164.00    -7400.00
00430            -108.00    -6600.00
00431             186.00    -7600.00
00432             134.00    -7200.00
00433            -120.00    -7400.00
00434            -138.00    -8000.00
00435              12.00    -7600.00
00436             130.00    -8200.00
00437              28.00    -8000.00
00438             -90.00    -8400.00
00439             -70.00    -8400.00
00440              46.00    -8400.00
00441             100.00    -8800.00
00442             -54.00    -8800.00
00443             -62.00    -9000.00
00444               6.00    -9200.00
00445              42.00    -9200.00
00446              38.00    -9200.00
00447             -38.00    -9400.00
00448             -50.00    -9600.00
00449              20.00    -9600.00
00450              36.00    -9600.00
00451              -6.00    -9600.00
00452             -12.00    -9800.00
00453             -18.00   -10000.00
00454              18.00   -10200.00
00455              20.00   -10200.00
00456             -12.00   -10400.00
00457             -18.00   -10400.00
00458              -2.00   -10400.00
00459              20.00   -10600.00
00460              10.00   -10600.00
00461              -6.00   -10600.00
00462             -10.00   -10600.00
00463               4.00   -10800.00
00464              10.00   -10600.00
00465               0.00   -10800.00
00466              -4.00   -11000.00
00467               6.00   -11000.00
00468               4.00   -11000.00
00469               2.00   -11200.00
00470              -2.00   -11200.00
00471              -6.00   -11400.00
00472              12.00   -11200.00
00473              10.00   -11400.00
00474              -2.00   -11400.00
00475               0.00   -11600.00
00476               2.00   -11400.00
00477               4.00   -11600.00
00478               6.00   -11400.00
00479               2.00   -11400.00
00480               4.00   -11600.00
00481               6.00   -11400.00
00482              -2.00   -11600.00
00483              -4.00   -11600.00
00484               4.00   -11600.00
00485               6.00   -11600.00
00486               6.00   -11600.00
00487               6.00   -11400.00
00488               0.00   -11600.00
00489              -2.00   -11600.00
00490               4.00   -11600.00
00491               2.00   -11400.00
00492               4.00   -11400.00
00493               2.00   -11600.00
00494               2.00   -11400.00
00495               4.00   -11600.00
00496               4.00   -11200.00
00497               2.00   -11400.00
00498               2.00   -11200.00
00499               2.00   -11200.00
00500               6.00   -11200.00
00501              10.00   -11200.00
00502              -2.00   -11000.00
00503              -2.00   -11200.00
00504               4.00   -11000.00
00505               6.00   -10800.00
00506               4.00   -10800.00
00507               2.00   -10800.00
00508               2.00   -10800.00
00509               6.00   -10800.00
00510               2.00   -10600.00
00511               2.00   -10600.00
00512               6.00   -10600.00
00513              10.00   -10400.00
00514               4.00   -10200.00
00515               2.00   -10200.00
00516               2.00   -10000.00
00517               4.00   -10000.00
00518              10.00    -9800.00
00519               6.00    -9800.00
00520               4.00    -9600.00
00521               4.00    -9600.00
00522               4.00    -9600.00
00523               6.00    -9400.00
00524               0.00    -9200.00
00525               4.00    -9200.00
00526              10.00    -9000.00
00527               8.00    -8800.00
00528               4.00    -8800.00
00529               2.00    -8800.00
00530               6.00    -8600.00
00531               4.00    -8400.00
00532               4.00    -8200.00
00533               6.00    -8200.00
00534               8.00    -8000.00
00535               6.00    -8000.00
00536               2.00    -7800.00
00537               2.00    -7600.00
00538               4.00    -7600.00
00539              10.00    -7400.00
00540               4.00    -7200.00
00541               2.00    -7000.00
00542               4.00    -6800.00
00543               4.00    -6600.00
00544               4.00    -6600.00
00545               4.00    -6400.00
00546               4.00    -6400.00
00547               6.00    -6000.00
00548               2.00    -6000.00
00549               0.00    -5800.00
00550               4.00    -5600.00
00551               6.00    -5600.00
00552               4.00    -5200.00
00553               2.00    -5200.00
00554               4.00    -5000.00
00555               2.00    -4800.00
00556               2.00    -4600.00
00557               2.00    -4400.00
00558               2.00    -4200.00
00559               6.00    -4200.00
00560               6.00    -4000.00
00561              -2.00    -3800.00
00562               0.00    -3600.00
00563               2.00    -3400.00
00564               4.00    -3000.00
00565               4.00    -3000.00
00566               0.00    -2800.00
00567              -2.00    -2800.00
00568               2.00    -2400.00
00569              -2.00    -2400.00
00570               2.00    -2000.00
00571               2.00    -1800.00
00572               2.00    -1800.00
00573              -2.00    -1600.00
00574              -2.00    -1200.00
00575               2.00    -1200.00
00576               4.00    -1000.00
00577               2.00     -800.00
00578               2.00     -600.00
00579               4.00     -400.00
00580               4.00     -200.00
00581               4.00        0.00
00582               2.00      200.00
00583              10.00      400.00
00584              36.00      600.00
00585              14.00      600.00
00586             -22.00      800.00
00587             -12.00     1200.00
00588              22.00     1200.00
00589              32.00     1400.00
00590              42.00     1600.00
00591             186.00     2000.00
00592             220.00     2200.00
00593            -250.00     2400.00
00594            -250.00     2200.00
00595              24.00     2400.00
00596             250.00     2600.00
00597             230.00     3000.00
00598             208.00     3200.00
00599            -250.00     3000.00
00600            -240.00     3600.00
00601             250.00     3600.00
00602              78.00     3600.00
00603            -250.00     4000.00
00604             -78.00     4000.00
00605             118.00     4400.00
00606             250.00     4600.00
00607              10.00     4600.00
00608            -250.00     5200.00
00609             -94.00     4800.00
00610             250.00     5400.00
00611             198.00     5600.00
00612            -190.00     5400.00
00613            -206.00     6000.00
00614              38.00     5600.00
00615             182.00     6200.00
00616              62.00     6200.00
00617            -206.00     6200.00
00618             -94.00     6600.00
00619             202.00     6600.00
00620              84.00     7000.00
00621            -142.00     7000.00
00622            -112.00     7000.00
00623              14.00     7400.00
00624             174.00     7400.00
00625              42.00     7800.00
00626            -182.00     7800.00
00627             -54.00     7800.00
00628              90.00     8200.00
00629              64.00     8200.00
00630             -30.00     8200.00
00631             -94.00     8400.00
00632             -16.00     8600.00
00633              94.00     8800.00
00634              14.00     8800.00
00635             -92.00     9000.00
00636             -32.00     9200.00
00637              36.00     9400.00
00638              46.00     9200.00
00639             -12.00     9400.00
00640             -62.00     9400.00
00641             -20.00     9600.00
00642              46.00     9800.00
00643               6.00    10000.00
00644             -30.00    10000.00
00645             -22.00    10000.00
00646               0.00    10200.00
00647              18.00    10200.00
00648             -12.00    10400.00
00649             -38.00    10400.00
00650              -6.00    10400.00
00651              18.00    10600.00
00652               4.00    10600.00
00653             -12.00    10800.00
00654             -22.00    10800.00
00655             -10.00    10800.00
00656               4.00    11000.00
00657             -10.00    11000.00
00658             -12.00    11000.00
00659               2.00    11000.00
00660              -4.00    11200.00
00661             -14.00    11200.00
00662             -14.00    11200.00
00663             -14.00    11400.00
00664              -2.00    11200.00
00665               2.00    11200.00
00666              -6.00    11600.00
00667             -12.00    11400.00
00668             -12.00    11200.00
00669             -14.00    11600.00
00670              -4.00    11600.00
00671              -4.00    11600.00
00672              -4.00    11600.00
00673              -6.00    11600.00
00674             -14.00    11600.00
00675             -16.00    11600.00
00676              -8.00    11600.00
00677              -6.00    11800.00
00678              -6.00    11600.00
00679              -4.00    11800.00
00680             -12.00    11600.00
00681             -14.00    11600.00
00682             -16.00    11600.00
00683             -12.00    11600.00
00684              -6.00    11600.00
00685              -6.00    11600.00
00686             -10.00    11200.00
00687             -12.00    11400.00
00688             -12.00    11400.00
00689             -16.00    11200.00
00690             -14.00    11200.00
00691             -10.00    11200.00
00692              -4.00    11200.00
00693              -6.00    11200.00
00694             -14.00    11200.00
00695             -18.00    11000.00
00696             -14.00    11200.00
00697              -6.00    11000.00
00698              -6.00    10800.00
00699             -10.00    10800.00
00700             -10.00    10800.00
00701             -12.00    10800.00
00702             -16.00    10800.00
00703             -18.00    10600.00
00704             -12.00    10400.00
00705              -2.00    10400.00
00706              -6.00    10400.00
00707             -18.00    10200.00
00708             -18.00    10200.00
00709             -12.00    10000.00
00710             -10.00    10000.00
00711              -6.00     9800.00
00712             -10.00     9600.00
00713             -10.00     9600.00
00714             -12.00     9600.00
00715             -18.00     9400.00
00716             -14.00     9400.00
00717              -6.00     9200.00
00718              -6.00     9000.00
00719              -8.00     9000.00
00720             -12.00     9000.00
00721             -14.00     8600.00
00722             -12.00     8600.00
00723             -12.00     8600.00
00724             -12.00     8400.00
00725              -6.00     8200.00
00726              -6.00     8000.00
00727             -12.00     8000.00
00728             -14.00     7800.00
00729             -14.00     7800.00
00730             -10.00     7600.00
00731              -4.00     7200.00
00732             -10.00     7000.00
00733             -10.00     7200.00
00734              -6.00     6800.00
00735             -14.00     6800.00
00736             -10.00     6400.00
00737             -12.00     6400.00
00738              -6.00     6200.00
00739              -4.00     6200.00
00740             -12.00     6000.00
00741             -14.00     5800.00
00742             -12.00     5600.00
00743             -10.00     5400.00
00744             -10.00     5200.00
00745             -10.00     5200.00
00746             -10.00     4800.00
00747              -6.00     4800.00
00748             -14.00     4600.00
00749             -16.00     4400.00
00750             -10.00     4400.00
00751              -6.00     4000.00
00752             -10.00     3800.00
00753             -10.00     3800.00
00754             -12.00     3400.00
00755             -12.00     3200.00
00756             -10.00     3200.00
00757             -14.00     2800.00
00758             -10.00     2600.00
00759              -2.00     2800.00
00760             -10.00     2400.00
00761             -14.00     2200.00
00762             -12.00     2200.00
00763             -10.00     1800.00
00764             -10.00     1600.00
00765              -6.00     1400.00
00766              -8.00     1400.00
00767              -6.00     1200.00
00768             -10.00      800.00
00769             -12.00      800.00
00770              -8.00      600.00
00771              -6.00      400.00
00772              -4.00      200.00
00773              -6.00        0.00
00774              -6.00     -200.00
00775              10.00     -400.00
00776              26.00     -400.00
00777              -6.00     -800.00
00778             -34.00    -1000.00
00779             -12.00    -1000.00
00780              16.00    -1400.00
00781              28.00    -1200.00
00782             190.00    -1600.00
00783             250.00    -2000.00
00784            -250.00    -2400.00
00785            -250.00    -2400.00
00786             -58.00    -2600.00
00787             250.00    -2400.00
00788             250.00    -2400.00
00789             -28.00    -3400.00
00790            -250.00    -2600.00
00791             250.00    -3400.00
00792             250.00    -4200.00
00793            -250.00    -3000.00
00794            -202.00    -4400.00
00795            -250.00    -4000.00
00796             250.00    -3600.00
00797             250.00    -5200.00
00798            -250.00    -3800.00
00799            -250.00    -5000.00
00800             -46.00    -5200.00
00801             250.00    -4000.00
00802             250.00    -6000.00
00803            -250.00    -4800.00
00804             -96.00    -5800.00
00805              70.00    -6200.00
00806             198.00    -5200.00
00807              72.00    -6800.00
00808            -250.00    -5800.00
00809              66.00    -6600.00
00810             216.00    -6800.00
00811               6.00    -6400.00
00812            -126.00    -7600.00
00813            -166.00    -6600.00
00814             116.00    -7400.00
00815             196.00    -7400.00
00816             -60.00    -7400.00
00817            -162.00    -8000.00
00818             -42.00    -7600.00
00819             110.00    -8200.00
00820              84.00    -8000.00
00821             -68.00    -8200.00
00822             -86.00    -8400.00
00823              -2.00    -8400.00
00824             110.00    -8600.00
00825              -6.00    -8800.00
00826             -84.00    -8800.00
00827              -6.00    -9000.00
00828              30.00    -9000.00
00829              50.00    -9200.00
00830             -20.00    -9200.00
00831             -58.00    -9600.00
00832              -4.00    -9600.00
00833              46.00    -9600.00
00834               4.00    -9800.00
00835             -12.00    -9800.00
00836             -18.00    -9800.00
00837               4.00   -10000.00
00838              28.00   -10200.00
00839              -4.00   -10000.00
00840             -18.00   -10400.00
00841              -6.00   -10400.00
00842              18.00   -10400.00
00843              12.00   -10600.00
00844              -6.00   -10600.00
00845             -12.00   -10800.00
00846               2.00   -10800.00
00847              10.00   -10800.00
00848               4.00   -10800.00
00849              -4.00   -11000.00
00850               4.00   -10800.00
00851               6.00   -11200.00
00852              -2.00   -11000.00
00853               4.00   -11200.00
00854              -6.00   -11400.00
00855               4.00   -11400.00
00856              14.00   -11400.00
00857               2.00   -11400.00
00858              -2.00   -11400.00
00859               0.00   -11400.00
00860               2.00   -11400.00
00861               6.00   -11400.00
00862               4.00   -11400.00
00863               4.00   -11600.00
00864               4.00   -11600.00
00865               4.00   -11400.00
00866              -2.00   -11600.00
00867               4.00   -11600.00
00868               4.00   -11600.00
00869               4.00   -11600.00
00870              10.00   -11400.00
00871               4.00   -11600.00
00872              -2.00   -11600.00
00873              -4.00   -11600.00
00874              -2.00   -11400.00
00875              10.00   -11400.00
00876              10.00   -11400.00
00877              -2.00   -11400.00
00878               2.00   -11600.00
00879               4.00   -11400.00
00880               4.00   -11400.00
00881               2.00   -11200.00
00882               2.00   -11400.00
00883               4.00   -11200.00
00884              10.00   -11000.00
00885               4.00   -11200.00
00886              -2.00   -11200.00
00887              -2.00   -11000.00
00888               4.00   -11000.00
00889              10.00   -10800.00
00890               8.00   -10800.00
00891               2.00   -10800.00
00892               2.00   -10800.00
00893               0.00   -10600.00
00894               4.00   -10600.00
00895              10.00   -10400.00
00896              10.00   -10400.00
00897               4.00   -10400.00
00898               2.00   -10400.00
00899              -2.00   -10200.00
00900               6.00   -10000.00
00901               6.00   -10000.00
00902               4.00    -9800.00
00903               6.00    -9800.00
00904               6.00    -9600.00
00905               4.00    -9600.00
00906               2.00    -9400.00
00907               0.00    -9400.00
00908               4.00    -9200.00
00909              10.00    -9000.00
00910               6.00    -9000.00
00911               2.00    -8800.00
00912               4.00    -8800.00
00913               4.00    -8600.00
00914               6.00    -8400.00
00915               2.00    -8400.00
00916               2.00    -8200.00
00917              10.00    -8000.00
00918               4.00    -8000.00
00919               0.00    -7800.00
00920               2.00    -7600.00
00921               6.00    -7600.00
00922               6.00    -7400.00
00923               4.00    -7200.00
00924               4.00    -7200.00
00925               4.00    -6800.00
00926               4.00    -6800.00
00927               2.00    -6600.00
00928               4.00    -6400.00
00929               6.00    -6400.00
00930               8.00    -6200.00
00931               4.00    -5800.00
00932               2.00    -5800.00
00933               4.00    -5800.00
00934               8.00    -5600.00
00935               2.00    -5200.00
00936               2.00    -5200.00
00937               4.00    -5000.00
00938               2.00    -4800.00
00939               4.00    -4600.00
00940              -2.00    -4400.00
00941               0.00    -4200.00
00942               6.00    -4000.00
00943               6.00    -4000.00
00944               2.00    -3600.00
00945               4.00    -3600.00
00946               2.00    -3400.00
00947               2.00    -3200.00
00948              -2.00    -3200.00
00949              -4.00    -2800.00
00950               4.00    -2800.00
00951               6.00    -2600.00
00952              -2.00    -2400.00
00953              -4.00    -2000.00
00954              -4.00    -2000.00
00955               0.00    -1800.00
00956               6.00    -1600.00
00957               4.00    -1400.00
00958              -4.00    -1200.00
00959               0.00    -1000.00
00960              -2.00     -800.00
00961               2.00     -800.00
00962               2.00     -400.00
00963               4.00     -200.00
00964               2.00        0.00
00965               2.00        0.00
00966               2.00      200.00
00967              30.00      400.00
00968              26.00      600.00
00969             -14.00      800.00
00970             -18.00     1200.00
00971              12.00     1000.00
00972              28.00     1400.00
00973              28.00     1400.00
00974             126.00     2000.00
00975             250.00     2200.00
00976            -138.00     2200.00
00977            -250.00     2400.00
00978            -174.00     2400.00
00979             250.00     2800.00
00980             220.00     2800.00
00981             250.00     3200.00
00982            -250.00     3000.00
00983            -250.00     3400.00
00984             250.00     3600.00
00985             250.00     3400.00
00986            -250.00     4200.00
00987            -174.00     4000.00
00988              76.00     4200.00
00989             250.00     4600.00
00990             150.00     4400.00
00991            -250.00     5200.00
00992            -236.00     4800.00
00993             242.00     5200.00
00994             250.00     5600.00
00995             -96.00     5200.00
00996            -238.00     6000.00
00997             -34.00     5800.00
00998             158.00     5800.00
00999             126.00     6400.00
01000            -142.00     6200.00
01001            -172.00     6600.00
01002             146.00     6800.00
01003             158.00     6800.00
01004            -108.00     7000.00
01005            -134.00     7000.00
01006             -30.00     7200.00
01007             146.00     7200.00
01008             116.00     7600.00
01009            -148.00     7800.00
01010            -118.00     7800.00
01011              66.00     8200.00
01012              82.00     8200.00
01013              -4.00     8400.00
01014             -82.00     8600.00
01015             -54.00     8400.00
01016              78.00     8600.00
01017              52.00     8800.00
01018             -78.00     8800.00
01019             -58.00     9200.00
01020              22.00     9200.00
01021              46.00     9200.00
01022              10.00     9200.00
01023             -52.00     9400.00
01024             -44.00     9600.00
01025              32.00     9600.00
01026              22.00    10000.00
01027             -28.00     9800.00
01028             -22.00    10000.00
01029              -2.00    10200.00
01030              14.00    10200.00
01031              -4.00    10400.00
01032             -38.00    10400.00
01033             -14.00    10400.00
01034              18.00    10600.00
01035               6.00    10800.00
01036             -12.00    10800.00
01037             -22.00    10800.00
01038             -18.00    10800.00
01039               2.00    11000.00
01040              -6.00    11000.00
01041             -12.00    11000.00
01042               2.00    11200.00
01043              -4.00    11200.00
01044             -14.00    11200.00
01045             -16.00    11200.00
01046             -12.00    11200.00
01047              -6.00    11200.00
01048               4.00    11400.00
01049              -6.00    11200.00
01050             -10.00    11600.00
01051             -10.00    11600.00
01052             -12.00    11600.00
01053              -6.00    11600.00
01054              -2.00    11600.00
01055              -4.00    11400.00
01056              -6.00    11600.00
01057             -10.00    11600.00
01058             -12.00    11600.00
01059             -12.00    11600.00
01060              -6.00    11600.00
01061              -6.00    11600.00
01062              -2.00    11600.00
01063              -6.00    11600.00
01064             -14.00    11600.00
01065             -20.00    11600.00
01066             -14.00    11400.00
01067              -4.00    11600.00
01068               2.00    11400.00
01069             -10.00    11600.00
01070             -14.00    11400.00
01071             -18.00    11400.00
01072             -14.00    11200.00
01073             -14.00    11200.00
01074             -10.00    11200.00
01075              -6.00    11200.00
01076              -6.00    11200.00
01077             -14.00    11200.00
01078             -18.00    11000.00
01079             -12.00    11000.00
01080              -6.00    11000.00
01081             -10.00    10800.00
01082             -10.00    10800.00
01083              -8.00    10800.00
01084             -12.00    10800.00
01085             -14.00    10600.00
01086             -18.00    10600.00
01087             -14.00    10400.00
01088              -6.00    10400.00
01089              -4.00    10400.00
01090             -12.00    10200.00
01091             -18.00    10200.00
01092             -14.00    10000.00
01093             -14.00    10000.00
01094              -6.00     9800.00
01095              -6.00     9800.00
01096              -6.00     9600.00
01097             -12.00     9600.00
01098             -18.00     9400.00
01099             -14.00     9400.00
01100              -6.00     9200.00
01101              -6.00     9200.00
01102              -6.00     9000.00
01103             -10.00     8800.00
01104             -12.00     8600.00
01105             -14.00     8600.00
01106             -12.00     8600.00
01107             -12.00     8400.00
01108              -4.00     8200.00
01109              -4.00     8200.00
01110             -12.00     8000.00
01111             -14.00     7800.00
01112             -14.00     7800.00
01113              -8.00     7600.00
01114              -6.00     7400.00
01115              -8.00     7200.00
01116             -12.00     7200.00
01117             -10.00     7000.00
01118             -14.00     6800.00
01119             -14.00     6800.00
01120             -12.00     6400.00
01121              -6.00     6400.00
01122              -4.00     6200.00
01123             -10.00     6000.00
01124             -14.00     5800.00
01125             -14.00     5600.00
01126             -10.00     5400.00
01127              -6.00     5400.00
01128              -6.00     5200.00
01129              -8.00     4800.00
01130             -10.00     4600.00
01131             -12.00     4600.00
01132             -16.00     4400.00
01133             -10.00     4200.00
01134              -6.00     4000.00
01135              -8.00     3800.00
01136             -12.00     3600.00
01137             -12.00     3600.00
01138             -12.00     3400.00
01139             -12.00     3200.00
01140             -12.00     3200.00
01141              -6.00     2800.00
01142              -4.00     2600.00
01143              -6.00     2400.00
01144             -12.00     2200.00
01145             -16.00     2000.00
01146             -12.00     2000.00
01147              -6.00     1600.00
01148              -4.00     1400.00
01149              -8.00     1400.00
01150             -12.00     1200.00
01151             -14.00     1000.00
01152             -12.00      800.00
01153             -10.00      600.00
01154              -6.00      400.00
01155              -4.00      200.00
01156              -6.00        0.00
01157             -10.00     -200.00
01158               2.00     -200.00
01159              26.00     -400.00
01160               6.00     -600.00
01161             -28.00     -800.00
01162             -22.00    -1000.00
01163              10.00    -1200.00
01164              20.00    -1200.00
01165             116.00    -1600.00
01166             250.00    -1800.00
01167            -126.00    -2400.00
01168            -250.00    -2400.00
01169            -238.00    -2600.00
01170             240.00    -2400.00
01171             250.00    -2200.00
01172             250.00    -3200.00
01173            -250.00    -3000.00
01174            -216.00    -2800.00
01175             250.00    -4400.00
01176             -40.00    -3200.00
01177            -250.00    -3800.00
01178            -250.00    -4400.00
01179               4.00    -3200.00
01180             250.00    -5000.00
01181            -174.00    -4400.00
01182            -250.00    -4200.00
01183             -80.00    -5800.00
01184             172.00    -4000.00
01185             250.00    -5600.00
01186            -250.00    -5400.00
01187            -238.00    -5000.00
01188              74.00    -6600.00
01189             130.00    -5200.00
01190             196.00    -6600.00
01191            -250.00    -6000.00
01192             -92.00    -6000.00
01193             246.00    -7000.00
01194              52.00    -6000.00
01195             -80.00    -7400.00
01196            -188.00    -6800.00
01197              22.00    -7200.00
01198             220.00    -7600.00
01199              14.00    -6800.00
01200            -162.00    -8000.00
01201             -84.00    -7600.00
01202              78.00    -8000.00
01203             114.00    -8200.00
01204             -38.00    -8000.00
01205             -92.00    -8400.00
01206             -32.00    -8400.00
01207              94.00    -8800.00
01208              42.00    -8800.00
01209             -90.00    -8800.00
01210             -26.00    -9000.00
01211              20.00    -9000.00
01212              48.00    -9200.00
01213               4.00    -9400.00
01214             -56.00    -9400.00
01215             -20.00    -9600.00
01216              42.00    -9600.00
01217              12.00    -9600.00
01218             -20.00    -9800.00
01219             -12.00   -10000.00
01220              -6.00   -10000.00
01221              28.00   -10000.00
01222               2.00   -10000.00
01223             -22.00   -10400.00
01224             -12.00   -10400.00
01225              14.00   -10400.00
01226              18.00   -10400.00
01227               2.00   -10600.00
01228             -12.00   -10600.00
01229              -4.00   -10800.00
01230              10.00   -10800.00
01231               2.00   -10800.00
01232              -4.00   -10800.00
01233               4.00   -10800.00
01234              10.00   -11200.00
01235              -2.00   -11200.00
01236               2.00   -11000.00
01237              -6.00   -11400.00
01238               2.00   -11200.00
01239              16.00   -11200.00
01240               2.00   -11400.00
01241               2.00   -11400.00
01242               2.00   -11400.00
01243              -4.00   -11600.00
01244               4.00   -11400.00
01245               6.00   -11400.00
01246               4.00   -11600.00
01247               6.00   -11600.00
01248               4.00   -11400.00
01249              -2.00   -11600.00
01250               2.00   -11600.00
01251               4.00   -11400.00
01252               4.00   -11600.00
01253              10.00   -11600.00
01254               8.00   -11600.00
01255              -2.00   -11600.00
01256               0.00   -11400.00
01257               2.00   -11600.00
01258              10.00   -11400.00
01259              12.00   -11400.00
01260               4.00   -11400.00
01261               2.00   -11400.00
01262               4.00   -11400.00
01263               0.00   -11400.00
01264               6.00   -11400.00
01265               4.00   -11200.00
01266               4.00   -11000.00
01267              12.00   -11200.00
01268               4.00   -11200.00
01269              -2.00   -11000.00
01270               2.00   -11000.00
01271               4.00   -11000.00
01272               6.00   -10800.00
01273               4.00   -10800.00
01274               2.00   -10800.00
01275               4.00   -10800.00
01276               4.00   -10600.00
01277               2.00   -10600.00
01278               4.00   -10600.00
01279               6.00   -10400.00
01280               6.00   -10400.00
01281               4.00   -10200.00
01282               2.00   -10200.00
01283               2.00   -10000.00
01284               8.00    -9800.00
01285               4.00    -9800.00
01286               4.00    -9800.00
01287               2.00    -9600.00
01288               2.00    -9600.00
01289               4.00    -9600.00
01290               4.00    -9400.00
01291               2.00    -9200.00
01292               4.00    -9200.00
01293               4.00    -9000.00
01294               6.00    -8800.00
01295               6.00    -8800.00
01296               4.00    -8800.00
01297               2.00    -8400.00
01298               2.00    -8400.00
01299               6.00    -8200.00
01300              10.00    -8000.00
01301               4.00    -8000.00
01302               4.00    -8000.00
01303               0.00    -7800.00
01304               6.00    -7600.00
01305               4.00    -7400.00
01306               2.00    -7200.00
01307               6.00    -7000.00
01308               4.00    -7000.00
01309              10.00    -6800.00
01310              -4.00    -6800.00
01311               2.00    -6400.00
01312               4.00    -6400.00
01313               6.00    -6400.00
01314               4.00    -6000.00
01315              -2.00    -6000.00
01316               4.00    -5800.00
01317              10.00    -5600.00
01318               2.00    -5200.00
01319               2.00    -5200.00
01320               2.00    -5000.00
01321               4.00    -4800.00
01322               4.00    -4600.00
01323               0.00    -4400.00
01324              -2.00    -4200.00
01325               6.00    -4000.00
01326               6.00    -4000.00
01327               4.00    -3800.00
01328               2.00    -3600.00
01329               2.00    -3600.00
01330               2.00    -3400.00
01331              -2.00    -3200.00
01332              -2.00    -3000.00
01333               4.00    -2800.00
01334               4.00    -2600.00
01335               2.00    -2400.00
01336              -2.00    -2200.00
01337              -2.00    -2000.00
01338               2.00    -1800.00
01339               4.00    -1600.00
01340              -2.00    -1600.00
01341               2.00    -1400.00
01342               4.00    -1000.00
01343              -4.00     -800.00
01344              -2.00     -600.00
01345               0.00     -400.00
01346               4.00     -400.00
01347               2.00     -200.00
01348               2.00        0.00
01349               2.00      200.00
01350              22.00      400.00
01351              30.00      600.00
01352              -4.00      600.00
01353             -26.00      800.00
01354              -2.00     1000.00
01355              28.00     1400.00
01356              30.00     1400.00
01357              82.00     1600.00
01358             250.00     2000.00
01359              30.00     2400.00
01360            -250.00     2200.00
01361            -250.00     2400.00
01362             244.00     2400.00
01363             246.00     2800.00
01364             250.00     3200.00
01365             -60.00     3200.00
01366            -250.00     3200.00
01367             220.00     3600.00
01368             250.00     3400.00
01369            -250.00     3800.00
01370            -250.00     4200.00
01371              28.00     4000.00
01372             194.00     4600.00
01373             250.00     4400.00
01374            -228.00     4800.00
01375            -250.00     5000.00
01376             118.00     4800.00
01377             250.00     5600.00
01378              20.00     5200.00
01379            -250.00     5600.00
01380            -106.00     6000.00
01381             122.00     5600.00
01382             168.00     6400.00
01383             -60.00     6200.00
01384            -218.00     6600.00
01385              52.00     6800.00
01386             210.00     6800.00
01387             -46.00     7000.00
01388            -150.00     7000.00
01389             -70.00     7200.00
01390              98.00     7400.00
01391             164.00     7600.00
01392             -84.00     7800.00
01393            -166.00     7800.00
01394              28.00     8200.00
01395              92.00     8200.00
01396              26.00     8200.00
01397             -66.00     8400.00
01398             -78.00     8400.00
01399              46.00     8600.00
01400              86.00     8800.00
01401             -50.00     9000.00
01402             -82.00     9000.00
01403               6.00     9200.00
01404              50.00     9200.00
01405              26.00     9400.00
01406             -44.00     9400.00
01407             -60.00     9600.00
01408              14.00     9600.00
01409              42.00     9800.00
01410             -18.00     9800.00
01411             -34.00    10000.00
01412             -12.00    10000.00
01413              10.00    10000.00
01414              12.00    10400.00
01415             -30.00    10400.00
01416             -28.00    10400.00
01417               4.00    10400.00
01418              10.00    10600.00
01419              -4.00    10800.00
01420             -18.00    10800.00
01421             -22.00    11000.00
01422              -4.00    11000.00
01423               4.00    11000.00
01424             -12.00    11000.00
01425             -10.00    11000.00
01426              -4.00    11200.00
01427              -6.00    11200.00
01428             -14.00    11200.00
01429             -12.00    11200.00
01430             -12.00    11200.00
01431              -2.00    11400.00
01432               2.00    11400.00
01433             -10.00    11400.00
01434             -14.00    11600.00
01435             -14.00    11600.00
01436             -10.00    11600.00
01437              -2.00    11400.00
01438              -2.00    11600.00
01439             -10.00    11600.00
01440             -12.00    11600.00
01441             -12.00    11600.00
01442              -6.00    11600.00
01443             -12.00    11600.00
01444              -8.00    11600.00
01445              -2.00    11600.00
01446              -2.00    11600.00
01447             -10.00    11600.00
01448             -22.00    11600.00
01449             -18.00    11600.00
01450              -2.00    11600.00
01451              -2.00    11400.00
01452              -6.00    11600.00
01453             -12.00    11400.00
01454             -12.00    11400.00
01455             -10.00    11200.00
01456             -12.00    11200.00
01457             -12.00    11200.00
01458              -6.00    11200.00
01459              -4.00    11200.00
01460             -10.00    11200.00
01461             -20.00    11200.00
01462             -14.00    11000.00
01463             -10.00    11000.00
01464              -6.00    11000.00
01465              -8.00    11000.00
01466              -6.00    10800.00
01467             -12.00    10800.00
01468             -18.00    10800.00
01469             -16.00    10600.00
01470             -12.00    10400.00
01471              -6.00    10400.00
01472              -6.00    10200.00
01473             -12.00    10400.00
01474             -16.00    10200.00
01475             -12.00    10000.00
01476             -12.00    10000.00
01477             -12.00    10000.00
01478              -8.00     9800.00
01479             -10.00     9600.00
01480             -12.00     9600.00
01481             -16.00     9400.00
01482             -20.00     9400.00
01483             -12.00     9200.00
01484              -6.00     9200.00
01485              -6.00     8800.00
01486             -12.00     8800.00
01487             -18.00     8800.00
01488             -14.00     8800.00
01489             -12.00     8600.00
01490             -10.00     8400.00
01491             -10.00     8400.00
01492             -10.00     8000.00
01493             -12.00     8200.00
01494             -14.00     8000.00
01495             -10.00     7800.00
01496             -12.00     7600.00
01497             -10.00     7200.00
01498             -10.00     7200.00
01499             -10.00     7200.00
01500              -8.00     7000.00
01501             -12.00     6800.00
01502             -14.00     6600.00
01503             -12.00     6600.00
01504             -10.00     6400.00
01505              -6.00     6200.00
01506             -12.00     6000.00
01507             -14.00     6000.00
01508             -10.00     6000.00
01509             -12.00     5600.00
01510             -10.00     5400.00
01511             -10.00     5200.00
01512              -6.00     5000.00
01513             -10.00     4800.00
01514             -12.00     4800.00
01515             -18.00     4600.00
01516             -12.00     4400.00
01517              -4.00     4000.00
01518              -6.00     4000.00
01519             -12.00     3800.00
01520             -10.00     3600.00
01521             -12.00     3600.00
01522             -10.00     3200.00
01523             -12.00     3000.00
01524             -12.00     2800.00
01525              -4.00     2800.00
01526              -6.00     2600.00
01527             -10.00     2200.00
01528             -12.00     2000.00
01529             -14.00     2000.00
01530             -10.00     2000.00
01531             -12.00     1600.00
01532             -10.00     1400.00
01533              -6.00     1200.00
01534              -6.00     1000.00
01535             -12.00      800.00
01536             -12.00      600.00
01537             -10.00      400.00
01538              -6.00      200.00
01539              -6.00        0.00
01540              -6.00        0.00
01541              -4.00     -400.00
01542              20.00     -400.00
01543              18.00     -800.00
01544             -22.00     -800.00
01545             -36.00    -1000.00
01546               0.00    -1200.00
01547              22.00    -1400.00
01548              66.00    -1600.00
01549             250.00    -1600.00
01550              66.00    -2400.00
01551            -250.00    -2400.00
01552            -250.00    -2400.00
01553             150.00    -2800.00
01554             250.00    -2000.00
01555             250.00    -2800.00
01556            -250.00    -3200.00
01557            -250.00    -2600.00
01558             250.00    -4200.00
01559             250.00    -3600.00
01560            -250.00    -3400.00
01561            -226.00    -4600.00
01562            -208.00    -3400.00
01563             250.00    -4400.00
01564             138.00    -4800.00
01565            -250.00    -4000.00
01566            -124.00    -5800.00
01567              50.00    -4400.00
01568             250.00    -5000.00
01569             -68.00    -6000.00
01570            -250.00    -4600.00
01571              44.00    -6400.00
01572              82.00    -5600.00
01573             244.00    -6000.00
01574            -178.00    -6600.00
01575            -248.00    -5800.00
01576             222.00    -7200.00
01577             116.00    -6200.00
01578             -44.00    -7200.00
01579            -172.00    -7200.00
01580             -70.00    -6800.00
01581             206.00    -7800.00
01582             102.00    -7000.00
01583            -140.00    -7800.00
01584            -122.00    -8000.00
01585              34.00    -7800.00
01586             132.00    -8200.00
01587              10.00    -8000.00
01588             -92.00    -8400.00
01589             -60.00    -8400.00
01590              60.00    -8600.00
01591              90.00    -8800.00
01592             -68.00    -8800.00
01593             -54.00    -9000.00
01594              12.00    -9000.00
01595              44.00    -9200.00
01596              28.00    -9200.00
01597             -46.00    -9400.00
01598             -44.00    -9600.00
01599              30.00    -9600.00
01600              36.00    -9800.00
01601             -14.00    -9800.00
01602             -14.00    -9800.00
01603             -14.00   -10000.00
01604              20.00   -10000.00
01605              14.00   -10200.00
01606             -18.00   -10400.00
01607             -20.00   -10400.00
01608               4.00   -10400.00
01609              20.00   -10600.00
01610               4.00   -10600.00
01611             -12.00   -10600.00
01612             -12.00   -10800.00
01613               6.00   -10800.00
01614              10.00   -10800.00
01615               0.00   -10800.00
01616              -4.00   -11000.00
01617               4.00   -11000.00
01618               2.00   -11200.00
01619               2.00   -11200.00
01620               2.00   -11200.00
01621              -6.00   -11000.00
01622              12.00   -11200.00
01623               6.00   -11200.00
01624              -2.00   -11400.00
01625               2.00   -11400.00
01626              -4.00   -11400.00
01627               4.00   -11600.00
01628               8.00   -11600.00
01629               6.00   -11400.00
01630               4.00   -11600.00
01631               2.00   -11600.00
01632               4.00   -11600.00
01633               6.00   -11400.00
01634               4.00   -11600.00
01635               2.00   -11600.00
01636               6.00   -11400.00
01637              10.00   -11600.00
01638               2.00   -11400.00
01639              -2.00   -11600.00
01640              -4.00   -11400.00
01641              10.00   -11600.00
01642              12.00   -11400.00
01643               2.00   -11400.00
01644               2.00   -11400.00
01645               4.00   -11400.00
01646               4.00   -11200.00
01647               6.00   -11400.00
01648               4.00   -11000.00
01649               2.00   -11000.00
01650              10.00   -11200.00
01651               8.00   -11000.00
01652               2.00   -11000.00
01653              -2.00   -11000.00
01654               4.00   -11000.00
01655               6.00   -10800.00
01656               4.00   -10800.00
01657               2.00   -10800.00
01658               4.00   -10800.00
01659               4.00   -10800.00
01660               4.00   -10600.00
01661               2.00   -10400.00
01662               4.00   -10400.00
01663               4.00   -10400.00
01664               4.00   -10400.00
01665              -2.00   -10200.00
01666               4.00   -10200.00
01667              10.00   -10000.00
01668               2.00   -10000.00
01669               2.00    -9800.00
01670               4.00    -9600.00
01671               4.00    -9600.00
01672               2.00    -9600.00
01673              -4.00    -9600.00
01674               2.00    -9200.00
01675               8.00    -9200.00
01676               6.00    -9000.00
01677               4.00    -8800.00
01678              -2.00    -8800.00
01679               2.00    -8800.00
01680               6.00    -8600.00
01681               6.00    -8400.00
01682               4.00    -8400.00
01683               2.00    -8200.00
01684               2.00    -8000.00
01685               2.00    -7800.00
01686               4.00    -7800.00
01687               4.00    -7600.00
01688               4.00    -7400.00
01689              -2.00    -7400.00
01690              -2.00    -7200.00
01691              10.00    -7000.00
01692               6.00    -6800.00
01693               2.00    -6800.00
01694               2.00    -6600.00
01695               4.00    -6400.00
01696               6.00    -6400.00
01697               8.00    -6200.00
01698              -2.00    -6000.00
01699               2.00    -5800.00
01700               6.00    -5800.00
01701               4.00    -5400.00
01702               4.00    -5200.00
01703               4.00    -5000.00
01704               6.00    -4800.00
01705               6.00    -4600.00
01706               2.00    -4600.00
01707              -6.00    -4200.00
01708               6.00    -4200.00
01709              10.00    -4000.00
01710               4.00    -3800.00
01711              -2.00    -3600.00
01712               2.00    -3600.00
01713               4.00    -3400.00
01714               2.00    -3200.00
01715               0.00    -3000.00
01716               4.00    -2800.00
01717               4.00    -2600.00
01718               4.00    -2400.00
01719               2.00    -2400.00
01720               2.00    -2000.00
01721              -2.00    -1800.00
01722               2.00    -1600.00
01723               2.00    -1400.00
01724               2.00    -1400.00
01725               4.00    -1000.00
01726               0.00    -1000.00
01727              -2.00     -800.00
01728              -2.00     -400.00
01729               2.00     -400.00
01730               2.00     -200.00
01731               2.00        0.00
01732               2.00        0.00
01733              18.00      400.00
01734              30.00      400.00
01735               6.00      600.00
01736             -22.00      800.00
01737              -8.00      800.00
01738              22.00     1200.00
01739              26.00     1400.00
01740              46.00     1800.00
01741             218.00     2000.00
01742             172.00     2000.00
01743            -250.00     2200.00
01744            -250.00     2400.00
01745             102.00     2600.00
01746             250.00     2400.00
01747             244.00     3000.00
01748             142.00     3200.00
01749            -250.00     3000.00
01750            -102.00     3400.00
01751             250.00     3400.00
01752             -52.00     3600.00
01753            -250.00     4000.00
01754             -36.00     4000.00
01755             138.00     4600.00
01756             250.00     4400.00
01757             -70.00     4600.00
01758            -250.00     5200.00
01759             -26.00     4800.00
01760             250.00     5600.00
01761             148.00     5400.00
01762            -214.00     5400.00
01763            -178.00     6000.00
01764              66.00     5600.00
01765             180.00     6200.00
01766              32.00     6400.00
01767            -214.00     6400.00
01768             -46.00     6800.00
01769             212.00     6800.00
01770              40.00     7000.00
01771            -150.00     6800.00
01772             -98.00     7200.00
01773              42.00     7400.00
01774             180.00     7200.00
01775               4.00     7800.00
01776            -186.00     7800.00
01777             -28.00     8000.00
01778              96.00     8200.00
01779              54.00     8200.00
01780             -42.00     8400.00
01781             -92.00     8400.00
01782               4.00     8600.00
01783             100.00     8800.00
01784              -6.00     8800.00
01785             -92.00     8800.00
01786             -18.00     9200.00
01787              44.00     9200.00
01788              40.00     9400.00
01789             -22.00     9400.00
01790             -68.00     9400.00
01791              -8.00     9600.00
01792              46.00     9600.00
01793              -2.00     9600.00
01794             -32.00    10000.00
01795             -14.00    10000.00
01796               4.00    10000.00
01797              14.00    10200.00
01798             -22.00    10400.00
01799             -34.00    10200.00
01800               4.00    10400.00
01801              12.00    10400.00
01802               2.00    10600.00
01803             -16.00    10800.00
01804             -22.00    10800.00
01805              -6.00    10800.00
01806               2.00    10800.00
01807             -12.00    10800.00
01808              -6.00    11000.00
01809              -2.00    11000.00
01810              -6.00    11200.00
01811             -14.00    11200.00
01812             -14.00    11200.00
01813             -12.00    11400.00
01814              -4.00    11400.00
01815               2.00    11200.00
01816              -8.00    11600.00
01817             -10.00    11600.00
01818             -14.00    11600.00
01819             -14.00    11600.00
01820              -8.00    11600.00
01821              -4.00    11600.00
01822              -2.00    11600.00
01823              -6.00    11600.00
01824             -12.00    11600.00
01825             -18.00    11600.00
01826             -12.00    11600.00
01827              -4.00    11600.00
01828              -2.00    11600.00
01829               0.00    11600.00
01830             -12.00    11600.00
01831             -22.00    11600.00
01832             -18.00    11400.00
01833              -6.00    11600.00
01834              -2.00    11400.00
01835              -4.00    11600.00
01836             -10.00    11400.00
01837             -14.00    11400.00
01838             -14.00    11200.00
01839             -18.00    11400.00
01840             -14.00    11200.00
01841              -2.00    11400.00
01842              -2.00    11200.00
01843             -12.00    11000.00
01844             -18.00    11200.00
01845             -18.00    11000.00
01846              -6.00    11000.00
01847              -6.00    11000.00
01848             -10.00    10800.00
01849              -6.00    10800.00
01850             -10.00    10800.00
01851             -18.00    10800.00
01852             -18.00    10400.00
01853             -12.00    10600.00
01854              -6.00    10400.00
01855              -4.00    10400.00
01856             -14.00    10400.00
01857             -18.00    10000.00
01858             -12.00    10000.00
01859             -12.00    10000.00
01860             -10.00    10000.00
01861              -8.00     9800.00
01862              -6.00     9600.00
01863             -10.00     9400.00
01864             -16.00     9400.00
01865             -20.00     9400.00
01866             -12.00     9200.00
01867              -6.00     9200.00
01868             -10.00     8800.00
01869             -10.00     8800.00
01870             -12.00     8800.00
01871             -18.00     8600.00
01872             -14.00     8600.00
01873             -14.00     8400.00
01874             -12.00     8400.00
01875              -4.00     8200.00
01876             -10.00     8000.00
01877             -16.00     8000.00
01878             -18.00     7800.00
01879             -18.00     7600.00
01880              -8.00     7400.00
01881              -6.00     7200.00
01882             -10.00     7200.00
01883             -12.00     7000.00
01884             -14.00     6800.00
01885             -14.00     6800.00
01886             -12.00     6600.00
01887             -10.00     6400.00
01888              -6.00     6200.00
01889              -6.00     6000.00
01890             -10.00     6000.00
01891             -12.00     6000.00
01892             -14.00     5600.00
01893             -12.00     5400.00
01894              -6.00     5400.00
01895              -4.00     5000.00
01896              -6.00     4800.00
01897             -14.00     4600.00
01898             -18.00     4400.00
01899             -12.00     4400.00
01900              -4.00     4200.00
01901              -6.00     3800.00
01902             -12.00     4000.00
01903             -10.00     3600.00
01904             -10.00     3600.00
01905             -12.00     3200.00
01906             -14.00     3000.00
01907             -10.00     3000.00
01908              -2.00     2800.00
01909              -4.00     2600.00
01910             -12.00     2400.00
01911             -12.00     2200.00
01912             -12.00     2000.00
01913              -6.00     2000.00
01914             -10.00     1600.00
01915             -12.00     1400.00
01916              -8.00     1400.00
01917             -10.00     1000.00
01918             -12.00      800.00
01919             -12.00      800.00
01920             -10.00      400.00
01921              -6.00      400.00
01922              -2.00        0.00
01923              -6.00        0.00
01924              -6.00     -200.00
01925              12.00     -400.00
01926              22.00     -600.00
01927             -12.00     -800.00
01928             -34.00    -1000.00
01929              -8.00    -1000.00
01930              18.00    -1200.00
01931              30.00    -1600.00
01932             228.00    -1600.00
01933             220.00    -2200.00
01934            -250.00    -2400.00
01935            -250.00    -2400.00
01936              16.00    -2600.00
01937             250.00    -2400.00
01938             250.00    -2600.00
01939            -244.00    -3400.00
01940            -250.00    -2600.00
01941             250.00    -3600.00
01942             250.00    -4000.00
01943            -250.00    -2800.00
01944            -198.00    -4400.00
01945            -250.00    -3800.00
01946             250.00    -3800.00
01947             250.00    -5200.00
01948            -250.00    -3600.00
01949            -214.00    -5600.00
01950             -26.00    -5000.00
01951             250.00    -4400.00
01952             188.00    -6200.00
01953            -250.00    -4600.00
01954             -38.00    -6000.00
01955              68.00    -6000.00
01956             228.00    -5400.00
01957              -4.00    -6800.00
01958            -250.00    -5600.00
01959             126.00    -6800.00
01960             188.00    -6600.00
01961              -6.00    -6600.00
01962            -140.00    -7400.00
01963            -142.00    -6600.00
01964             148.00    -7600.00
01965             170.00    -7200.00
01966             -86.00    -7200.00
01967            -150.00    -8000.00
01968             -14.00    -7600.00
01969             124.00    -8200.00
01970              62.00    -8000.00
01971             -78.00    -8200.00
01972             -78.00    -8400.00
01973              20.00    -8600.00
01974             114.00    -8600.00
01975             -26.00    -8600.00
01976             -78.00    -8800.00
01977              -2.00    -9000.00
01978              36.00    -9200.00
01979              50.00    -9200.00
01980             -28.00    -9200.00
01981             -58.00    -9600.00
01982              10.00    -9600.00
01983              46.00    -9600.00
01984              -4.00    -9800.00
01985             -12.00    -9800.00
01986             -20.00    -9800.00
01987              10.00   -10000.00
01988              22.00   -10400.00
01989             -12.00   -10000.00
01990             -20.00   -10400.00
01991              -4.00   -10400.00
01992              20.00   -10600.00
01993              10.00   -10600.00
01994              -6.00   -10600.00
01995             -12.00   -10800.00
01996               4.00   -10800.00
01997               8.00   -10800.00
01998              -2.00   -11000.00
01999              -4.00   -11000.00
02000              10.00   -10800.00
02001               4.00   -11200.00
02002              -2.00   -11000.00
02003               0.00   -11200.00
02004              -6.00   -11200.00
02005               6.00   -11400.00
02006              10.00   -11400.00
02007               0.00   -11400.00
02008               2.00   -11400.00
02009              -2.00   -11400.00
02010               2.00   -11600.00
02011               4.00   -11600.00
02012               2.00   -11400.00
02013               2.00   -11600.00
02014              10.00   -11600.00
02015               4.00   -11600.00
02016              -2.00   -11600.00
02017              -2.00   -11600.00
02018               4.00   -11600.00
02019               6.00   -11600.00
02020              10.00   -11600.00
02021               2.00   -11600.00
02022              -2.00   -11600.00
02023              -2.00   -11400.00
02024               4.00   -11400.00
02025               6.00   -11400.00
02026               4.00   -11400.00
02027               4.00   -11400.00
02028              10.00   -11400.00
02029               4.00   -11000.00
02030              -4.00   -11200.00
02031               0.00   -11400.00
02032               6.00   -11200.00
02033              12.00   -11400.00
02034              10.00   -11000.00
02035               2.00   -11200.00
02036               0.00   -11000.00
02037               4.00   -11000.00
02038               6.00   -11000.00
02039               4.00   -10800.00
02040               4.00   -10800.00
02041              10.00   -10800.00
02042               4.00   -10600.00
02043              -2.00   -10600.00
02044              -2.00   -10400.00
02045               6.00   -10400.00
02046              10.00   -10400.00
02047               4.00   -10400.00
02048              -2.00   -10400.00
02049               2.00   -10200.00
02050               6.00   -10000.00
02051               4.00   -10000.00
02052               4.00    -9800.00
02053               6.00    -9800.00
02054               4.00    -9600.00
02055               4.00    -9600.00
02056               0.00    -9400.00
02057              -2.00    -9400.00
02058               6.00    -9200.00
02059               6.00    -9000.00
02060               4.00    -9000.00
02061               4.00    -8800.00
02062               2.00    -8800.00
02063               2.00    -8800.00
02064               2.00    -8400.00
02065              -2.00    -8400.00
02066               4.00    -8200.00
02067               4.00    -8200.00
02068               2.00    -8000.00
02069              -2.00    -7800.00
02070               2.00    -7600.00
02071               4.00    -7600.00
02072               4.00    -7400.00
02073               2.00    -7200.00
02074               6.00    -7200.00
02075               4.00    -7000.00
02076               2.00    -6800.00
02077               2.00    -6600.00
02078               2.00    -6600.00
02079               4.00    -6400.00
02080               6.00    -6400.00
02081               0.00    -6000.00
02082               2.00    -5800.00
02083               6.00    -5800.00
02084               4.00    -5600.00
02085               4.00    -5400.00
02086               0.00    -5200.00
02087               4.00    -5000.00
02088               4.00    -5000.00
02089               4.00    -4600.00
02090               0.00    -4400.00
02091               2.00    -4200.00
02092               2.00    -4200.00
02093               4.00    -4000.00
02094               4.00    -3800.00
02095               4.00    -3600.00
02096               2.00    -3400.00
02097               0.00    -3200.00
02098              -2.00    -3200.00
02099               4.00    -2800.00
02100               6.00    -2800.00
02101               4.00    -2400.00
02102               2.00    -2400.00
02103              -2.00    -2000.00
02104              -2.00    -1800.00
02105               6.00    -1800.00
02106               6.00    -1600.00
02107               4.00    -1200.00
02108               2.00    -1200.00
02109              -2.00    -1000.00
02110               2.00     -800.00
02111               4.00     -600.00
02112               4.00     -400.00
02113               2.00     -200.00
02114               0.00     -200.00
02115               2.00        0.00
02116              10.00      400.00
02117              34.00      400.00
02118              18.00      600.00
02119             -20.00      800.00
02120             -14.00      800.00
02121              18.00     1200.00
02122              26.00     1400.00
02123              30.00     1600.00
02124             160.00     1800.00
02125             250.00     2200.00
02126            -228.00     2200.00
02127            -250.00     2400.00
02128             -84.00     2400.00
02129             250.00     2600.00
02130             220.00     3000.00
02131             250.00     3200.00
02132            -250.00     3000.00
02133            -250.00     3400.00
02134             250.00     3600.00
02135             224.00     3600.00
02136            -250.00     4000.00
02137            -126.00     3800.00
02138              96.00     4400.00
02139             250.00     4600.00
02140              88.00     4400.00
02141            -250.00     5200.00
02142            -174.00     4800.00
02143             250.00     5200.00
02144             250.00     5600.00
02145            -148.00     5200.00
02146            -228.00     6000.00
02147               4.00     5600.00
02148             172.00     6000.00
02149             102.00     6400.00
02150            -174.00     6200.00
02151            -142.00     6600.00
02152             180.00     6600.00
02153             132.00     6800.00
02154            -130.00     6800.00
02155            -128.00     7000.00
02156             -12.00     7200.00
02157             164.00     7200.00
02158              90.00     7800.00
02159            -170.00     7800.00
02160             -88.00     7800.00
02161              82.00     8200.00
02162              78.00     8200.00
02163             -18.00     8400.00
02164             -90.00     8600.00
02165             -36.00     8400.00
02166              94.00     8800.00
02167              36.00     8800.00
02168             -90.00     8800.00
02169             -46.00     9200.00
02170              36.00     9000.00
02171              52.00     9200.00
02172               2.00     9400.00
02173             -62.00     9400.00
02174             -34.00     9600.00
02175              42.00    10000.00
02176              20.00     9800.00
02177             -34.00    10000.00
02178             -26.00    10000.00
02179              -2.00    10000.00
02180              20.00    10200.00
02181              -6.00    10200.00
02182             -36.00    10400.00
02183             -12.00    10400.00
02184              12.00    10400.00
02185               6.00    10600.00
02186              -6.00    10600.00
02187             -22.00    10800.00
02188             -16.00    10800.00
02189              -2.00    10800.00
02190             -10.00    10800.00
02191              -8.00    11000.00
02192              -4.00    11200.00
02193              -6.00    11200.00
02194             -14.00    11200.00
02195             -12.00    11200.00
02196             -12.00    11200.00
02197             -10.00    11200.00
02198               2.00    11600.00
02199              -4.00    11400.00
02200             -10.00    11600.00
02201             -18.00    11400.00
02202             -18.00    11600.00
02203              -6.00    11600.00
02204               0.00    11600.00
02205              -8.00    11600.00
02206             -10.00    11600.00
02207             -12.00    11600.00
02208             -14.00    11600.00
02209             -12.00    11600.00
02210             -12.00    11600.00
02211              -4.00    11600.00
02212              -2.00    11600.00
02213             -10.00    11600.00
02214             -18.00    11800.00
02215             -22.00    11600.00
02216             -10.00    11600.00
02217               0.00    11400.00
02218              -4.00    11600.00
02219             -10.00    11600.00
02220             -18.00    11600.00
02221             -12.00    11400.00
02222             -10.00    11200.00
02223             -12.00    11400.00
02224              -6.00    11200.00
02225              -6.00    11200.00
02226             -10.00    11200.00
02227             -10.00    11000.00
02228             -12.00    11200.00
02229             -10.00    11000.00
02230             -10.00    10800.00
02231             -10.00    10800.00
02232              -4.00    10800.00
02233              -6.00    10800.00
02234             -14.00    10800.00
02235             -16.00    10600.00
02236             -12.00    10600.00
02237              -6.00    10400.00
02238              -6.00    10400.00
02239             -12.00    10200.00
02240             -14.00    10200.00
02241             -10.00    10200.00
02242             -12.00    10000.00
02243             -12.00    10000.00
02244             -12.00     9800.00
02245              -6.00     9600.00
02246             -10.00     9600.00
02247             -14.00     9600.00
02248             -20.00     9400.00
02249             -14.00     9400.00
02250             -10.00     9200.00
02251             -10.00     9200.00
02252             -12.00     8800.00
02253             -12.00     8800.00
02254             -12.00     8600.00
02255             -14.00     8600.00
02256             -18.00     8400.00
02257             -12.00     8400.00
02258              -6.00     8200.00
02259             -10.00     8000.00
02260             -12.00     8200.00
02261             -16.00     7800.00
02262             -12.00     7600.00
02263             -12.00     7400.00
02264              -8.00     7200.00
02265             -12.00     7200.00
02266              -8.00     7000.00
02267             -10.00     6800.00
02268             -18.00     6800.00
02269             -14.00     6600.00
02270             -12.00     6400.00
02271              -6.00     6200.00
02272              -6.00     6200.00
02273             -12.00     6000.00
02274             -12.00     5800.00
02275             -10.00     5600.00
02276             -12.00     5600.00
02277             -10.00     5200.00
02278             -12.00     5200.00
02279              -8.00     4800.00
02280              -6.00     4800.00
02281             -10.00     4600.00
02282             -14.00     4400.00
02283             -14.00     4000.00
02284             -10.00     4000.00
02285              -6.00     4000.00
02286              -4.00     3800.00
02287             -10.00     3600.00
02288             -12.00     3400.00
02289             -14.00     3200.00
02290             -12.00     3000.00
02291              -4.00     2800.00
02292              -4.00     2800.00
02293              -6.00     2400.00
02294             -12.00     2200.00
02295             -12.00     2200.00
02296             -12.00     1800.00
02297              -6.00     1800.00
02298              -6.00     1400.00
02299              -6.00     1400.00
02300              -6.00     1000.00
02301             -12.00      800.00
02302             -10.00      600.00
02303              -6.00      600.00
02304              -6.00      400.00
02305              -6.00      200.00
02306             -10.00        0.00
02307              -4.00        0.00
02308               6.00     -400.00
02309              26.00     -400.00
02310              -4.00     -800.00
02311             -36.00    -1000.00
02312             -20.00    -1000.00
02313              14.00    -1200.00
02314              24.00    -1600.00
02315             150.00    -1600.00
02316             250.00    -2000.00
02317            -228.00    -2400.00
02318            -250.00    -2400.00
02319            -150.00    -2600.00
02320             250.00    -2600.00
02321             250.00    -2400.00
02322             196.00    -3200.00
02323            -250.00    -2800.00
02324              12.00    -3000.00
02325             250.00    -4200.00
02326            -164.00    -2800.00
02327            -226.00    -4000.00
02328            -250.00    -4200.00
02329             120.00    -3200.00
02330             250.00    -5400.00
02331            -250.00    -4000.00
02332            -250.00    -4600.00
02333             -66.00    -5600.00
02334             236.00    -4000.00
02335             250.00    -6000.00
02336            -250.00    -5000.00
02337            -172.00    -5400.00
02338              70.00    -6400.00
02339             162.00    -5000.00
02340             154.00    -6800.00
02341            -250.00    -6000.00
02342             -24.00    -6200.00
02343             238.00    -7000.00
02344              30.00    -6000.00
02345             -94.00    -7400.00
02346            -180.00    -6600.00
02347              66.00    -7200.00
02348             216.00    -7400.00
02349             -18.00    -7200.00
02350            -164.00    -8000.00
02351             -62.00    -7600.00
02352              98.00    -8000.00
02353             102.00    -8200.00
02354             -52.00    -8200.00
02355             -90.00    -8400.00
02356             -18.00    -8400.00
02357             108.00    -8600.00
02358              26.00    -8800.00
02359             -94.00    -9000.00
02360             -12.00    -9000.00
02361              32.00    -9000.00
02362              54.00    -9200.00
02363              -6.00    -9200.00
02364             -58.00    -9400.00
02365             -14.00    -9600.00
02366              52.00    -9600.00
02367              14.00    -9800.00
02368             -16.00    -9800.00
02369             -20.00    -9800.00
02370              -4.00   -10000.00
02371              26.00   -10000.00
02372               0.00   -10000.00
02373             -20.00   -10400.00
02374             -12.00   -10400.00
02375              12.00   -10400.00
02376              12.00   -10600.00
02377              -2.00   -10600.00
02378             -10.00   -10800.00
02379              -4.00   -10800.00
02380               8.00   -10800.00
02381               4.00   -10800.00
02382              -4.00   -11000.00
02383               2.00   -11000.00
02384               4.00   -11200.00
02385              -2.00   -11200.00
02386               2.00   -11200.00
02387              -6.00   -11400.00
02388              -2.00   -11400.00
02389              12.00   -11400.00
02390               4.00   -11200.00
02391              -2.00   -11400.00
02392              -4.00   -11400.00
02393              -2.00   -11400.00
02394               6.00   -11600.00
02395               4.00   -11600.00
02396               0.00   -11400.00
02397               2.00   -11600.00
02398               4.00   -11400.00
02399               2.00   -11600.00
02400               2.00   -11600.00
02401               2.00   -11600.00
02402               4.00   -11600.00
02403              10.00   -11400.00
02404               6.00   -11600.00
02405              -2.00   -11600.00
02406              -4.00   -11600.00
02407               2.00   -11400.00
02408               8.00   -11400.00
02409              10.00   -11400.00
02410               2.00   -11400.00
02411               2.00   -11400.00
02412               4.00   -11400.00
02413               2.00   -11400.00
02414               6.00   -11400.00
02415               6.00   -11200.00
02416               4.00   -11400.00
02417               4.00   -11000.00
02418               4.00   -11000.00
02419               4.00   -11200.00
02420               4.00   -11000.00
02421               4.00   -10800.00
02422               4.00   -11000.00
02423               4.00   -10800.00
02424               6.00   -10800.00
02425              10.00   -10800.00
02426               4.00   -10600.00
02427               2.00   -10600.00
02428               2.00   -10400.00
02429              14.00   -10400.00
02430              10.00   -10400.00
02431             -10.00   -10400.00
02432               4.00   -10000.00
02433             -10.00   -10000.00
02434             -14.00    -9800.00
02435              26.00    -9800.00
02436               2.00    -9800.00
02437              12.00    -9600.00
02438              46.00    -9600.00
02439             -28.00    -9400.00
02440              -6.00    -9600.00
02441              -6.00    -9200.00
02442              22.00    -9200.00
02443              10.00    -9000.00
02444             -50.00    -8800.00
02445              26.00    -8800.00
02446              10.00    -8600.00
02447               4.00    -8600.00
02448              18.00    -8400.00
02449              14.00    -8200.00
02450              18.00    -8200.00
02451             -22.00    -8200.00
02452             -36.00    -8000.00
02453              18.00    -7800.00
02454              18.00    -7400.00
02455              -6.00    -7600.00
02456              -4.00    -7200.00
02457              10.00    -7200.00
02458              28.00    -7000.00
02459              -6.00    -6800.00
02460             -18.00    -6600.00
02461              12.00    -6400.00
02462              14.00    -6400.00
02463             -10.00    -6200.00
02464             -12.00    -6000.00
02465              -4.00    -6000.00
02466              10.00    -5800.00
02467              20.00    -5600.00
02468              -4.00    -5200.00
02469              10.00    -5200.00
02470              14.00    -5000.00
02471               0.00    -4800.00
02472             -14.00    -4600.00
02473              -6.00    -4400.00
02474               6.00    -4400.00
02475              10.00    -4200.00
02476               4.00    -4000.00
02477               4.00    -3600.00
02478              10.00    -3600.00
02479               8.00    -3400.00
02480               2.00    -3400.00
02481             -10.00    -3000.00
02482               4.00    -2800.00
02483              10.00    -2800.00
02484              10.00    -2600.00
02485              -2.00    -2400.00
02486              -2.00    -2200.00
02487               6.00    -2000.00
02488               2.00    -1800.00
02489               2.00    -1600.00
02490               4.00    -1600.00
02491              10.00    -1200.00
02492              -2.00    -1000.00
02493              -6.00     -800.00
02494               2.00     -800.00
02495               6.00     -400.00
02496               4.00     -200.00
02497              -2.00     -200.00
02498               4.00      200.00
02499              10.00      200.00
02500              28.00      400.00
02501              22.00      600.00
02502             -10.00      600.00
02503             -20.00      800.00
02504              12.00     1200.00
02505              28.00     1200.00
02506              26.00     1400.00
02507             102.00     1800.00
02508             250.00     2000.00
02509             -50.00     2000.00
02510            -250.00     2200.00
02511            -250.00     2600.00
02512             250.00     2400.00
02513             234.00     2800.00
02514             250.00     3200.00
02515            -164.00     3000.00
02516            -250.00     3200.00
02517             250.00     3600.00
02518             250.00     3200.00
02519            -250.00     4000.00
02520            -230.00     4000.00
02521              44.00     4000.00
02522             222.00     4600.00
02523             214.00     4400.00
02524            -250.00     5200.00
02525            -250.00     4800.00
02526             172.00     5000.00
02527             250.00     5600.00
02528             -30.00     5000.00
02529            -250.00     5800.00
02530             -80.00     6000.00
02531             138.00     5600.00
02532             160.00     6400.00
02533             -90.00     6200.00
02534            -204.00     6600.00
02535              92.00     6800.00
02536             194.00     6800.00
02537             -76.00     7000.00
02538            -148.00     7200.00
02539             -58.00     7200.00
02540             122.00     7400.00
02541             154.00     7800.00
02542            -114.00     7800.00
02543            -146.00     7800.00
02544              46.00     8200.00
02545              92.00     8000.00
02546              18.00     8200.00
02547             -74.00     8400.00
02548             -70.00     8400.00
02549              68.00     8800.00
02550              74.00     8800.00
02551             -62.00     8800.00
02552             -68.00     9200.00
02553              18.00     9200.00
02554              52.00     9200.00
02555              18.00     9400.00
02556             -50.00     9400.00
02557             -52.00     9600.00
02558              26.00     9600.00
02559              36.00    10000.00
02560             -22.00    10000.00
02561             -28.00    10000.00
02562              -6.00    10000.00
02563              16.00    10200.00
02564               8.00    10200.00
02565             -34.00    10400.00
02566             -26.00    10400.00
02567               6.00    10400.00
02568              10.00    10600.00
02569              -6.00    10600.00
02570             -22.00    10800.00
02571             -22.00    10800.00
02572               2.00    10800.00
02573              -2.00    11000.00
02574             -12.00    11000.00
02575              -6.00    11000.00
02576              -2.00    11200.00
02577             -10.00    11200.00
02578             -12.00    11200.00
02579             -14.00    11200.00
02580             -14.00    11200.00
02581               2.00    11200.00
02582              -2.00    11400.00
02583             -10.00    11600.00
02584             -18.00    11400.00
02585             -18.00    11600.00
02586              -6.00    11600.00
02587              -4.00    11600.00
02588              -6.00    11600.00
02589             -12.00    11600.00
02590             -10.00    11600.00
02591              -6.00    11600.00
02592             -12.00    11600.00
02593             -12.00    11600.00
02594              -6.00    11600.00
02595              -2.00    11600.00
02596              -2.00    11800.00
02597             -14.00    11600.00
02598             -22.00    11600.00
02599             -12.00    11600.00
02600              -2.00    11600.00
02601              -4.00    11600.00
02602             -12.00    11600.00
02603             -18.00    11600.00
02604             -12.00    11600.00
02605              -8.00    11600.00
02606             -10.00    11400.00
02607             -10.00    11200.00
02608             -12.00    11200.00
02609             -10.00    11200.00
02610              -6.00    11200.00
02611             -12.00    11200.00
02612             -14.00    11000.00
02613             -12.00    11000.00
02614             -10.00    11000.00
02615              -6.00    11000.00
02616              -4.00    10800.00
02617             -12.00    10800.00
02618             -18.00    10600.00
02619             -12.00    10800.00
02620             -10.00    10400.00
02621              -6.00    10400.00
02622              -8.00    10400.00
02623             -16.00    10200.00
02624             -10.00    10200.00
02625             -12.00    10200.00
02626             -12.00    10000.00
02627              -8.00     9800.00
02628              -6.00     9800.00
02629              -6.00     9600.00
02630             -14.00     9600.00
02631             -20.00     9400.00
02632             -18.00     9400.00
02633              -6.00     9200.00
02634              -6.00     9200.00
02635             -12.00     8800.00
02636             -14.00     8800.00
02637             -14.00     8800.00
02638             -12.00     8600.00
02639             -10.00     8400.00
02640             -12.00     8400.00
02641             -12.00     8200.00
02642             -10.00     8000.00
02643             -12.00     8200.00
02644             -14.00     7800.00
02645             -18.00     7600.00
02646             -12.00     7600.00
02647              -8.00     7600.00
02648             -10.00     7200.00
02649             -12.00     7000.00
02650             -12.00     6800.00
02651             -14.00     6800.00
02652             -14.00     6800.00
02653             -10.00     6400.00
02654             -10.00     6400.00
02655              -6.00     6200.00
02656             -10.00     5800.00
02657             -10.00     6000.00
02658             -12.00     5600.00
02659             -12.00     5600.00
02660             -10.00     5400.00
02661              -6.00     5200.00
02662              -6.00     5000.00
02663             -12.00     4800.00
02664             -12.00     4600.00
02665             -12.00     4400.00
02666             -10.00     4400.00
02667              -8.00     4000.00
02668              -6.00     3800.00
02669              -8.00     4000.00
02670             -10.00     3600.00
02671             -12.00     3400.00
02672             -12.00     3200.00
02673              -6.00     3000.00
02674              -6.00     3000.00
02675              -6.00     2800.00
02676              -6.00     2400.00
02677             -10.00     2400.00
02678             -10.00     2200.00
02679             -10.00     2000.00
02680              -6.00     1800.00
02681              -6.00     1600.00
02682              -6.00     1400.00
02683              -6.00     1200.00
02684             -10.00     1000.00
02685             -10.00      800.00
02686              -6.00      600.00
02687              -4.00      400.00
02688              -6.00      400.00
02689              -6.00      200.00
02690              -4.00        0.00
02691               4.00     -200.00
02692              24.00     -600.00
02693              10.00     -400.00
02694             -26.00     -800.00
02695             -26.00    -1000.00
02696               4.00    -1000.00
02697              14.00    -1400.00
02698              82.00    -1400.00
02699             250.00    -1800.00
02700             -20.00    -2400.00
02701            -250.00    -2400.00
02702            -250.00    -2400.00
02703             194.00    -2600.00
02704             250.00    -2000.00
02705             250.00    -3000.00
02706            -250.00    -3200.00
02707            -250.00    -2600.00
02708             250.00    -4200.00
02709             134.00    -3400.00
02710            -250.00    -3600.00
02711            -250.00    -4600.00
02712            -122.00    -3400.00
02713             250.00    -4800.00
02714             -12.00    -4600.00
02715            -250.00    -4000.00
02716             -98.00    -5800.00
02717              98.00    -4400.00
02718             250.00    -5400.00
02719            -178.00    -5600.00
02720            -250.00    -4800.00
02721              62.00    -6600.00
02722              94.00    -5200.00
02723             234.00    -6200.00
02724            -246.00    -6400.00
02725            -186.00    -5800.00
02726             240.00    -7200.00
02727              86.00    -6200.00
02728             -62.00    -7200.00
02729            -186.00    -7200.00
02730             -28.00    -6800.00
02731             218.00    -7800.00
02732              64.00    -7000.00
02733            -154.00    -8000.00
02734            -110.00    -7600.00
02735              58.00    -7800.00
02736             132.00    -8400.00
02737             -12.00    -8000.00
02738             -94.00    -8400.00
02739             -52.00    -8400.00
02740              82.00    -8800.00
02741              78.00    -8800.00
02742             -82.00    -8800.00
02743             -42.00    -8800.00
02744              18.00    -9000.00
02745              50.00    -9200.00
02746              20.00    -9200.00
02747             -50.00    -9400.00
02748             -34.00    -9400.00
02749              42.00    -9600.00
02750              22.00    -9800.00
02751             -18.00    -9800.00
02752             -10.00    -9800.00
02753             -10.00   -10000.00
02754              26.00   -10000.00
02755               6.00   -10000.00
02756             -22.00   -10400.00
02757             -12.00   -10400.00
02758              10.00   -10400.00
02759              18.00   -10600.00
02760               2.00   -10400.00
02761              -6.00   -10600.00
02762              -4.00   -10800.00
02763               6.00   -10800.00
02764               2.00   -10800.00
02765              -2.00   -10800.00
02766               4.00   -11000.00
02767               6.00   -11200.00
02768              -6.00   -11000.00
02769              -2.00   -11200.00
02770              -4.00   -11200.00
02771              -4.00   -11400.00
02772              10.00   -11200.00
02773               2.00   -11400.00
02774               2.00   -11400.00
02775              -4.00   -11400.00
02776              -6.00   -11400.00
02777               4.00   -11600.00
02778               6.00   -11400.00
02779               4.00   -11600.00
02780               0.00   -11600.00
02781               2.00   -11600.00
02782               2.00   -11600.00
02783               2.00   -11600.00
02784               2.00   -11600.00
02785               2.00   -11400.00
02786               6.00   -11400.00
02787               4.00   -11600.00
02788               2.00   -11400.00
02789              -4.00   -11600.00
02790              -2.00   -11600.00
02791              10.00   -11600.00
02792               6.00   -11400.00
02793               4.00   -11400.00
02794               4.00   -11400.00
02795               4.00   -11400.00
02796               2.00   -11400.00
02797               2.00   -11200.00
02798               2.00   -11200.00
02799               6.00   -11200.00
02800               8.00   -11200.00
02801               4.00   -11200.00
02802               0.00   -11000.00
02803               2.00   -11000.00
02804               4.00   -10800.00
02805               4.00   -10800.00
02806               4.00   -10800.00
02807              10.00   -10800.00
02808               6.00   -10800.00
02809               2.00   -10800.00
02810               2.00   -10400.00
02811               4.00   -10600.00
02812              10.00   -10400.00
02813              10.00   -10400.00
02814               2.00   -10400.00
02815               0.00   -10200.00
02816               8.00   -10000.00
02817               6.00    -9800.00
02818               6.00   -10000.00
02819               2.00    -9800.00
02820               4.00    -9800.00
02821               6.00    -9600.00
02822               2.00    -9600.00
02823               2.00    -9600.00
02824               6.00    -9200.00
02825               4.00    -9200.00
02826               6.00    -9000.00
02827               2.00    -9000.00
02828               2.00    -8800.00
02829               4.00    -8800.00
02830               4.00    -8800.00
02831               4.00    -8400.00
02832               6.00    -8200.00
02833               2.00    -8200.00
02834               2.00    -8000.00
02835               4.00    -7800.00
02836               6.00    -7800.00
02837               4.00    -7600.00
02838               2.00    -7400.00
02839              -2.00    -7200.00
02840               4.00    -7200.00
02841              10.00    -7200.00
02842               4.00    -7000.00
02843              -2.00    -6800.00
02844               4.00    -6600.00
02845               6.00    -6400.00
02846               6.00    -6400.00
02847               2.00    -6000.00
02848              -2.00    -5800.00
02849               8.00    -6000.00
02850               4.00    -5600.00
02851              -2.00    -5400.00
02852               2.00    -5200.00
02853               4.00    -5200.00
02854               8.00    -5000.00
02855               4.00    -4600.00
02856              -4.00    -4400.00
02857               4.00    -4200.00
02858               6.00    -4200.00
02859               4.00    -4000.00
02860               0.00    -4000.00
02861               2.00    -3600.00
02862               4.00    -3400.00
02863               4.00    -3400.00
02864              -2.00    -3200.00
02865               2.00    -2800.00
02866               6.00    -2800.00
02867               4.00    -2600.00
02868               4.00    -2400.00
02869               0.00    -2200.00
02870               2.00    -2000.00
02871               2.00    -2000.00
02872               4.00    -1600.00
02873               2.00    -1600.00
02874               6.00    -1200.00
02875               4.00    -1200.00
02876              -2.00     -800.00
02877              -2.00     -600.00
02878               4.00     -600.00
02879               4.00     -200.00
02880               2.00     -200.00
02881               4.00        0.00
02882               4.00      200.00
02883              20.00      400.00
02884              32.00      600.00
02885               2.00      800.00
02886             -22.00     1000.00
02887               0.00     1200.00
02888              26.00     1200.00
02889              22.00     1400.00
02890              62.00     1600.00
02891             246.00     2000.00
02892             116.00     2000.00
02893            -250.00     2400.00
02894            -250.00     2400.00
02895             178.00     2400.00
02896             250.00     2800.00
02897             250.00     3200.00
02898              60.00     3200.00
02899            -250.00     3000.00
02900              42.00     3600.00
02901             250.00     3600.00
02902            -164.00     3600.00
02903            -250.00     4200.00
02904              -6.00     3800.00
02905             160.00     4600.00
02906             250.00     4400.00
02907            -142.00     4800.00
02908            -250.00     5200.00
02909              38.00     4800.00
02910             250.00     5600.00
02911              86.00     5400.00
02912            -236.00     5600.00
02913            -146.00     6000.00
02914              94.00     5600.00
02915             178.00     6200.00
02916             -14.00     6400.00
02917            -230.00     6400.00
02918               2.00     6800.00
02919             220.00     6800.00
02920               2.00     7000.00
02921            -156.00     7000.00
02922             -90.00     7200.00
02923              68.00     7400.00
02924             186.00     7600.00
02925             -38.00     7800.00
02926            -182.00     7800.00
02927              -2.00     8000.00
02928             100.00     8200.00
02929              42.00     8400.00
02930             -54.00     8400.00
02931             -88.00     8600.00
02932              30.00     8600.00
02933              98.00     8800.00
02934             -28.00     8600.00
02935             -92.00     9200.00
02936              -8.00     9200.00
02937              50.00     9200.00
02938              38.00     9400.00
02939             -30.00     9400.00
02940             -66.00     9400.00
02941               4.00     9800.00
02942              44.00     9800.00
02943              -6.00     9800.00
02944             -30.00    10000.00
02945             -12.00    10000.00
02946              10.00    10000.00
02947              14.00    10200.00
02948             -26.00    10400.00
02949             -32.00    10400.00
02950               4.00    10600.00
02951              14.00    10600.00
02952               2.00    10800.00
02953             -18.00    10800.00
02954             -22.00    10800.00
02955              -6.00    10800.00
02956               2.00    11000.00
02957             -10.00    11000.00
02958             -10.00    11200.00
02959              -2.00    11000.00
02960              -6.00    11200.00
02961             -12.00    11200.00
02962             -12.00    11200.00
02963             -14.00    11200.00
02964              -4.00    11200.00
02965               2.00    11400.00
02966              -6.00    11400.00
02967             -14.00    11400.00
02968             -22.00    11600.00
02969             -18.00    11600.00
02970              -4.00    11600.00
02971              -2.00    11600.00
02972              -6.00    11600.00
02973             -12.00    11400.00
02974             -14.00    11600.00
02975             -18.00    11600.00
02976             -12.00    11600.00
02977              -8.00    11600.00
02978              -6.00    11600.00
02979              -4.00    11600.00
02980             -12.00    11600.00
02981             -18.00    11600.00
02982             -14.00    11600.00
02983             -12.00    11600.00
02984              -4.00    11600.00
02985              -2.00    11400.00
02986             -12.00    11600.00
02987             -14.00    11400.00
02988             -14.00    11200.00
02989             -14.00    11400.00
02990              -8.00    11400.00
02991             -10.00    11200.00
02992              -6.00    11200.00
02993             -10.00    11200.00
02994             -14.00    11200.00
02995             -14.00    11200.00
02996             -12.00    11000.00
02997              -6.00    11000.00
02998              -4.00    11000.00
02999              -6.00    10800.00
03000             -12.00    10800.00
03001             -14.00    10800.00
03002             -14.00    10800.00
03003             -10.00    10800.00
03004              -6.00    10400.00
03005              -4.00    10400.00
03006             -12.00    10200.00
03007             -12.00    10200.00
03008             -14.00    10200.00
03009             -14.00    10000.00
03010              -6.00    10000.00
03011              -6.00     9800.00
03012              -6.00     9800.00
03013             -10.00     9600.00
03014             -14.00     9400.00
03015             -12.00     9400.00
03016             -12.00     9200.00
03017             -10.00     9200.00
03018              -6.00     9200.00
03019              -4.00     8800.00
03020             -10.00     8800.00
03021             -14.00     8600.00
03022             -18.00     8600.00
03023             -12.00     8400.00
03024              -4.00     8400.00
03025              -6.00     8200.00
03026             -12.00     8000.00
03027             -16.00     7800.00
03028             -18.00     7600.00
03029             -12.00     7600.00
03030              -8.00     7400.00
03031             -10.00     7200.00
03032             -10.00     7200.00
03033             -12.00     7000.00
03034             -18.00     6800.00
03035             -12.00     6800.00
03036             -10.00     6600.00
03037             -10.00     6400.00
03038             -10.00     6200.00
03039             -14.00     6000.00
03040             -12.00     6000.00
03041             -10.00     5600.00
03042             -14.00     5600.00
03043             -12.00     5400.00
03044             -10.00     5200.00
03045              -6.00     5200.00
03046             -10.00     4800.00
03047             -16.00     4800.00
03048             -18.00     4400.00
03049              -6.00     4400.00
03050              -6.00     4000.00
03051             -10.00     3800.00
03052             -12.00     3800.00
03053             -12.00     3600.00
03054             -10.00     3600.00
03055             -10.00     3200.00
03056             -10.00     3200.00
03057             -12.00     3000.00
03058              -8.00     2800.00
03059              -6.00     2600.00
03060              -6.00     2400.00
03061             -12.00     2000.00
03062             -10.00     2000.00
03063              -6.00     1800.00
03064              -6.00     1600.00
03065              -6.00     1400.00
03066              -6.00     1200.00
03067             -12.00     1000.00
03068             -10.00      800.00
03069              -6.00      600.00
03070              -6.00      400.00
03071              -6.00      200.00
03072              -8.00      200.00
03073              -2.00        0.00
03074               2.00     -200.00
03075              18.00     -400.00
03076              18.00     -400.00
03077             -14.00     -800.00
03078             -32.00     -800.00
03079              -2.00    -1000.00
03080              14.00    -1400.00
03081              42.00    -1400.00
03082             250.00    -1600.00
03083             160.00    -2000.00
03084            -250.00    -2400.00
03085            -250.00    -2400.00
03086              78.00    -2600.00
03087             250.00    -2200.00
03088             250.00    -2600.00
03089            -250.00    -3400.00
03090            -250.00    -2600.00
03091             250.00    -4000.00
03092             250.00    -3800.00
03093            -250.00    -3000.00
03094            -202.00    -4600.00
03095            -250.00    -3400.00
03096             250.00    -4200.00
03097             250.00    -5200.00
03098            -250.00    -3600.00
03099            -166.00    -5600.00
03100              -2.00    -4600.00
03101             250.00    -4600.00
03102              78.00    -6000.00
03103            -250.00    -4600.00
03104               4.00    -6400.00
03105              60.00    -5600.00
03106             242.00    -5800.00
03107             -84.00    -6800.00
03108            -250.00    -5800.00
03109             174.00    -7200.00
03110             150.00    -6400.00
03111             -26.00    -6800.00
03112            -158.00    -7400.00
03113            -110.00    -6600.00
03114             182.00    -7600.00
03115             142.00    -7200.00
03116            -114.00    -7600.00
03117            -146.00    -7800.00
03118               8.00    -7600.00
03119             132.00    -8200.00
03120              36.00    -8000.00
03121             -86.00    -8200.00
03122             -76.00    -8400.00
03123              36.00    -8600.00
03124             108.00    -8800.00
03125             -50.00    -8800.00
03126             -68.00    -9000.00
03127               6.00    -9000.00
03128              38.00    -9200.00
03129              42.00    -9200.00
03130             -36.00    -9200.00
03131             -50.00    -9400.00
03132              22.00    -9600.00
03133              38.00    -9600.00
03134             -10.00    -9800.00
03135             -12.00   -10000.00
03136             -16.00    -9800.00
03137              14.00   -10000.00
03138              20.00   -10200.00
03139             -12.00   -10200.00
03140             -18.00   -10400.00
03141              -2.00   -10400.00
03142              18.00   -10400.00
03143              10.00   -10600.00
03144              -6.00   -10600.00
03145              -6.00   -10600.00
03146               4.00   -10800.00
03147               8.00   -10800.00
03148               0.00   -10800.00
03149               0.00   -10800.00
03150               4.00   -11000.00
03151               2.00   -11200.00
03152               4.00   -11000.00
03153               2.00   -11400.00
03154             -12.00   -11200.00
03155               4.00   -11000.00
03156              10.00   -11400.00
03157               4.00   -11400.00
03158               2.00   -11600.00
03159              -6.00   -11400.00
03160              -2.00   -11600.00
03161              10.00   -11400.00
03162               4.00   -11400.00
03163               2.00   -11600.00
03164               0.00   -11400.00
03165               4.00   -11600.00
03166               2.00   -11600.00
03167               0.00   -11600.00
03168               0.00   -11600.00
03169               4.00   -11400.00
03170              12.00   -11600.00
03171               2.00   -11600.00
03172              -6.00   -11600.00
03173              -2.00   -11600.00
03174               6.00   -11600.00
03175              10.00   -11600.00
03176               4.00   -11400.00
03177               2.00   -11600.00
03178               2.00   -11400.00
03179               4.00   -11400.00
03180               2.00   -11400.00
03181               0.00   -11400.00
03182               6.00   -11400.00
03183               8.00   -11400.00
03184               4.00   -11000.00
03185               4.00   -11200.00
03186               0.00   -11000.00
03187               4.00   -11200.00
03188               4.00   -11000.00
03189               4.00   -10800.00
03190              10.00   -10800.00
03191               6.00   -10800.00
03192               2.00   -10800.00
03193               2.00   -10600.00
03194               4.00   -10400.00
03195              10.00   -10400.00
03196               8.00   -10400.00
03197               2.00   -10400.00
03198               2.00   -10200.00
03199               6.00   -10000.00
03200               4.00   -10000.00
03201               4.00   -10000.00
03202               6.00    -9800.00
03203               8.00    -9800.00
03204               6.00    -9600.00
03205               2.00    -9600.00
03206              -2.00    -9600.00
03207               6.00    -9200.00
03208              10.00    -9200.00
03209               4.00    -9000.00
03210               6.00    -9000.00
03211               6.00    -8800.00
03212               4.00    -8800.00
03213               2.00    -8600.00
03214              -2.00    -8400.00
03215               6.00    -8200.00
03216              10.00    -8200.00
03217               4.00    -8000.00
03218               2.00    -8000.00
03219               2.00    -8000.00
03220               4.00    -7600.00
03221               4.00    -7400.00
03222               2.00    -7400.00
03223               2.00    -7200.00
03224              12.00    -7200.00
03225               4.00    -7200.00
03226              -2.00    -6800.00
03227               2.00    -6800.00
03228               4.00    -6400.00
03229               6.00    -6200.00
03230               4.00    -6400.00
03231              -2.00    -6000.00
03232               4.00    -6000.00
03233               8.00    -5600.00
03234               2.00    -5600.00
03235               2.00    -5400.00
03236               2.00    -5000.00
03237               4.00    -5000.00
03238               6.00    -4600.00
03239               0.00    -4600.00
03240              -2.00    -4400.00
03241              -2.00    -4200.00
03242               4.00    -4000.00
03243               4.00    -4000.00
03244               2.00    -3800.00
03245               2.00    -3400.00
03246               4.00    -3400.00
03247               2.00    -3200.00
03248               2.00    -3000.00
03249               2.00    -2800.00
03250               2.00    -2800.00
03251               4.00    -2400.00
03252               4.00    -2400.00
03253               2.00    -2200.00
03254              -2.00    -2000.00
03255              -4.00    -1800.00
03256               2.00    -1600.00
03257               8.00    -1400.00
03258               2.00    -1000.00
03259              -2.00    -1000.00
03260              -2.00     -800.00
03261               2.00     -600.00
03262               4.00     -400.00
03263              -2.00     -200.00
03264               4.00        0.00
03265               6.00        0.00
03266              14.00      400.00
03267              34.00      400.00
03268              10.00      600.00
03269             -20.00      600.00
03270              -6.00     1000.00
03271              20.00     1200.00
03272              26.00     1400.00
03273              36.00     1600.00
03274             190.00     2000.00
03275             226.00     2000.00
03276            -250.00     2200.00
03277            -250.00     2400.00
03278              12.00     2400.00
03279             250.00     2800.00
03280             222.00     3000.00
03281             214.00     3200.00
03282            -250.00     3000.00
03283            -250.00     3400.00
03284             250.00     3600.00
03285              98.00     3600.00
03286            -250.00     4400.00
03287             -86.00     4000.00
03288             116.00     4400.00
03289             250.00     4400.00
03290              20.00     4400.00
03291            -250.00     5000.00
03292            -114.00     4600.00
03293             250.00     5400.00
03294             210.00     5400.00
03295            -184.00     5200.00
03296            -210.00     6200.00
03297              26.00     5600.00
03298             176.00     6000.00
03299              76.00     6400.00
03300            -202.00     6200.00
03301            -102.00     6800.00
03302             202.00     6400.00
03303              90.00     7000.00
03304            -146.00     7000.00
03305            -118.00     7200.00
03306              12.00     7400.00
03307             180.00     7200.00
03308              52.00     7800.00
03309            -188.00     7600.00
03310             -66.00     7800.00
03311              86.00     8200.00
03312              68.00     8200.00
03313             -26.00     8400.00
03314             -90.00     8400.00
03315             -18.00     8600.00
03316              98.00     8600.00
03317              12.00     8800.00
03318             -92.00     8800.00
03319             -30.00     9200.00
03320              36.00     9200.00
03321              44.00     9200.00
03322              -8.00     9400.00
03323             -62.00     9400.00
03324             -22.00     9600.00
03325              42.00     9600.00
03326              10.00    10000.00
03327             -30.00    10000.00
03328             -18.00    10000.00
03329               2.00    10200.00
03330              18.00    10200.00
03331             -12.00    10400.00
03332             -36.00    10400.00
03333              -6.00    10400.00
03334              12.00    10400.00
03335               4.00    10600.00
03336             -10.00    10800.00
03337             -22.00    10800.00
03338             -12.00    10800.00
03339               2.00    11000.00
03340              -6.00    10800.00
03341             -10.00    11000.00
03342              -4.00    11200.00
03343              -6.00    11200.00
03344             -12.00    11200.00
03345             -14.00    11200.00
03346             -12.00    11200.00
03347              -6.00    11200.00
03348               2.00    11400.00
03349              -4.00    11200.00
03350             -14.00    11200.00
03351             -18.00    11600.00
03352             -18.00    11600.00
03353              -6.00    11600.00
03354              -4.00    11600.00
03355             -10.00    11600.00
03356              -6.00    11600.00
03357             -12.00    11600.00
03358             -18.00    11600.00
03359             -14.00    11600.00
03360              -6.00    11600.00
03361              -2.00    11400.00
03362              -2.00    11600.00
03363             -14.00    11600.00
03364             -22.00    11400.00
03365             -14.00    11600.00
03366              -6.00    11600.00
03367              -4.00    11400.00
03368              -6.00    11200.00
03369             -14.00    11400.00
03370             -12.00    11400.00
03371             -12.00    11400.00
03372             -12.00    11200.00
03373             -12.00    11200.00
03374              -6.00    11200.00
03375              -6.00    11200.00
03376              -6.00    11200.00
03377             -12.00    11200.00
03378             -14.00    11000.00
03379             -12.00    11000.00
03380             -10.00    10800.00
03381             -12.00    11000.00
03382              -2.00    10800.00
03383             -12.00    10800.00
03384             -14.00    10800.00
03385             -14.00    10600.00
03386             -10.00    10600.00
03387              -6.00    10400.00
03388              -6.00    10400.00
03389             -12.00    10400.00
03390             -10.00    10000.00
03391             -12.00    10200.00
03392             -12.00    10000.00
03393             -12.00    10000.00
03394             -10.00     9800.00
03395              -6.00     9800.00
03396              -6.00     9600.00
03397             -12.00     9400.00
03398             -14.00     9400.00
03399             -12.00     9200.00
03400             -12.00     9200.00
03401              -4.00     9200.00
03402              -4.00     8800.00
03403             -12.00     8800.00
03404             -12.00     8600.00
03405             -18.00     8600.00
03406             -12.00     8400.00
03407              -4.00     8200.00
03408              -4.00     8200.00
03409             -10.00     8000.00
03410             -12.00     7800.00
03411             -14.00     7800.00
03412             -12.00     7600.00
03413             -12.00     7600.00
03414             -14.00     7200.00
03415              -4.00     7200.00
03416             -10.00     7000.00
03417             -16.00     6800.00
03418             -20.00     6800.00
03419             -14.00     6800.00
03420              -6.00     6400.00
03421              -6.00     6200.00
03422             -12.00     6000.00
03423             -12.00     6000.00
03424             -12.00     6000.00
03425             -12.00     5800.00
03426             -12.00     5400.00
03427             -12.00     5400.00
03428             -10.00     5000.00
03429              -8.00     4800.00
03430              -8.00     4800.00
03431             -14.00     4600.00
03432             -14.00     4400.00
03433             -12.00     4400.00
03434              -6.00     4200.00
03435              -2.00     3800.00
03436             -10.00     3800.00
03437             -14.00     3600.00
03438             -14.00     3200.00
03439             -14.00     3200.00
03440              -6.00     2800.00
03441              -6.00     2800.00
03442              -6.00     2600.00
03443             -12.00     2400.00
03444             -16.00     2200.00
03445             -10.00     2000.00
03446              -6.00     2000.00
03447             -10.00     1800.00
03448              -8.00     1400.00
03449              -6.00     1400.00
03450             -10.00     1200.00
03451             -12.00      800.00
03452              -6.00      800.00
03453              -6.00      600.00
03454              -6.00      400.00
03455              -6.00      200.00
03456              -6.00        0.00
03457              -4.00     -200.00
03458              14.00     -600.00
03459              22.00     -400.00
03460              -6.00     -800.00
03461             -28.00     -800.00
03462             -12.00    -1000.00
03463              12.00    -1200.00
03464              22.00    -1400.00
03465             190.00    -1600.00
03466             250.00    -2000.00
03467            -250.00    -2400.00
03468            -250.00    -2400.00
03469             -68.00    -2800.00
03470             250.00    -2400.00
03471             250.00    -2400.00
03472              -2.00    -3200.00
03473            -250.00    -2600.00
03474             244.00    -3400.00
03475             250.00    -4200.00
03476            -250.00    -2800.00
03477            -210.00    -4400.00
03478            -250.00    -4000.00
03479             250.00    -3400.00
03480             250.00    -5200.00
03481            -250.00    -4000.00
03482            -250.00    -5000.00
03483             -52.00    -5400.00
03484             250.00    -4000.00
03485             250.00    -6000.00
03486            -250.00    -5000.00
03487            -108.00    -5800.00
03488              66.00    -6400.00
03489             186.00    -5200.00
03490              88.00    -6800.00
03491            -250.00    -5800.00
03492              50.00    -6400.00
03493             216.00    -6800.00
03494              12.00    -6200.00
03495            -118.00    -7400.00
03496            -172.00    -6600.00
03497             106.00    -7600.00
03498             202.00    -7200.00
03499             -50.00    -7200.00
03500            -162.00    -8200.00
03501             -46.00    -7600.00
03502             110.00    -8200.00
03503              84.00    -8000.00
03504             -66.00    -8200.00
03505             -86.00    -8400.00
03506              -2.00    -8400.00
03507             118.00    -8600.00
03508               0.00    -8800.00
03509             -90.00    -9000.00
03510             -10.00    -9000.00
03511              28.00    -9200.00
03512              52.00    -9200.00
03513             -14.00    -9200.00
03514             -58.00    -9400.00
03515              -2.00    -9600.00
03516              44.00    -9800.00
03517               2.00    -9800.00
03518             -10.00    -9800.00
03519             -12.00   -10000.00
03520               6.00   -10200.00
03521              24.00   -10000.00
03522             -12.00   -10200.00
03523             -14.00   -10400.00
03524              -2.00   -10400.00
03525              20.00   -10400.00
03526              12.00   -10600.00
03527              -4.00   -10600.00
03528             -12.00   -10800.00
03529               4.00   -10800.00
03530              10.00   -10800.00
03531               4.00   -10800.00
03532              -2.00   -11000.00
03533               4.00   -11000.00
03534               4.00   -11200.00
03535               2.00   -11000.00
03536               4.00   -11400.00
03537              -4.00   -11200.00
03538               2.00   -11400.00
03539              12.00   -11400.00
03540               6.00   -11400.00
03541               4.00   -11400.00
03542              -2.00   -11400.00
03543              -2.00   -11400.00
03544               4.00   -11400.00
03545               6.00   -11600.00
03546               4.00   -11400.00
03547               4.00   -11400.00
03548               4.00   -11600.00
03549              -4.00   -11600.00
03550              -4.00   -11600.00
03551               2.00   -11600.00
03552              10.00   -11600.00
03553              10.00   -11600.00
03554               4.00   -11600.00
03555             -10.00   -11600.00
03556              -4.00   -11600.00
03557               8.00   -11600.00
03558              10.00   -11600.00
03559               4.00   -11400.00
03560               2.00   -11400.00
03561               4.00   -11600.00
03562               6.00   -11600.00
03563              -4.00   -11400.00
03564              -2.00   -11400.00
03565               6.00   -11000.00
03566               8.00   -11000.00
03567               4.00   -11200.00
03568               2.00   -11000.00
03569               2.00   -11200.00
03570               2.00   -11000.00
03571               4.00   -11000.00
03572               2.00   -10800.00
03573               6.00   -10800.00
03574              10.00   -10800.00
03575               4.00   -10600.00
03576               2.00   -10600.00
03577               4.00   -10600.00
03578               6.00   -10400.00
03579              10.00   -10400.00
03580               4.00   -10400.00
03581               2.00   -10400.00
03582               4.00   -10000.00
03583               6.00   -10000.00
03584               4.00   -10000.00
03585               2.00   -10000.00
03586               4.00    -9800.00
03587               6.00    -9600.00
03588              10.00    -9600.00
03589               2.00    -9400.00
03590               2.00    -9400.00
03591               4.00    -9200.00
03592               6.00    -9000.00
03593              10.00    -9000.00
03594               4.00    -8800.00
03595               2.00    -8800.00
03596               4.00    -8600.00
03597               4.00    -8400.00
03598               4.00    -8400.00
03599               4.00    -8400.00
03600               4.00    -8000.00
03601               6.00    -8000.00
03602               6.00    -7800.00
03603               4.00    -7600.00
03604               2.00    -7400.00
03605               2.00    -7400.00
03606               4.00    -7200.00
03607              14.00    -7200.00
03608               4.00    -7200.00
03609              -2.00    -6800.00
03610              -2.00    -6800.00
03611               4.00    -6600.00
03612               4.00    -6400.00
03613               4.00    -6200.00
03614              -2.00    -6000.00
03615               4.00    -6000.00
03616               6.00    -5800.00
03617               2.00    -5600.00
03618              -2.00    -5200.00
03619               2.00    -5200.00
03620               4.00    -4800.00
03621               6.00    -5000.00
03622               2.00    -4600.00
03623              -2.00    -4400.00
03624               2.00    -4200.00
03625               2.00    -4200.00
03626               4.00    -3800.00
03627               4.00    -3800.00
03628               2.00    -3600.00
03629               0.00    -3400.00
03630              -4.00    -3200.00
03631               0.00    -3000.00
03632               4.00    -3200.00
03633               6.00    -2800.00
03634               4.00    -2600.00
03635               2.00    -2400.00
03636              -4.00    -2000.00
03637               2.00    -2000.00
03638               6.00    -1600.00
03639               6.00    -1600.00
03640               4.00    -1400.00
03641              -2.00    -1200.00
03642              -4.00    -1000.00
03643               0.00     -800.00
03644               4.00     -600.00
03645               2.00     -400.00
03646               0.00     -200.00
03647              -2.00        0.00
03648               8.00        0.00
03649              12.00      400.00
03650              28.00      600.00
03651              20.00      600.00
03652             -12.00      800.00
03653             -14.00     1000.00
03654              12.00     1200.00
03655              22.00     1400.00
03656              28.00     1600.00
03657             130.00     1800.00
03658             250.00     2200.00
03659            -132.00     2200.00
03660            -250.00     2200.00
03661            -190.00     2400.00
03662             250.00     2400.00
03663             224.00     2800.00
03664             250.00     3200.00
03665            -250.00     3200.00
03666            -250.00     3200.00
03667             250.00     3600.00
03668             250.00     3400.00
03669            -250.00     4000.00
03670            -184.00     4000.00
03671              74.00     4200.00
03672             250.00     4600.00
03673             162.00     4400.00
03674            -250.00     5000.00
03675            -248.00     4800.00
03676             234.00     5200.00
03677             250.00     5600.00
03678             -90.00     5200.00
03679            -246.00     6000.00
03680             -44.00     6000.00
03681             158.00     6000.00
03682             138.00     6400.00
03683            -138.00     6400.00
03684            -182.00     6400.00
03685             138.00     6600.00
03686             164.00     6800.00
03687            -102.00     7000.00
03688            -138.00     7000.00
03689             -34.00     7400.00
03690             146.00     7200.00
03691             122.00     7800.00
03692            -148.00     7600.00
03693            -120.00     7800.00
03694              66.00     8200.00
03695              84.00     8000.00
03696               2.00     8400.00
03697             -84.00     8600.00
03698             -52.00     8600.00
03699              78.00     8600.00
03700              58.00     8800.00
03701             -78.00     8800.00
03702             -60.00     9000.00
03703              26.00     9200.00
03704              50.00     9400.00
03705              10.00     9400.00
03706             -54.00     9600.00
03707             -42.00     9600.00
03708              30.00     9800.00
03709              26.00     9600.00
03710             -22.00    10000.00
03711             -22.00    10000.00
03712              -4.00    10000.00
03713              10.00    10200.00
03714              -2.00    10400.00
03715             -28.00    10400.00
03716             -12.00    10400.00
03717              12.00    10400.00
03718               4.00    10400.00
03719              -6.00    10800.00
03720             -20.00    10800.00
03721             -12.00    11000.00
03722               0.00    11000.00
03723              -2.00    10800.00
03724             -12.00    11200.00
03725              -4.00    11000.00
03726               2.00    11200.00
03727             -10.00    11000.00
03728             -12.00    11200.00
03729             -12.00    11200.00
03730             -12.00    11400.00
03731               4.00    11400.00
03732               2.00    11400.00
03733             -12.00    11600.00
03734             -14.00    11600.00
03735             -14.00    11600.00
03736              -6.00    11600.00
03737              -4.00    11600.00
03738             -10.00    11600.00
03739             -10.00    11600.00
03740              -6.00    11600.00
03741             -14.00    11600.00
03742             -18.00    11600.00
03743             -10.00    11800.00
03744              -6.00    11600.00
03745               0.00    11600.00
03746              -6.00    11600.00
03747             -22.00    11600.00
03748             -18.00    11600.00
03749             -10.00    11600.00
03750              -8.00    11600.00
03751              -6.00    11600.00
03752             -10.00    11400.00
03753             -12.00    11600.00
03754             -12.00    11400.00
03755             -12.00    11200.00
03756             -14.00    11200.00
03757              -6.00    11000.00
03758              -6.00    11200.00
03759              -6.00    11200.00
03760             -12.00    11000.00
03761             -20.00    11000.00
03762             -14.00    11000.00
03763              -8.00    11000.00
03764             -10.00    10800.00
03765              -6.00    10800.00
03766             -10.00    10800.00
03767             -18.00    10800.00
03768             -12.00    10800.00
03769             -10.00    10600.00
03770             -12.00    10400.00
03771             -10.00    10400.00
03772             -10.00    10200.00
03773             -10.00    10200.00
03774             -10.00    10200.00
03775             -12.00    10000.00
03776             -14.00    10000.00
03777             -10.00     9800.00
03778              -6.00     9600.00
03779              -8.00     9600.00
03780             -12.00     9600.00
03781             -18.00     9400.00
03782             -16.00     9400.00
03783             -12.00     9200.00
03784             -10.00     9000.00
03785              -6.00     9000.00
03786              -6.00     9000.00
03787             -12.00     8800.00
03788             -18.00     8600.00
03789             -12.00     8600.00
03790              -6.00     8400.00
03791              -6.00     8200.00
03792             -10.00     8000.00
03793             -12.00     8200.00
03794             -12.00     7800.00
03795             -12.00     7600.00
03796             -14.00     7600.00
03797             -12.00     7400.00
03798              -4.00     7200.00
03799              -6.00     7000.00
03800             -12.00     6800.00
03801             -18.00     6800.00
03802             -14.00     6800.00
03803             -10.00     6400.00
03804              -6.00     6400.00
03805             -12.00     6200.00
03806             -10.00     6000.00
03807             -10.00     5600.00
03808             -14.00     5600.00
03809             -16.00     5600.00
03810             -10.00     5200.00
03811              -6.00     5200.00
03812              -6.00     4800.00
03813             -12.00     4800.00
03814             -16.00     4600.00
03815             -12.00     4400.00
03816             -10.00     4200.00
03817             -10.00     4000.00
03818              -8.00     4000.00
03819             -10.00     3600.00
03820             -10.00     3600.00
03821             -12.00     3200.00
03822             -18.00     3200.00
03823             -10.00     3000.00
03824              -4.00     2800.00
03825             -12.00     2400.00
03826             -10.00     2400.00
03827             -12.00     2200.00
03828             -12.00     2000.00
03829             -12.00     2000.00
03830             -12.00     1800.00
03831             -10.00     1600.00
03832              -4.00     1400.00
03833             -10.00     1200.00
03834             -12.00     1000.00
03835             -12.00      800.00
03836             -10.00      400.00
03837              -2.00      400.00
03838              -6.00      200.00
03839              -6.00        0.00
03840              -4.00     -200.00
03841               4.00     -200.00
03842              24.00     -400.00
03843               4.00     -800.00
03844             -28.00     -800.00
03845             -22.00    -1000.00
03846              14.00    -1200.00
03847              20.00    -1400.00
03848             114.00    -1600.00
03849             250.00    -1800.00
03850            -116.00    -2400.00
03851            -250.00    -2400.00
03852            -250.00    -2600.00
03853             236.00    -2400.00
03854             250.00    -2400.00
03855             250.00    -3200.00
03856            -250.00    -3000.00
03857            -250.00    -2800.00
03858             250.00    -4400.00
03859             -18.00    -3200.00
03860            -250.00    -3800.00
03861            -250.00    -4400.00
03862             -14.00    -3400.00
03863             250.00    -5000.00
03864            -154.00    -4400.00
03865            -250.00    -4400.00
03866             -84.00    -5800.00
03867             158.00    -4000.00
03868             250.00    -5600.00
03869            -250.00    -5600.00
03870            -250.00    -5000.00
03871              64.00    -6600.00
03872             122.00    -5000.00
03873             210.00    -6600.00
03874            -250.00    -6200.00
03875            -110.00    -6000.00
03876             244.00    -7200.00
03877              58.00    -6200.00
03878             -74.00    -7400.00
03879            -186.00    -6800.00
03880              16.00    -7200.00
03881             222.00    -7600.00
03882              26.00    -7200.00
03883            -162.00    -8000.00
03884             -86.00    -7600.00
03885              74.00    -8000.00
03886             116.00    -8200.00
03887             -32.00    -8000.00
03888             -92.00    -8400.00
03889             -38.00    -8400.00
03890              94.00    -8800.00
03891              46.00    -8800.00
03892             -92.00    -9000.00
03893             -24.00    -9000.00
03894              22.00    -9200.00
03895              52.00    -9200.00
03896               6.00    -9200.00
03897             -60.00    -9600.00
03898             -20.00    -9600.00
03899              48.00    -9600.00
03900              18.00    -9800.00
03901             -18.00    -9800.00
03902             -14.00   -10000.00
03903              -6.00   -10000.00
03904              26.00   -10000.00
03905              -2.00   -10200.00
03906             -18.00   -10400.00
03907              -6.00   -10400.00
03908              10.00   -10400.00
03909              14.00   -10600.00
03910               2.00   -10600.00
03911             -10.00   -10600.00
03912              -2.00   -10800.00
03913               8.00   -10800.00
03914               2.00   -10800.00
03915               2.00   -11000.00
03916               6.00   -11000.00
03917               6.00   -11200.00
03918              -2.00   -11200.00
03919               2.00   -11200.00
03920              -2.00   -11200.00
03921               4.00   -11400.00
03922              14.00   -11400.00
03923               4.00   -11400.00
03924              -2.00   -11400.00
03925               0.00   -11400.00
03926               2.00   -11400.00
03927               6.00   -11400.00
03928               6.00   -11600.00
03929               6.00   -11600.00
03930               4.00   -11600.00
03931               4.00   -11400.00
03932               2.00   -11600.00
03933               0.00   -11600.00
03934               4.00   -11600.00
03935               4.00   -11400.00
03936               6.00   -11400.00
03937               6.00   -11600.00
03938              -4.00   -11600.00
03939              -2.00   -11600.00
03940               2.00   -11600.00
03941               4.00   -11400.00
03942               8.00   -11400.00
03943               6.00   -11600.00
03944               0.00   -11600.00
03945               2.00   -11400.00
03946               0.00   -11400.00
03947               2.00   -11400.00
03948               4.00   -11200.00
03949               4.00   -11400.00
03950               4.00   -11000.00
03951               4.00   -11200.00
03952               2.00   -11000.00
03953               2.00   -11000.00
03954               4.00   -11000.00
03955               6.00   -11000.00
03956               6.00   -10800.00
03957               4.00   -10800.00
03958               2.00   -10800.00
03959               2.00   -10600.00
03960               2.00   -10800.00
03961               2.00   -10400.00
03962              10.00   -10400.00
03963               6.00   -10200.00
03964               4.00   -10400.00
03965               4.00   -10400.00
03966               2.00   -10000.00
03967               2.00   -10000.00
03968               8.00    -9800.00
03969               6.00    -9800.00
03970               4.00    -9600.00
03971               0.00    -9800.00
03972               2.00    -9400.00
03973               6.00    -9400.00
03974              10.00    -9200.00
03975               4.00    -9200.00
03976               4.00    -9000.00
03977               4.00    -9000.00
03978               4.00    -8800.00
03979               4.00    -8600.00
03980               2.00    -8400.00
03981               4.00    -8400.00
03982               4.00    -8200.00
03983               2.00    -8000.00
03984               4.00    -8000.00
03985               6.00    -8000.00
03986               4.00    -7600.00
03987               4.00    -7600.00
03988               2.00    -7400.00
03989               4.00    -7200.00
03990              10.00    -7200.00
03991               6.00    -7000.00
03992               2.00    -6800.00
03993               2.00    -6800.00
03994               6.00    -6600.00
03995               4.00    -6400.00
03996               4.00    -6400.00
03997               0.00    -6000.00
03998               4.00    -6000.00
03999               6.00    -6000.00
04000               2.00    -5800.00
04001              -4.00    -5600.00
04002              -2.00    -5200.00
04003               2.00    -5200.00
04004              10.00    -4600.00
04005               2.00    -4600.00
04006               0.00    -4400.00
04007              -2.00    -4200.00
04008              -2.00    -4000.00
04009              10.00    -4000.00
04010               4.00    -3800.00
04011               4.00    -3600.00
04012               0.00    -3400.00
04013              -4.00    -3200.00
04014               0.00    -3200.00
04015               2.00    -2800.00
04016               4.00    -2600.00
04017               2.00    -2600.00
04018               2.00    -2400.00
04019               2.00    -2200.00
04020              -2.00    -2000.00
04021              -4.00    -2000.00
04022               0.00    -1800.00
04023               4.00    -1600.00
04024               4.00    -1200.00
04025              -4.00    -1000.00
04026              -4.00     -800.00
04027               0.00     -600.00
04028               2.00     -400.00
04029               4.00     -200.00
04030              -2.00     -200.00
04031               4.00        0.00
04032              10.00        0.00
04033              22.00      400.00
04034              26.00      600.00
04035              -6.00      800.00
04036             -22.00      800.00
04037               6.00     1200.00
04038              28.00     1200.00
04039              26.00     1800.00
04040              76.00     1800.00
04041             250.00     2000.00
04042              44.00     2200.00
04043            -250.00     2200.00
04044            -250.00     2400.00
04045             234.00     2600.00
04046             246.00     2800.00
04047             250.00     3200.00
04048             -34.00     3200.00
04049            -250.00     3200.00
04050             194.00     3800.00
04051             250.00     3600.00
04052            -250.00     4000.00
04053            -250.00     4200.00
04054              20.00     4000.00
04055             188.00     4600.00
04056             250.00     4400.00
04057            -212.00     4800.00
04058            -250.00     5200.00
04059             106.00     4800.00
04060             250.00     5800.00
04061              30.00     5000.00
04062            -242.00     5600.00
04063            -110.00     6000.00
04064             118.00     5600.00
04065             170.00     6400.00
04066             -58.00     6200.00
04067            -222.00     6400.00
04068              52.00     6800.00
04069             214.00     6600.00
04070             -40.00     6800.00
04071            -156.00     7000.00
04072             -76.00     7200.00
04073             100.00     7400.00
04074             172.00     7600.00
04075             -82.00     7800.00
04076            -166.00     7600.00
04077              26.00     8200.00
04078              98.00     8000.00
04079              26.00     8200.00
04080             -70.00     8400.00
04081             -74.00     8400.00
04082              50.00     8600.00
04083              84.00     8800.00
04084             -52.00     8800.00
04085             -84.00     8800.00
04086               6.00     9200.00
04087              50.00     9200.00
04088              22.00     9200.00
04089             -42.00     9400.00
04090             -58.00     9400.00
04091              18.00     9600.00
04092              36.00     9600.00
04093             -18.00     9600.00
04094             -30.00    10000.00
04095              -6.00    10200.00
04096              14.00    10200.00
04097               8.00    10200.00
04098             -28.00    10400.00
04099             -30.00    10400.00
04100               6.00    10400.00
04101              14.00    10400.00
04102              -2.00    10800.00
04103             -20.00    10800.00
04104             -22.00    10800.00
04105              -6.00    11000.00
04106               2.00    11000.00
04107              -6.00    11000.00
04108              -6.00    11000.00
04109               0.00    11000.00
04110              -6.00    11200.00
04111             -16.00    11200.00
04112             -12.00    11200.00
04113             -12.00    11400.00
04114               2.00    11200.00
04115               4.00    11200.00
04116              -8.00    11200.00
04117             -18.00    11600.00
04118             -18.00    11400.00
04119             -12.00    11400.00
04120               0.00    11600.00
04121              -2.00    11600.00
04122              -6.00    11800.00
04123             -10.00    11600.00
04124             -12.00    11600.00
04125             -16.00    11600.00
04126             -10.00    11800.00
04127              -4.00    11600.00
04128              -2.00    11400.00
04129              -4.00    11600.00
04130             -14.00    11600.00
04131             -20.00    11600.00
04132             -14.00    11600.00
04133             -10.00    11400.00
04134              -2.00    11400.00
04135              -4.00    11600.00
04136             -12.00    11600.00
04137             -14.00    11400.00
04138             -14.00    11600.00
04139             -14.00    11400.00
04140              -8.00    11200.00
04141             -10.00    11200.00
04142              -6.00    11200.00
04143              -8.00    11200.00
04144             -16.00    11000.00
04145             -18.00    11000.00
04146             -14.00    11000.00
04147             -10.00    11000.00
04148              -4.00    10800.00
04149              -6.00    10800.00
04150             -18.00    10800.00
04151             -18.00    10800.00
04152             -14.00    10400.00
04153              -6.00    10400.00
04154             -10.00    10400.00
04155             -10.00    10200.00
04156             -10.00    10200.00
04157             -12.00    10200.00
04158             -14.00    10000.00
04159             -18.00    10000.00
04160              -8.00    10000.00
04161              -6.00     9800.00
04162              -8.00     9600.00
04163             -20.00     9600.00
04164             -20.00     9400.00
04165             -14.00     9200.00
04166             -10.00     9200.00
04167             -10.00     9200.00
04168              -6.00     9200.00
04169              -6.00     8800.00
04170             -12.00     8800.00
04171             -18.00     8600.00
04172             -18.00     8600.00
04173              -6.00     8400.00
04174              -6.00     8200.00
04175              -6.00     8000.00
04176             -12.00     8200.00
04177             -14.00     7800.00
04178             -12.00     7800.00
04179             -12.00     7600.00
04180             -12.00     7400.00
04181              -6.00     7400.00
04182              -4.00     7200.00
04183             -12.00     6800.00
04184             -18.00     6800.00
04185             -14.00     6800.00
04186             -12.00     6600.00
04187              -2.00     6400.00
04188              -4.00     6200.00
04189             -12.00     6000.00
04190             -12.00     6000.00
04191             -12.00     5600.00
04192             -14.00     5600.00
04193              -6.00     5400.00
04194              -6.00     5200.00
04195              -6.00     5000.00
04196             -14.00     4800.00
04197             -16.00     4600.00
04198             -12.00     4400.00
04199             -10.00     4200.00
04200              -6.00     4000.00
04201             -10.00     3800.00
04202              -8.00     3800.00
04203              -6.00     3600.00
04204             -18.00     3400.00
04205             -12.00     3200.00
04206              -6.00     3200.00
04207              -6.00     3000.00
04208              -6.00     2800.00
04209             -12.00     2600.00
04210             -14.00     2200.00
04211             -12.00     2000.00
04212             -10.00     2000.00
04213              -8.00     1800.00
04214              -6.00     1600.00
04215             -10.00     1400.00
04216             -12.00     1200.00
04217              -8.00     1000.00
04218              -6.00      800.00
04219              -6.00      600.00
04220              -6.00      400.00
04221             -10.00      200.00
04222              -8.00        0.00
04223              -2.00        0.00
04224              -2.00     -400.00
04225              18.00     -600.00
04226              18.00     -600.00
04227             -20.00     -800.00
04228             -28.00    -1000.00
04229               2.00    -1000.00
04230              14.00    -1400.00
04231              64.00    -1200.00
04232             250.00    -1800.00
04233              78.00    -2400.00
04234            -250.00    -2400.00
04235            -250.00    -2400.00
04236             140.00    -2800.00
04237             250.00    -2200.00
04238             250.00    -2800.00
04239            -250.00    -3200.00
04240            -250.00    -2600.00
04241             250.00    -4000.00
04242             250.00    -3400.00
04243            -250.00    -3200.00
04244            -220.00    -4800.00
04245            -218.00    -3200.00
04246             250.00    -4400.00
04247             158.00    -5000.00
04248            -250.00    -4000.00
04249            -128.00    -5800.00
04250              40.00    -4400.00
04251             250.00    -5000.00
04252             -44.00    -5800.00
04253            -250.00    -4600.00
04254              36.00    -6400.00
04255              74.00    -5400.00
04256             250.00    -6000.00
04257            -164.00    -6600.00
04258            -250.00    -5600.00
04259             218.00    -7200.00
04260             114.00    -6400.00
04261             -62.00    -7200.00
04262            -182.00    -7200.00
04263             -54.00    -6800.00
04264             230.00    -7800.00
04265             108.00    -7000.00
04266            -162.00    -7600.00
04267            -146.00    -8000.00
04268              36.00    -7800.00
04269             148.00    -8200.00
04270              18.00    -8000.00
04271             -94.00    -8400.00
04272             -70.00    -8400.00
04273              60.00    -8800.00
04274              90.00    -8800.00
04275             -84.00    -8800.00
04276             -60.00    -8800.00
04277              34.00    -9000.00
04278              70.00    -9200.00
04279              28.00    -9200.00
04280             -78.00    -9600.00
04281             -66.00    -9600.00
04282              44.00    -9600.00
04283              66.00    -9600.00
04284              -4.00    -9800.00
04285             -28.00    -9800.00
04286             -34.00   -10000.00
04287              20.00   -10000.00
04288              22.00   -10000.00
04289              -8.00   -10400.00
04290             -10.00   -10400.00
04291               4.00   -10400.00
04292              14.00   -10400.00
04293               0.00   -10600.00
04294             -14.00   -10600.00
04295              -8.00   -10800.00
04296              18.00   -10800.00
04297              16.00   -10800.00
04298              -4.00   -10800.00
04299             -10.00   -10800.00
04300               4.00   -11200.00
04301               6.00   -11000.00
04302              10.00   -11200.00
04303               0.00   -11000.00
04304              -6.00   -11200.00
04305              10.00   -11400.00
04306               8.00   -11200.00
04307               2.00   -11400.00
04308               2.00   -11400.00
04309              -2.00   -11400.00
04310               6.00   -11400.00
04311               8.00   -11600.00
04312               0.00   -11400.00
04313               2.00   -11400.00
04314               6.00   -11400.00
04315               6.00   -11600.00
04316               2.00   -11600.00
04317               2.00   -11600.00
04318               2.00   -11400.00
04319              10.00   -11600.00
04320               6.00   -11400.00
04321               4.00   -11600.00
04322              -2.00   -11400.00
04323               2.00   -11400.00
04324               6.00   -11600.00
04325              10.00   -11400.00
04326               2.00   -11400.00
04327              -2.00   -11400.00
04328               4.00   -11400.00
04329               6.00   -11400.00
04330               2.00   -11400.00
04331               2.00   -11000.00
04332               2.00   -11200.00
04333               6.00   -11200.00
04334               2.00   -11000.00
04335               2.00   -11200.00
04336               2.00   -11000.00
04337               4.00   -10800.00
04338               4.00   -10800.00
04339               2.00   -10800.00
04340               4.00   -10800.00
04341              10.00   -10800.00
04342               0.00   -10600.00
04343               2.00   -10600.00
04344               2.00   -10400.00
04345               6.00   -10400.00
04346               6.00   -10400.00
04347               2.00   -10200.00
04348               4.00   -10200.00
04349               0.00   -10000.00
04350               2.00   -10000.00
04351               4.00   -10000.00
04352               6.00   -10000.00
04353               6.00    -9600.00
04354               2.00    -9600.00
04355               2.00    -9400.00
04356               4.00    -9400.00
04357               4.00    -9400.00
04358               4.00    -9200.00
04359               4.00    -9200.00
04360               4.00    -9000.00
04361               2.00    -8800.00
04362               2.00    -8600.00
04363               4.00    -8400.00
04364               4.00    -8400.00
04365               4.00    -8200.00
04366               4.00    -8200.00
04367               4.00    -8000.00
04368               4.00    -8000.00
04369               2.00    -7600.00
04370               4.00    -7600.00
04371               4.00    -7400.00
04372               2.00    -7400.00
04373               8.00    -7200.00
04374              10.00    -7200.00
04375               4.00    -6800.00
04376              -2.00    -6800.00
04377               2.00    -6600.00
04378               4.00    -6600.00
04379               6.00    -6400.00
04380              10.00    -6000.00
04381               0.00    -6000.00
04382               2.00    -5800.00
04383               4.00    -5600.00
04384               2.00    -5400.00
04385               4.00    -5200.00
04386               6.00    -5000.00
04387               4.00    -4800.00
04388               2.00    -4800.00
04389               0.00    -4600.00
04390               0.00    -4400.00
04391               2.00    -4200.00
04392               2.00    -4200.00
04393               6.00    -4000.00
04394               4.00    -3600.00
04395               2.00    -3600.00
04396              -4.00    -3400.00
04397              -2.00    -3200.00
04398               2.00    -3000.00
04399               6.00    -2800.00
04400               4.00    -2600.00
04401               2.00    -2400.00
04402              -4.00    -2200.00
04403               0.00    -2000.00
04404               2.00    -1800.00
04405               4.00    -1800.00
04406               4.00    -1600.00
04407               2.00    -1200.00
04408              -2.00    -1200.00
04409              -2.00     -800.00
04410              -2.00     -800.00
04411               2.00     -800.00
04412               4.00     -400.00
04413               4.00     -200.00
04414               6.00        0.00
04415              -2.00        0.00
04416              14.00      400.00
04417              34.00      600.00
04418              12.00      600.00
04419             -18.00      800.00
04420             -10.00     1000.00
04421              18.00     1400.00
04422              26.00     1400.00
04423              46.00     1600.00
04424             218.00     2000.00
04425             180.00     2200.00
04426            -250.00     2200.00
04427            -250.00     2400.00
04428              94.00     2400.00
04429             250.00     2600.00
04430             244.00     3000.00
04431             156.00     3400.00
04432            -250.00     3000.00
04433            -116.00     3600.00
04434             250.00     3600.00
04435             -42.00     3800.00
04436            -250.00     4200.00
04437             -38.00     4000.00
04438             144.00     4600.00
04439             250.00     4400.00
04440             -62.00     4600.00
04441            -250.00     5000.00
04442             -36.00     4800.00
04443             250.00     5600.00
04444             162.00     5400.00
04445            -212.00     5400.00
04446            -182.00     6200.00
04447              62.00     5600.00
04448             182.00     6200.00
04449              34.00     6400.00
04450            -214.00     6400.00
04451             -46.00     6800.00
04452             214.00     6600.00
04453              42.00     7000.00
04454            -154.00     6800.00
04455            -102.00     7200.00
04456              44.00     7400.00
04457             186.00     7200.00
04458               8.00     7800.00
04459            -194.00     7800.00
04460             -34.00     8200.00
04461              98.00     8200.00
04462              60.00     8400.00
04463             -42.00     8400.00
04464             -92.00     8400.00
04465               2.00     8600.00
04466             100.00     8800.00
04467              -6.00     9000.00
04468             -94.00     8800.00
04469             -20.00     9200.00
04470              42.00     9200.00
04471              40.00     9200.00
04472             -26.00     9400.00
04473             -66.00     9600.00
04474             -12.00     9600.00
04475              46.00     9600.00
04476               4.00    10000.00
04477             -34.00     9800.00
04478             -22.00    10000.00
04479              -2.00    10200.00
04480              18.00    10400.00
04481             -10.00    10400.00
04482             -30.00    10400.00
04483             -10.00    10400.00
04484               6.00    10800.00
04485               2.00    10800.00
04486             -10.00    10800.00
04487             -20.00    10800.00
04488              -8.00    10800.00
04489               2.00    11000.00
04490             -10.00    11000.00
04491             -12.00    11000.00
04492              -2.00    11200.00
04493              -4.00    11200.00
04494             -12.00    11200.00
04495             -14.00    11200.00
04496             -12.00    11200.00
04497              -4.00    11200.00
04498               4.00    11600.00
04499              -6.00    11400.00
04500             -12.00    11600.00
04501             -14.00    11600.00
04502             -12.00    11400.00
04503              -6.00    11600.00
04504              -2.00    11400.00
04505              -6.00    11600.00
04506              -6.00    11600.00
04507             -12.00    11600.00
04508             -14.00    11600.00
04509             -12.00    11600.00
04510              -6.00    11800.00
04511              -4.00    11400.00
04512              -2.00    11600.00
04513             -10.00    11600.00
04514             -16.00    11600.00
04515             -14.00    11600.00
04516             -12.00    11600.00
04517              -4.00    11400.00
04518              -4.00    11600.00
04519             -10.00    11400.00
04520             -14.00    11400.00
04521             -16.00    11400.00
04522             -18.00    11200.00
04523              -6.00    11200.00
04524              -6.00    11200.00
04525              -6.00    11200.00
04526              -8.00    11200.00
04527             -16.00    11200.00
04528             -14.00    11000.00
04529             -14.00    11000.00
04530             -10.00    11000.00
04531              -6.00    10800.00
04532              -6.00    10800.00
04533             -14.00    10800.00
04534             -18.00    10800.00
04535             -14.00    10600.00
04536             -12.00    10800.00
04537             -10.00    10400.00
04538              -6.00    10400.00
04539             -12.00    10200.00
04540             -14.00    10200.00
04541             -20.00    10000.00
04542             -14.00    10000.00
04543             -10.00    10000.00
04544             -10.00     9800.00
04545             -10.00     9600.00
04546             -10.00     9600.00
04547             -14.00     9400.00
04548             -14.00     9400.00
04549             -14.00     9200.00
04550             -12.00     9200.00
04551              -6.00     8800.00
04552              -6.00     8800.00
04553             -12.00     8800.00
04554             -14.00     8800.00
04555             -14.00     8600.00
04556             -12.00     8400.00
04557              -8.00     8200.00
04558              -8.00     8200.00
04559              -8.00     8000.00
04560             -12.00     7800.00
04561             -12.00     7800.00
04562             -12.00     7600.00
04563             -12.00     7400.00
04564              -6.00     7200.00
04565              -6.00     7200.00
04566              -6.00     7000.00
04567             -14.00     7000.00
04568             -12.00     6600.00
04569             -12.00     6400.00
04570              -6.00     6400.00
04571              -6.00     6200.00
04572              -6.00     6000.00
04573             -10.00     5800.00
04574             -12.00     5800.00
04575             -12.00     5600.00
04576             -10.00     5600.00
04577              -8.00     5200.00
04578              -6.00     5200.00
04579              -6.00     5000.00
04580             -10.00     4600.00
04581             -12.00     4600.00
04582             -12.00     4400.00
04583              -6.00     4000.00
04584              -4.00     4000.00
04585              -6.00     3800.00
04586              -8.00     3600.00
04587             -14.00     3600.00
04588             -14.00     3200.00
04589             -10.00     3000.00
04590             -10.00     2800.00
04591              -6.00     2800.00
04592              -6.00     2800.00
04593             -10.00     2400.00
04594             -12.00     2200.00
04595             -12.00     2000.00
04596             -10.00     2000.00
04597             -10.00     1800.00
04598              -6.00     1600.00
04599              -6.00     1400.00
04600             -10.00     1200.00
04601             -12.00      800.00
04602             -12.00      800.00
04603             -10.00      600.00
04604              -4.00      400.00
04605              -4.00        0.00
04606              -6.00        0.00
04607              -6.00     -200.00
04608              10.00     -400.00
04609              22.00     -600.00
04610              -6.00     -800.00
04611             -34.00    -1000.00
04612              -8.00    -1200.00
04613              18.00    -1400.00
04614              30.00    -1400.00
04615             228.00    -1600.00
04616             228.00    -2000.00
04617            -250.00    -2400.00
04618            -250.00    -2400.00
04619              10.00    -2600.00
04620             250.00    -2400.00
04621             250.00    -2600.00
04622            -220.00    -3400.00
04623            -250.00    -2400.00
04624             250.00    -3600.00
04625             250.00    -4000.00
04626            -250.00    -2800.00
04627            -198.00    -4400.00
04628            -250.00    -3600.00
04629             250.00    -3800.00
04630             250.00    -5200.00
04631            -250.00    -3600.00
04632            -226.00    -5200.00
04633             -30.00    -5000.00
04634             250.00    -4200.00
04635             210.00    -6200.00
04636            -250.00    -4800.00
04637             -50.00    -6000.00
04638              60.00    -6000.00
04639             222.00    -5200.00
04640              10.00    -6800.00
04641            -250.00    -5600.00
04642             122.00    -6600.00
04643             190.00    -6600.00
04644             -12.00    -6600.00
04645            -142.00    -7400.00
04646            -148.00    -6600.00
04647             154.00    -7600.00
04648             180.00    -7000.00
04649             -88.00    -7600.00
04650            -158.00    -8000.00
04651             -22.00    -7600.00
04652             124.00    -8200.00
04653              62.00    -8000.00
04654             -78.00    -8400.00
04655             -82.00    -8400.00
04656              20.00    -8400.00
04657             110.00    -8800.00
04658             -32.00    -8800.00
04659             -82.00    -9000.00
04660               2.00    -9000.00
04661              38.00    -9200.00
04662              46.00    -9200.00
04663             -34.00    -9400.00
04664             -58.00    -9400.00
04665              10.00    -9600.00
04666              46.00    -9600.00
04667              -2.00    -9800.00
04668             -14.00    -9800.00
04669             -20.00   -10000.00
04670               6.00   -10000.00
04671              22.00   -10000.00
04672              -8.00   -10400.00
04673             -16.00   -10200.00
04674              -4.00   -10400.00
04675              12.00   -10400.00
04676               6.00   -10600.00
04677              -4.00   -10600.00
04678              -6.00   -10800.00
04679               2.00   -10800.00
04680              10.00   -10800.00
04681               2.00   -10800.00
04682              -2.00   -10800.00
04683               4.00   -11200.00
04684               2.00   -11000.00
04685              -2.00   -11200.00
04686               2.00   -11000.00
04687              -6.00   -11200.00
04688               6.00   -11200.00
04689              12.00   -11200.00
04690               2.00   -11400.00
04691               0.00   -11400.00
04692              -4.00   -11400.00
04693               2.00   -11600.00
04694               6.00   -11200.00
04695               4.00   -11400.00
04696               2.00   -11600.00
04697               6.00   -11600.00
04698               4.00   -11400.00
04699              -2.00   -11600.00
04700               2.00   -11400.00
04701               2.00   -11600.00
04702               4.00   -11600.00
04703              10.00   -11600.00
04704               4.00   -11600.00
04705              -2.00   -11600.00
04706               2.00   -11600.00
04707               4.00   -11400.00
04708               8.00   -11600.00
04709               6.00   -11400.00
04710               4.00   -11400.00
04711               4.00   -11400.00
04712               4.00   -11400.00
04713               2.00   -11000.00
04714               4.00   -11200.00
04715               4.00   -11400.00
04716               6.00   -11000.00
04717               4.00   -11200.00
04718               2.00   -11000.00
04719              -2.00   -11000.00
04720               2.00   -11000.00
04721               4.00   -11000.00
04722               6.00   -10800.00
04723               6.00   -10800.00
04724               2.00   -10800.00
04725               2.00   -10800.00
04726               4.00   -10600.00
04727               2.00   -10600.00
04728               4.00   -10400.00
04729               4.00   -10400.00
04730               4.00   -10400.00
04731               2.00   -10000.00
04732               2.00   -10200.00
04733               2.00   -10000.00
04734               4.00    -9800.00
04735               4.00    -9800.00
04736               6.00    -9600.00
04737               4.00    -9600.00
04738               2.00    -9600.00
04739               4.00    -9400.00
04740               2.00    -9400.00
04741               2.00    -9200.00
04742               4.00    -9200.00
04743               4.00    -9000.00
04744               6.00    -8800.00
04745               2.00    -8600.00
04746               2.00    -8800.00
04747               4.00    -8400.00
04748               4.00    -8400.00
04749               6.00    -8000.00
04750               4.00    -8200.00
04751               4.00    -8200.00
04752               2.00    -7800.00
04753               2.00    -7800.00
04754               4.00    -7400.00
04755               4.00    -7200.00
04756               6.00    -7200.00
04757               6.00    -7200.00
04758               4.00    -6800.00
04759               2.00    -6800.00
04760               2.00    -6800.00
04761               4.00    -6400.00
04762               6.00    -6400.00
04763               6.00    -6400.00
04764               2.00    -6000.00
04765               2.00    -5800.00
04766               4.00    -5600.00
04767               4.00    -5400.00
04768               4.00    -5400.00
04769               4.00    -5000.00
04770               6.00    -5000.00
04771               2.00    -4600.00
04772               4.00    -4600.00
04773               2.00    -4400.00
04774               4.00    -4400.00
04775               4.00    -4200.00
04776               8.00    -4000.00
04777               4.00    -3800.00
04778               2.00    -3600.00
04779               2.00    -3400.00
04780               2.00    -3200.00
04781               2.00    -3000.00
04782               4.00    -2800.00
04783               4.00    -2800.00
04784               4.00    -2600.00
04785               2.00    -2400.00
04786               0.00    -2000.00
04787              -2.00    -1800.00
04788               2.00    -1800.00
04789               4.00    -1600.00
04790               2.00    -1400.00
04791              -2.00    -1000.00
04792              -2.00     -800.00
04793              -2.00    -1000.00
04794              -2.00     -800.00
04795               2.00     -400.00
04796               2.00     -400.00
04797               4.00        0.00
04798               4.00      200.00
04799               6.00      400.00
04800              30.00      400.00
04801              18.00      600.00
04802             -16.00      800.00
04803             -14.00     1200.00
04804              14.00     1200.00
04805              28.00     1200.00
04806              34.00     1400.00
04807             154.00     2000.00
04808             250.00     2200.00
04809            -218.00     2200.00
04810            -250.00     2400.00
04811             -92.00     2600.00
04812             250.00     2400.00
04813             220.00     2800.00
04814             250.00     3200.00
04815            -250.00     3000.00
04816            -250.00     3400.00
04817             250.00     3600.00
04818             238.00     3400.00
04819            -250.00     4000.00
04820            -132.00     4000.00
04821              98.00     4400.00
04822             250.00     4600.00
04823              98.00     4400.00
04824            -250.00     5200.00
04825            -188.00     4600.00
04826             250.00     5200.00
04827             250.00     5600.00
04828            -136.00     5200.00
04829            -230.00     6000.00
04830              -6.00     5600.00
04831             170.00     6000.00
04832             106.00     6400.00
04833            -170.00     6200.00
04834            -140.00     6600.00
04835             174.00     6800.00
04836             130.00     6800.00
04837            -132.00     7000.00
04838            -130.00     7200.00
04839             -10.00     7200.00
04840             170.00     7400.00
04841              90.00     7800.00
04842            -172.00     7800.00
04843             -94.00     8000.00
04844              80.00     8200.00
04845              78.00     8400.00
04846             -12.00     8400.00
04847             -86.00     8600.00
04848             -36.00     8600.00
04849              88.00     8800.00
04850              34.00     8800.00
04851             -90.00     8800.00
04852             -44.00     9000.00
04853              36.00     9200.00
04854              48.00     9200.00
04855              -4.00     9400.00
04856             -62.00     9400.00
04857             -36.00     9400.00
04858              38.00     9600.00
04859              20.00     9600.00
04860             -28.00    10000.00
04861             -24.00    10000.00
04862              -4.00    10000.00
04863              14.00    10200.00
04864              -6.00    10200.00
04865             -36.00    10400.00
04866             -12.00    10400.00
04867              14.00    10600.00
04868               4.00    10600.00
04869             -12.00    10800.00
04870             -22.00    10800.00
04871             -12.00    10800.00
04872               4.00    11000.00
04873              -6.00    11000.00
04874             -12.00    11000.00
04875              -4.00    11000.00
04876              -6.00    11200.00
04877             -12.00    11200.00
04878             -12.00    11200.00
04879             -12.00    11200.00
04880              -4.00    11400.00
04881              -2.00    11400.00
04882              -8.00    11200.00
04883             -10.00    11600.00
04884             -14.00    11600.00
04885             -14.00    11600.00
04886              -6.00    11600.00
04887              -6.00    11600.00
04888              -6.00    11600.00
04889              -4.00    11600.00
04890             -10.00    11600.00
04891             -18.00    11600.00
04892             -12.00    11600.00
04893              -6.00    11600.00
04894              -4.00    11400.00
04895              -2.00    11600.00
04896             -10.00    11600.00
04897             -18.00    11600.00
04898             -18.00    11600.00
04899             -12.00    11600.00
04900              -6.00    11400.00
04901              -2.00    11600.00
04902              -6.00    11600.00
04903             -12.00    11200.00
04904             -12.00    11400.00
04905             -12.00    11600.00
04906             -12.00    11200.00
04907              -6.00    11200.00
04908              -4.00    11200.00
04909              -8.00    11200.00
04910             -10.00    11200.00
04911             -22.00    11200.00
04912             -12.00    11000.00
04913              -6.00    11000.00
04914             -10.00    11000.00
04915              -6.00    10800.00
04916             -12.00    10800.00
04917             -18.00    10800.00
04918             -14.00    10800.00
04919             -14.00    10400.00
04920             -10.00    10600.00
04921              -6.00    10400.00
04922              -6.00    10200.00
04923             -12.00    10200.00
04924             -18.00    10000.00
04925             -14.00    10000.00
04926             -12.00    10000.00
04927              -6.00     9800.00
04928             -10.00     9600.00
04929             -10.00     9600.00
04930             -16.00     9400.00
04931             -18.00     9400.00
04932             -16.00     9200.00
04933             -12.00     9200.00
04934             -10.00     9000.00
04935              -6.00     8800.00
04936             -12.00     8800.00
04937             -14.00     8800.00
04938             -12.00     8600.00
04939             -12.00     8400.00
04940             -10.00     8400.00
04941              -4.00     8200.00
04942             -10.00     8000.00
04943             -12.00     8000.00
04944             -16.00     7800.00
04945             -14.00     7600.00
04946             -12.00     7600.00
04947              -8.00     7400.00
04948              -6.00     7200.00
04949              -8.00     7000.00
04950             -12.00     7000.00
04951             -14.00     6800.00
04952             -12.00     6600.00
04953              -8.00     6400.00
04954              -6.00     6400.00
04955              -6.00     6200.00
04956             -10.00     6000.00
04957             -12.00     5600.00
04958             -12.00     5600.00
04959             -12.00     5400.00
04960              -6.00     5400.00
04961              -6.00     5200.00
04962              -6.00     4800.00
04963             -12.00     4800.00
04964             -12.00     4600.00
04965             -12.00     4400.00
04966             -12.00     4000.00
04967              -6.00     4000.00
04968              -6.00     3800.00
04969              -8.00     3800.00
04970             -10.00     3600.00
04971             -12.00     3400.00
04972              -8.00     3200.00
04973              -8.00     3000.00
04974              -6.00     2800.00
04975              -6.00     2800.00
04976              -8.00     2400.00
04977             -12.00     2200.00
04978             -12.00     2000.00
04979             -10.00     2000.00
04980              -8.00     1600.00
04981              -6.00     1600.00
04982              -8.00     1400.00
04983              -8.00     1200.00
04984             -12.00      800.00
04985             -12.00      800.00
04986             -10.00      600.00
04987              -6.00      400.00
04988              -6.00        0.00
04989              -4.00        0.00
04990              -6.00     -200.00
04991               2.00     -400.00
04992              22.00     -400.00
04993               2.00     -800.00
04994             -32.00     -800.00
04995             -18.00    -1000.00
04996              10.00    -1200.00
04997              22.00    -1400.00
04998             148.00    -1600.00
04999             250.00    -2000.00
05000            -220.00    -2400.00
