Unit:(mV)
                     CH1         CH2
Frequency              ? 260.635 kHz
00001             -10.00      600.00
00002              -6.00      400.00
00003              -6.00      400.00
00004              -4.00        0.00
00005              -2.00        0.00
00006              -4.00     -200.00
00007              26.00     -400.00
00008              18.00     -600.00
00009             -20.00     -800.00
00010             -28.00    -1000.00
00011              10.00    -1200.00
00012              28.00    -1400.00
00013             136.00    -1600.00
00014             250.00    -1800.00
00015            -150.00    -2400.00
00016            -250.00    -2400.00
00017            -232.00    -2600.00
00018             250.00    -2600.00
00019             250.00    -2200.00
00020             250.00    -3400.00
00021            -250.00    -2800.00
00022             -80.00    -2800.00
00023             250.00    -4400.00
00024             -56.00    -3000.00
00025            -250.00    -4200.00
00026            -250.00    -4200.00
00027             138.00    -3400.00
00028             250.00    -5400.00
00029            -250.00    -4000.00
00030            -250.00    -4600.00
00031            -106.00    -5800.00
00032             180.00    -4000.00
00033             250.00    -6200.00
00034            -250.00    -5200.00
00035            -250.00    -5400.00
00036              86.00    -6600.00
00037             230.00    -5200.00
00038             132.00    -6800.00
00039            -250.00    -6000.00
00040             -14.00    -6400.00
00041             230.00    -7000.00
00042              94.00    -6400.00
00043             -78.00    -7600.00
00044            -234.00    -6800.00
00045              64.00    -7400.00
00046             250.00    -7600.00
00047              16.00    -7400.00
00048            -156.00    -8200.00
00049             -86.00    -7800.00
00050             102.00    -8200.00
00051             148.00    -8400.00
00052             -52.00    -8200.00
00053             -92.00    -8600.00
00054               4.00    -8600.00
00055             126.00    -8800.00
00056              50.00    -9000.00
00057             -84.00    -9200.00
00058             -30.00    -9200.00
00059              50.00    -9200.00
00060              92.00    -9400.00
00061               8.00    -9400.00
00062             -50.00    -9600.00
00063              -4.00    -9800.00
00064              60.00    -9800.00
00065              36.00   -10000.00
00066               4.00   -10000.00
00067              -6.00   -10000.00
00068              18.00   -10400.00
00069              44.00   -10400.00
00070              12.00   -10400.00
00071              -2.00   -10600.00
00072               8.00   -10800.00
00073              34.00   -10800.00
00074              36.00   -10800.00
00075              14.00   -10800.00
00076               4.00   -10800.00
00077              20.00   -11200.00
00078              26.00   -11000.00
00079              24.00   -11000.00
00080              18.00   -11000.00
00081              20.00   -11200.00
00082              26.00   -11400.00
00083              20.00   -11400.00
00084              20.00   -11400.00
00085              12.00   -11600.00
00086              18.00   -11600.00
00087              30.00   -11800.00
00088              26.00   -11600.00
00089              20.00   -11800.00
00090              12.00   -12000.00
00091              20.00   -11800.00
00092              26.00   -12000.00
00093              22.00   -11800.00
00094              22.00   -11800.00
00095              20.00   -12000.00
00096              26.00   -12000.00
00097              20.00   -12000.00
00098              14.00   -11800.00
00099              20.00   -12000.00
00100              22.00   -12000.00
00101              28.00   -12000.00
00102              26.00   -12000.00
00103              18.00   -12000.00
00104              14.00   -12000.00
00105              20.00   -12000.00
00106              26.00   -12000.00
00107              26.00   -11800.00
00108              22.00   -11800.00
00109              22.00   -11600.00
00110              22.00   -12000.00
00111              20.00   -11800.00
00112              20.00   -11600.00
00113              22.00   -11600.00
00114              26.00   -11600.00
00115              26.00   -11600.00
00116              22.00   -11400.00
00117              20.00   -11600.00
00118              18.00   -11400.00
00119              20.00   -11400.00
00120              24.00   -11000.00
00121              26.00   -11200.00
00122              26.00   -11200.00
00123              22.00   -11000.00
00124              20.00   -11000.00
00125              20.00   -11000.00
00126              26.00   -10800.00
00127              26.00   -10800.00
00128              26.00   -10800.00
00129              20.00   -10600.00
00130              20.00   -10400.00
00131              20.00   -10400.00
00132              20.00   -10400.00
00133              20.00   -10400.00
00134              22.00   -10000.00
00135              22.00   -10000.00
00136              20.00    -9800.00
00137              20.00    -9800.00
00138              20.00    -9600.00
00139              20.00    -9400.00
00140              22.00    -9600.00
00141              22.00    -9200.00
00142              22.00    -9200.00
00143              20.00    -9000.00
00144              18.00    -8800.00
00145              18.00    -8800.00
00146              20.00    -8600.00
00147              20.00    -8800.00
00148              18.00    -8400.00
00149              18.00    -8200.00
00150              18.00    -8200.00
00151              14.00    -8000.00
00152              16.00    -8000.00
00153              14.00    -7600.00
00154              14.00    -7800.00
00155              20.00    -7400.00
00156              18.00    -7200.00
00157              12.00    -7200.00
00158              10.00    -6800.00
00159              14.00    -6800.00
00160              14.00    -6800.00
00161              18.00    -6400.00
00162              12.00    -6400.00
00163              10.00    -6000.00
00164              14.00    -6000.00
00165              12.00    -5800.00
00166              10.00    -5600.00
00167              12.00    -5400.00
00168              12.00    -5200.00
00169              10.00    -5000.00
00170              10.00    -5000.00
00171              10.00    -4600.00
00172              10.00    -4400.00
00173              10.00    -4400.00
00174              10.00    -4200.00
00175              10.00    -4000.00
00176              10.00    -4000.00
00177               6.00    -3600.00
00178               4.00    -3600.00
00179               4.00    -3200.00
00180               4.00    -3200.00
00181               6.00    -2800.00
00182               6.00    -2600.00
00183               8.00    -2600.00
00184               6.00    -2400.00
00185               2.00    -2000.00
00186              -2.00    -2000.00
00187               4.00    -1800.00
00188               6.00    -1600.00
00189               6.00    -1400.00
00190               6.00    -1200.00
00191              -2.00    -1000.00
00192              -4.00     -800.00
00193               2.00     -600.00
00194               8.00     -400.00
00195              10.00     -200.00
00196               2.00        0.00
00197              -2.00      200.00
00198              12.00      400.00
00199              38.00      600.00
00200              14.00      600.00
00201             -24.00      800.00
00202             -18.00     1200.00
00203              26.00     1200.00
00204              34.00     1400.00
00205              68.00     1600.00
00206             250.00     2000.00
00207             100.00     2200.00
00208            -250.00     2200.00
00209            -250.00     2600.00
00210             198.00     2400.00
00211             250.00     3000.00
00212             250.00     3200.00
00213             -66.00     3200.00
00214            -250.00     3200.00
00215             174.00     3600.00
00216             250.00     3600.00
00217            -222.00     4000.00
00218            -250.00     4000.00
00219             -38.00     4000.00
00220             250.00     4600.00
00221             250.00     4400.00
00222            -242.00     4800.00
00223            -250.00     5000.00
00224              62.00     4800.00
00225             250.00     5800.00
00226              84.00     5400.00
00227            -250.00     5800.00
00228            -182.00     6000.00
00229             140.00     6000.00
00230             206.00     6400.00
00231             -92.00     6200.00
00232            -250.00     6400.00
00233              36.00     6800.00
00234             220.00     6800.00
00235             -12.00     7000.00
00236            -196.00     7200.00
00237            -134.00     7600.00
00238             102.00     7600.00
00239             188.00     7800.00
00240             -86.00     8000.00
00241            -196.00     8000.00
00242             -10.00     8200.00
00243             100.00     8400.00
00244              38.00     8400.00
00245            -100.00     8600.00
00246            -102.00     8800.00
00247              46.00     8800.00
00248              86.00     9000.00
00249             -60.00     9000.00
00250            -116.00     9200.00
00251             -26.00     9200.00
00252              54.00     9400.00
00253              28.00     9600.00
00254             -62.00     9800.00
00255             -84.00     9800.00
00256              -6.00    10000.00
00257              30.00    10000.00
00258             -20.00    10000.00
00259             -48.00    10200.00
00260             -30.00    10400.00
00261               4.00    10400.00
00262              -2.00    10600.00
00263             -46.00    10600.00
00264             -46.00    10800.00
00265             -10.00    10800.00
00266               2.00    10800.00
00267             -12.00    11000.00
00268             -38.00    10800.00
00269             -40.00    11200.00
00270             -18.00    11200.00
00271             -14.00    11200.00
00272             -26.00    11200.00
00273             -26.00    11200.00
00274             -18.00    11600.00
00275             -20.00    11600.00
00276             -30.00    11600.00
00277             -36.00    11600.00
00278             -26.00    11800.00
00279             -14.00    11600.00
00280             -12.00    11800.00
00281             -28.00    11800.00
00282             -34.00    11800.00
00283             -34.00    11800.00
00284             -26.00    11800.00
00285             -26.00    12000.00
00286             -22.00    12000.00
00287             -26.00    11800.00
00288             -26.00    12000.00
00289             -34.00    12000.00
00290             -34.00    12000.00
00291             -30.00    11800.00
00292             -26.00    11800.00
00293             -20.00    12000.00
00294             -22.00    11800.00
00295             -28.00    12000.00
00296             -36.00    12000.00
00297             -36.00    11800.00
00298             -28.00    11800.00
00299             -22.00    11800.00
00300             -24.00    11800.00
00301             -30.00    11800.00
00302             -30.00    11800.00
00303             -34.00    11600.00
00304             -30.00    11800.00
00305             -28.00    11600.00
00306             -22.00    11600.00
00307             -22.00    11600.00
00308             -28.00    11600.00
00309             -34.00    11400.00
00310             -32.00    11400.00
00311             -30.00    11400.00
00312             -24.00    11200.00
00313             -20.00    11200.00
00314             -22.00    11200.00
00315             -34.00    11200.00
00316             -30.00    11000.00
00317             -30.00    11000.00
00318             -28.00    10800.00
00319             -22.00    11000.00
00320             -22.00    10800.00
00321             -26.00    10800.00
00322             -28.00    10600.00
00323             -30.00    10400.00
00324             -28.00    10400.00
00325             -26.00    10200.00
00326             -22.00    10000.00
00327             -22.00    10000.00
00328             -24.00    10000.00
00329             -28.00     9800.00
00330             -28.00     9600.00
00331             -28.00     9600.00
00332             -24.00     9400.00
00333             -20.00     9400.00
00334             -22.00     9200.00
00335             -22.00     9200.00
00336             -28.00     9000.00
00337             -28.00     8800.00
00338             -26.00     8800.00
00339             -20.00     8600.00
00340             -20.00     8400.00
00341             -22.00     8400.00
00342             -24.00     8200.00
00343             -26.00     8000.00
00344             -26.00     8000.00
00345             -20.00     7600.00
00346             -22.00     7600.00
00347             -20.00     7400.00
00348             -22.00     7200.00
00349             -26.00     7000.00
00350             -28.00     7000.00
00351             -24.00     6800.00
00352             -20.00     6600.00
00353             -18.00     6400.00
00354             -18.00     6200.00
00355             -20.00     6200.00
00356             -24.00     6000.00
00357             -22.00     6000.00
00358             -22.00     5600.00
00359             -16.00     5400.00
00360             -14.00     5400.00
00361             -16.00     5000.00
00362             -22.00     4800.00
00363             -20.00     4600.00
00364             -22.00     4400.00
00365             -14.00     4400.00
00366             -12.00     4000.00
00367             -14.00     4000.00
00368             -14.00     3800.00
00369             -18.00     3600.00
00370             -20.00     3400.00
00371             -18.00     3200.00
00372             -12.00     3200.00
00373             -10.00     2800.00
00374             -10.00     2600.00
00375             -14.00     2400.00
00376             -14.00     2400.00
00377             -16.00     2200.00
00378             -10.00     2000.00
00379             -10.00     1800.00
00380              -8.00     1600.00
00381             -12.00     1400.00
00382             -10.00     1200.00
00383             -12.00     1000.00
00384             -12.00      800.00
00385              -6.00      600.00
00386              -6.00      400.00
00387              -4.00      200.00
00388              -4.00        0.00
00389              -6.00     -200.00
00390               4.00     -400.00
00391              30.00     -400.00
00392               4.00     -800.00
00393             -32.00     -800.00
00394             -18.00    -1000.00
00395              20.00    -1200.00
00396              40.00    -1400.00
00397             228.00    -1600.00
00398             250.00    -2000.00
00399            -250.00    -2400.00
00400            -250.00    -2400.00
00401             -10.00    -2600.00
00402             250.00    -2400.00
00403             250.00    -2600.00
00404            -250.00    -3600.00
00405            -250.00    -2400.00
00406             250.00    -3600.00
00407             250.00    -4000.00
00408            -250.00    -3000.00
00409            -250.00    -4600.00
00410            -250.00    -3600.00
00411             250.00    -3800.00
00412             250.00    -5400.00
00413            -250.00    -3600.00
00414            -194.00    -5600.00
00415             -84.00    -5000.00
00416             250.00    -4400.00
00417             250.00    -6400.00
00418            -250.00    -4800.00
00419            -100.00    -6200.00
00420             124.00    -6000.00
00421             250.00    -5600.00
00422             -58.00    -7000.00
00423            -250.00    -5800.00
00424             140.00    -6800.00
00425             190.00    -6600.00
00426              52.00    -6800.00
00427            -164.00    -7600.00
00428            -178.00    -6800.00
00429             186.00    -7800.00
00430             210.00    -7200.00
00431             -70.00    -7600.00
00432            -150.00    -8200.00
00433             -30.00    -7600.00
00434             156.00    -8400.00
00435              90.00    -8200.00
00436             -92.00    -8400.00
00437             -68.00    -8600.00
00438              48.00    -8800.00
00439             132.00    -8800.00
00440             -12.00    -9000.00
00441             -78.00    -9200.00
00442              -6.00    -9200.00
00443              74.00    -9400.00
00444              76.00    -9400.00
00445             -22.00    -9600.00
00446             -46.00    -9600.00
00447              22.00    -9800.00
00448              60.00   -10000.00
00449              20.00   -10000.00
00450               4.00   -10000.00
00451              -4.00   -10000.00
00452              34.00   -10200.00
00453              38.00   -10400.00
00454               4.00   -10400.00
00455              -2.00   -10600.00
00456              16.00   -10800.00
00457              38.00   -10600.00
00458              28.00   -10800.00
00459              10.00   -10800.00
00460               6.00   -11000.00
00461              22.00   -11200.00
00462              26.00   -11000.00
00463              22.00   -11200.00
00464              18.00   -11400.00
00465              22.00   -11400.00
00466              26.00   -11400.00
00467              20.00   -11400.00
00468              16.00   -11600.00
00469              12.00   -11600.00
00470              26.00   -11600.00
00471              34.00   -11600.00
00472              24.00   -11800.00
00473              18.00   -11800.00
00474              12.00   -12000.00
00475              24.00   -11800.00
00476              26.00   -11800.00
00477              22.00   -12000.00
00478              20.00   -12000.00
00479              22.00   -12000.00
00480              22.00   -12000.00
00481              20.00   -12000.00
00482              18.00   -12000.00
00483              20.00   -12000.00
00484              26.00   -12000.00
00485              28.00   -12000.00
00486              22.00   -12000.00
00487              14.00   -12000.00
00488              18.00   -12000.00
00489              24.00   -11800.00
00490              26.00   -12000.00
00491              26.00   -11800.00
00492              20.00   -11800.00
00493              22.00   -11600.00
00494              20.00   -12000.00
00495              20.00   -11600.00
00496              22.00   -11800.00
00497              22.00   -11600.00
00498              26.00   -11600.00
00499              26.00   -11600.00
00500              22.00   -11400.00
00501              20.00   -11600.00
00502              20.00   -11400.00
00503              22.00   -11200.00
00504              26.00   -11000.00
00505              28.00   -11200.00
00506              22.00   -11000.00
00507              18.00   -11000.00
00508              22.00   -11000.00
00509              20.00   -10800.00
00510              20.00   -10800.00
00511              26.00   -10600.00
00512              20.00   -10600.00
00513              20.00   -10400.00
00514              20.00   -10400.00
00515              18.00   -10200.00
00516              22.00   -10200.00
00517              22.00   -10000.00
00518              22.00   -10000.00
00519              22.00    -9800.00
00520              20.00    -9800.00
00521              18.00    -9600.00
00522              20.00    -9600.00
00523              20.00    -9600.00
00524              20.00    -9400.00
00525              22.00    -9200.00
00526              20.00    -9200.00
00527              18.00    -9000.00
00528              18.00    -9000.00
00529              18.00    -8800.00
00530              20.00    -8400.00
00531              20.00    -8600.00
00532              20.00    -8400.00
00533              18.00    -8400.00
00534              14.00    -8000.00
00535              14.00    -8000.00
00536              18.00    -7800.00
00537              18.00    -7600.00
00538              18.00    -7400.00
00539              20.00    -7200.00
00540              14.00    -7200.00
00541              12.00    -7000.00
00542              12.00    -6800.00
00543              14.00    -6800.00
00544              12.00    -6600.00
00545              18.00    -6400.00
00546              12.00    -6400.00
00547              12.00    -6000.00
00548              12.00    -5800.00
00549              10.00    -5600.00
00550              12.00    -5600.00
00551              12.00    -5200.00
00552              12.00    -5200.00
00553              12.00    -5000.00
00554              10.00    -4600.00
00555               6.00    -4600.00
00556              10.00    -4400.00
00557              10.00    -4200.00
00558              12.00    -4200.00
00559              10.00    -3800.00
00560               4.00    -3600.00
00561               6.00    -3600.00
00562               6.00    -3400.00
00563               4.00    -3200.00
00564               6.00    -2800.00
00565               6.00    -2800.00
00566              10.00    -2600.00
00567               6.00    -2400.00
00568               2.00    -2400.00
00569               2.00    -2000.00
00570               4.00    -1800.00
00571               6.00    -1800.00
00572               6.00    -1600.00
00573               2.00    -1400.00
00574               2.00    -1200.00
00575               2.00     -800.00
00576               2.00     -800.00
00577               2.00     -400.00
00578               4.00     -400.00
00579               4.00     -200.00
00580               4.00        0.00
00581               4.00      200.00
00582              20.00      600.00
00583              34.00      600.00
00584              -2.00      800.00
00585             -26.00      800.00
00586               2.00     1200.00
00587              30.00     1400.00
00588              36.00     1600.00
00589             122.00     1800.00
00590             250.00     2000.00
00591            -100.00     2200.00
00592            -250.00     2400.00
00593            -242.00     2600.00
00594             250.00     2800.00
00595             250.00     3000.00
00596             250.00     3200.00
00597            -250.00     3200.00
00598            -250.00     3400.00
00599             250.00     3800.00
00600             250.00     3600.00
00601            -250.00     4000.00
00602            -250.00     4000.00
00603              66.00     4400.00
00604             250.00     4600.00
00605             170.00     4600.00
00606            -250.00     5200.00
00607            -250.00     4800.00
00608             222.00     5200.00
00609             250.00     5800.00
00610             -76.00     5200.00
00611            -250.00     6000.00
00612             -72.00     6000.00
00613             206.00     6000.00
00614             132.00     6400.00
00615            -198.00     6200.00
00616            -190.00     6800.00
00617             146.00     6800.00
00618             174.00     7000.00
00619            -104.00     7200.00
00620            -198.00     7200.00
00621             -66.00     7400.00
00622             174.00     7600.00
00623             120.00     7800.00
00624            -170.00     7800.00
00625            -144.00     8000.00
00626              44.00     8200.00
00627              98.00     8400.00
00628             -12.00     8400.00
00629            -124.00     8600.00
00630             -62.00     8800.00
00631              86.00     9000.00
00632              44.00     9000.00
00633            -100.00     9000.00
00634             -92.00     9200.00
00635              10.00     9400.00
00636              60.00     9400.00
00637               2.00     9600.00
00638             -84.00     9800.00
00639             -66.00     9800.00
00640              20.00    10000.00
00641              18.00    10000.00
00642             -38.00    10200.00
00643             -50.00    10200.00
00644             -20.00    10400.00
00645              10.00    10400.00
00646             -16.00    10600.00
00647             -54.00    10800.00
00648             -36.00    11000.00
00649               2.00    10800.00
00650              -2.00    11000.00
00651             -22.00    10800.00
00652             -44.00    11200.00
00653             -34.00    11200.00
00654             -12.00    11200.00
00655             -20.00    11200.00
00656             -28.00    11200.00
00657             -20.00    11400.00
00658             -18.00    11600.00
00659             -28.00    11600.00
00660             -34.00    11600.00
00661             -30.00    11800.00
00662             -22.00    11800.00
00663             -12.00    11800.00
00664             -20.00    11800.00
00665             -30.00    12000.00
00666             -36.00    12000.00
00667             -30.00    11800.00
00668             -24.00    11800.00
00669             -22.00    11800.00
00670             -24.00    12000.00
00671             -22.00    12000.00
00672             -28.00    12000.00
00673             -34.00    12000.00
00674             -34.00    12000.00
00675             -28.00    12000.00
00676             -22.00    12000.00
00677             -20.00    12000.00
00678             -26.00    12000.00
00679             -34.00    12000.00
00680             -36.00    12000.00
00681             -32.00    12000.00
00682             -26.00    11800.00
00683             -22.00    12000.00
00684             -28.00    11800.00
00685             -30.00    11800.00
00686             -30.00    11800.00
00687             -34.00    11800.00
00688             -30.00    11800.00
00689             -24.00    11600.00
00690             -24.00    11600.00
00691             -22.00    11600.00
00692             -28.00    11600.00
00693             -36.00    11600.00
00694             -34.00    11400.00
00695             -28.00    11400.00
00696             -26.00    11200.00
00697             -22.00    11200.00
00698             -28.00    11200.00
00699             -34.00    11000.00
00700             -30.00    11000.00
00701             -30.00    11000.00
00702             -28.00    10800.00
00703             -26.00    10800.00
00704             -26.00    10800.00
00705             -26.00    10400.00
00706             -30.00    10600.00
00707             -30.00    10400.00
00708             -30.00    10200.00
00709             -24.00    10200.00
00710             -24.00    10000.00
00711             -22.00    10000.00
00712             -28.00     9800.00
00713             -30.00     9600.00
00714             -30.00     9600.00
00715             -26.00     9400.00
00716             -22.00     9400.00
00717             -20.00     9200.00
00718             -22.00     9200.00
00719             -26.00     9200.00
00720             -28.00     8800.00
00721             -28.00     8800.00
00722             -22.00     8600.00
00723             -20.00     8600.00
00724             -20.00     8400.00
00725             -22.00     8200.00
00726             -26.00     8200.00
00727             -26.00     8000.00
00728             -22.00     7800.00
00729             -20.00     7600.00
00730             -20.00     7600.00
00731             -20.00     7600.00
00732             -20.00     7200.00
00733             -22.00     7000.00
00734             -24.00     7000.00
00735             -22.00     6800.00
00736             -18.00     6600.00
00737             -18.00     6400.00
00738             -18.00     6200.00
00739             -22.00     6200.00
00740             -22.00     5800.00
00741             -22.00     5800.00
00742             -20.00     5400.00
00743             -18.00     5400.00
00744             -18.00     5200.00
00745             -20.00     4800.00
00746             -22.00     4800.00
00747             -20.00     4600.00
00748             -20.00     4400.00
00749             -16.00     4400.00
00750             -12.00     4000.00
00751             -12.00     3800.00
00752             -14.00     3800.00
00753             -20.00     3600.00
00754             -20.00     3400.00
00755             -16.00     3200.00
00756             -12.00     3000.00
00757             -12.00     2800.00
00758             -12.00     2600.00
00759             -18.00     2400.00
00760             -18.00     2200.00
00761             -14.00     2000.00
00762             -12.00     1800.00
00763             -10.00     1600.00
00764             -10.00     1400.00
00765             -12.00     1200.00
00766             -12.00     1000.00
00767             -12.00     1000.00
00768             -10.00      800.00
00769              -6.00      400.00
00770              -4.00      400.00
00771              -4.00        0.00
00772              -4.00        0.00
00773              -6.00     -200.00
00774              14.00     -400.00
00775              26.00     -400.00
00776             -10.00     -800.00
00777             -30.00     -800.00
00778              -2.00    -1000.00
00779              26.00    -1400.00
00780              68.00    -1600.00
00781             250.00    -1600.00
00782              88.00    -2200.00
00783            -250.00    -2400.00
00784            -250.00    -2400.00
00785             166.00    -2600.00
00786             250.00    -2000.00
00787             250.00    -3000.00
00788            -250.00    -3200.00
00789            -250.00    -2600.00
00790             250.00    -4200.00
00791             250.00    -3600.00
00792            -250.00    -3400.00
00793            -250.00    -4800.00
00794            -182.00    -3200.00
00795             250.00    -4800.00
00796              84.00    -4600.00
00797            -250.00    -4000.00
00798            -122.00    -6000.00
00799              10.00    -4200.00
00800             250.00    -5200.00
00801             -30.00    -6000.00
00802            -250.00    -4600.00
00803              22.00    -6800.00
00804             172.00    -5600.00
00805             246.00    -6200.00
00806            -246.00    -6600.00
00807            -190.00    -5800.00
00808             222.00    -7200.00
00809             140.00    -6400.00
00810              -2.00    -7200.00
00811            -220.00    -7200.00
00812             -66.00    -7000.00
00813             250.00    -8000.00
00814             118.00    -7200.00
00815            -130.00    -8000.00
00816            -124.00    -8000.00
00817              36.00    -8000.00
00818             178.00    -8400.00
00819              12.00    -8200.00
00820            -106.00    -8800.00
00821             -36.00    -8600.00
00822              94.00    -9000.00
00823             100.00    -8800.00
00824             -60.00    -9000.00
00825             -58.00    -9000.00
00826              20.00    -9200.00
00827              90.00    -9400.00
00828              44.00    -9600.00
00829             -44.00    -9600.00
00830             -28.00    -9800.00
00831              50.00   -10000.00
00832              54.00   -10000.00
00833              12.00   -10000.00
00834              -4.00   -10000.00
00835               6.00   -10200.00
00836              44.00   -10400.00
00837              26.00   -10600.00
00838               2.00   -10600.00
00839               2.00   -10600.00
00840              22.00   -10600.00
00841              38.00   -10800.00
00842              26.00   -10800.00
00843               2.00   -11000.00
00844              12.00   -11200.00
00845              26.00   -11000.00
00846              26.00   -11200.00
00847              22.00   -11200.00
00848              16.00   -11200.00
00849              28.00   -11400.00
00850              20.00   -11400.00
00851              20.00   -11400.00
00852              18.00   -11600.00
00853              14.00   -11600.00
00854              34.00   -11600.00
00855              30.00   -11800.00
00856              20.00   -11800.00
00857              14.00   -12000.00
00858              16.00   -11800.00
00859              28.00   -12000.00
00860              26.00   -11800.00
00861              22.00   -11800.00
00862              22.00   -12000.00
00863              26.00   -12000.00
00864              26.00   -12000.00
00865              20.00   -11800.00
00866              18.00   -12000.00
00867              24.00   -11800.00
00868              26.00   -12000.00
00869              28.00   -12000.00
00870              18.00   -11800.00
00871              18.00   -12000.00
00872              20.00   -12000.00
00873              24.00   -11800.00
00874              28.00   -12000.00
00875              24.00   -11800.00
00876              20.00   -11800.00
00877              22.00   -11800.00
00878              20.00   -11800.00
00879              22.00   -11600.00
00880              20.00   -11600.00
00881              26.00   -11600.00
00882              26.00   -11600.00
00883              22.00   -11600.00
00884              20.00   -11600.00
00885              18.00   -11600.00
00886              20.00   -11400.00
00887              26.00   -11200.00
00888              24.00   -11200.00
00889              24.00   -11000.00
00890              20.00   -11200.00
00891              20.00   -11000.00
00892              20.00   -10800.00
00893              20.00   -10800.00
00894              26.00   -10800.00
00895              24.00   -10600.00
00896              22.00   -10400.00
00897              20.00   -10400.00
00898              18.00   -10400.00
00899              20.00   -10400.00
00900              20.00   -10200.00
00901              22.00   -10000.00
00902              20.00   -10000.00
00903              20.00   -10000.00
00904              18.00    -9800.00
00905              18.00    -9600.00
00906              20.00    -9600.00
00907              20.00    -9400.00
00908              24.00    -9200.00
00909              22.00    -9200.00
00910              20.00    -9200.00
00911              18.00    -9000.00
00912              18.00    -8800.00
00913              18.00    -8600.00
00914              20.00    -8800.00
00915              22.00    -8400.00
00916              18.00    -8200.00
00917              18.00    -8200.00
00918              14.00    -8000.00
00919              18.00    -8000.00
00920              18.00    -7600.00
00921              18.00    -7400.00
00922              18.00    -7400.00
00923              20.00    -7400.00
00924              14.00    -7200.00
00925              12.00    -7000.00
00926              14.00    -6800.00
00927              16.00    -6800.00
00928              18.00    -6600.00
00929              18.00    -6400.00
00930              12.00    -6200.00
00931              12.00    -6000.00
00932              14.00    -5800.00
00933              12.00    -5600.00
00934              12.00    -5600.00
00935              12.00    -5200.00
00936              12.00    -5000.00
00937              12.00    -5000.00
00938               6.00    -4800.00
00939              10.00    -4600.00
00940              10.00    -4400.00
00941              12.00    -4200.00
00942              12.00    -4000.00
00943               6.00    -4000.00
00944               6.00    -3600.00
00945               8.00    -3400.00
00946               4.00    -3400.00
00947               6.00    -3200.00
00948               6.00    -2800.00
00949               6.00    -2800.00
00950               6.00    -2600.00
00951               6.00    -2400.00
00952               4.00    -2200.00
00953               4.00    -2000.00
00954               6.00    -1600.00
00955               4.00    -1800.00
00956               4.00    -1600.00
00957               2.00    -1200.00
00958               4.00    -1000.00
00959               2.00     -800.00
00960               2.00     -800.00
00961               2.00     -400.00
00962               2.00     -200.00
00963               2.00     -200.00
00964               4.00        0.00
00965               6.00      400.00
00966              34.00      600.00
00967              26.00      600.00
00968             -14.00      800.00
00969             -20.00      800.00
00970              14.00     1200.00
00971              34.00     1400.00
00972              44.00     1600.00
00973             190.00     2000.00
00974             234.00     2200.00
00975            -250.00     2200.00
00976            -250.00     2400.00
00977               4.00     2600.00
00978             250.00     2600.00
00979             250.00     3000.00
00980             150.00     3400.00
00981            -250.00     3200.00
00982            -198.00     3600.00
00983             250.00     3600.00
00984              76.00     3600.00
00985            -250.00     4400.00
00986            -148.00     4000.00
00987             162.00     4600.00
00988             250.00     4600.00
00989             -38.00     4600.00
00990            -250.00     5200.00
00991            -114.00     4800.00
00992             250.00     5600.00
00993             222.00     5600.00
00994            -202.00     5600.00
00995            -250.00     6400.00
00996              46.00     5600.00
00997             230.00     6200.00
00998              26.00     6400.00
00999            -250.00     6400.00
01000             -84.00     6800.00
01001             214.00     6800.00
01002              90.00     7200.00
01003            -166.00     7000.00
01004            -178.00     7200.00
01005              22.00     7600.00
01006             210.00     7600.00
01007              18.00     7800.00
01008            -206.00     8000.00
01009             -76.00     8200.00
01010              84.00     8400.00
01011              76.00     8400.00
01012             -66.00     8600.00
01013            -130.00     8800.00
01014              -6.00     8800.00
01015             106.00     9200.00
01016             -10.00     9000.00
01017            -122.00     9200.00
01018             -60.00     9400.00
01019              38.00     9400.00
01020              52.00     9600.00
01021             -34.00     9600.00
01022             -94.00     9600.00
01023             -38.00    10000.00
01024              28.00    10000.00
01025              -4.00    10000.00
01026             -46.00    10200.00
01027             -38.00    10200.00
01028             -10.00    10400.00
01029               6.00    10400.00
01030             -36.00    10800.00
01031             -54.00    10600.00
01032             -20.00    10800.00
01033               2.00    11000.00
01034             -12.00    10800.00
01035             -34.00    11000.00
01036             -44.00    11200.00
01037             -22.00    11200.00
01038             -12.00    11200.00
01039             -22.00    11200.00
01040             -28.00    11400.00
01041             -20.00    11600.00
01042             -20.00    11600.00
01043             -28.00    11600.00
01044             -36.00    11600.00
01045             -34.00    11800.00
01046             -20.00    11800.00
01047             -12.00    11800.00
01048             -20.00    11800.00
01049             -30.00    11800.00
01050             -36.00    12000.00
01051             -30.00    12000.00
01052             -22.00    11800.00
01053             -22.00    12000.00
01054             -22.00    11800.00
01055             -22.00    12000.00
01056             -30.00    12000.00
01057             -32.00    12000.00
01058             -34.00    12000.00
01059             -26.00    11800.00
01060             -20.00    12000.00
01061             -20.00    12000.00
01062             -28.00    12000.00
01063             -36.00    12000.00
01064             -38.00    11800.00
01065             -28.00    12000.00
01066             -22.00    12000.00
01067             -22.00    11800.00
01068             -30.00    11800.00
01069             -30.00    11800.00
01070             -30.00    11800.00
01071             -34.00    11800.00
01072             -30.00    11800.00
01073             -26.00    11800.00
01074             -26.00    11600.00
01075             -22.00    11800.00
01076             -30.00    11400.00
01077             -36.00    11400.00
01078             -36.00    11400.00
01079             -28.00    11400.00
01080             -22.00    11200.00
01081             -20.00    11200.00
01082             -28.00    11000.00
01083             -34.00    11000.00
01084             -36.00    11000.00
01085             -28.00    11000.00
01086             -26.00    10800.00
01087             -22.00    10800.00
01088             -26.00    10600.00
01089             -30.00    10400.00
01090             -34.00    10400.00
01091             -30.00    10400.00
01092             -30.00    10400.00
01093             -22.00    10200.00
01094             -20.00    10000.00
01095             -26.00    10000.00
01096             -28.00     9800.00
01097             -30.00     9800.00
01098             -28.00     9600.00
01099             -26.00     9400.00
01100             -20.00     9400.00
01101             -20.00     9200.00
01102             -22.00     9200.00
01103             -28.00     9000.00
01104             -30.00     9000.00
01105             -26.00     8600.00
01106             -20.00     8600.00
01107             -16.00     8400.00
01108             -22.00     8400.00
01109             -26.00     8000.00
01110             -28.00     8000.00
01111             -26.00     8000.00
01112             -22.00     7800.00
01113             -18.00     7600.00
01114             -20.00     7400.00
01115             -22.00     7200.00
01116             -22.00     7200.00
01117             -26.00     7000.00
01118             -22.00     6800.00
01119             -18.00     6800.00
01120             -16.00     6400.00
01121             -14.00     6200.00
01122             -20.00     6200.00
01123             -22.00     6000.00
01124             -22.00     6000.00
01125             -20.00     5600.00
01126             -14.00     5600.00
01127             -14.00     5400.00
01128             -16.00     5000.00
01129             -20.00     4800.00
01130             -20.00     4800.00
01131             -22.00     4600.00
01132             -18.00     4400.00
01133             -12.00     4400.00
01134             -18.00     4000.00
01135             -14.00     3800.00
01136             -14.00     3600.00
01137             -18.00     3400.00
01138             -18.00     3200.00
01139             -16.00     3200.00
01140             -12.00     3000.00
01141             -12.00     2800.00
01142             -12.00     2600.00
01143             -12.00     2200.00
01144             -18.00     2200.00
01145             -16.00     2000.00
01146             -14.00     1800.00
01147              -6.00     1600.00
01148              -4.00     1400.00
01149             -12.00     1200.00
01150             -16.00      800.00
01151             -14.00      800.00
01152             -10.00      600.00
01153              -6.00      400.00
01154              -6.00      400.00
01155              -6.00        0.00
01156              -2.00        0.00
01157              -4.00     -200.00
01158              26.00     -400.00
01159              18.00     -600.00
01160             -18.00     -800.00
01161             -28.00    -1000.00
01162               8.00    -1200.00
01163              26.00    -1400.00
01164             136.00    -1600.00
01165             250.00    -2000.00
01166            -156.00    -2400.00
01167            -250.00    -2200.00
01168            -228.00    -2600.00
01169             250.00    -2400.00
01170             250.00    -2400.00
01171             250.00    -3200.00
01172            -250.00    -2800.00
01173             -62.00    -3000.00
01174             250.00    -4200.00
01175             -64.00    -3000.00
01176            -250.00    -4200.00
01177            -250.00    -4200.00
01178             150.00    -3200.00
01179             250.00    -5200.00
01180            -250.00    -4000.00
01181            -250.00    -4600.00
01182            -102.00    -5600.00
01183             188.00    -4000.00
01184             250.00    -6000.00
01185            -250.00    -5200.00
01186            -250.00    -5400.00
01187              92.00    -6400.00
01188             234.00    -5200.00
01189             128.00    -6800.00
01190            -250.00    -6000.00
01191             -10.00    -6400.00
01192             232.00    -7000.00
01193              98.00    -6400.00
01194             -78.00    -7600.00
01195            -230.00    -6800.00
01196              68.00    -7400.00
01197             250.00    -7600.00
01198              12.00    -7200.00
01199            -154.00    -8200.00
01200             -84.00    -7800.00
01201             108.00    -8200.00
01202             152.00    -8400.00
01203             -58.00    -8400.00
01204             -94.00    -8400.00
01205               4.00    -8600.00
01206             130.00    -9000.00
01207              52.00    -8800.00
01208             -86.00    -9000.00
01209             -32.00    -9000.00
01210              46.00    -9400.00
01211              94.00    -9200.00
01212              10.00    -9600.00
01213             -52.00    -9600.00
01214              -6.00    -9800.00
01215              60.00   -10000.00
01216              32.00   -10000.00
01217               6.00   -10000.00
01218              -6.00   -10000.00
01219              18.00   -10200.00
01220              44.00   -10400.00
01221              10.00   -10600.00
01222              -2.00   -10600.00
01223               6.00   -10600.00
01224              34.00   -10800.00
01225              36.00   -10800.00
01226              14.00   -10800.00
01227               2.00   -11200.00
01228              18.00   -11200.00
01229              26.00   -11000.00
01230              22.00   -11200.00
01231              16.00   -11400.00
01232              20.00   -11200.00
01233              26.00   -11400.00
01234              20.00   -11400.00
01235              20.00   -11400.00
01236              10.00   -11400.00
01237              20.00   -11600.00
01238              34.00   -11800.00
01239              26.00   -11600.00
01240              18.00   -11600.00
01241              12.00   -11600.00
01242              18.00   -11600.00
01243              26.00   -12000.00
01244              26.00   -11600.00
01245              20.00   -11800.00
01246              26.00   -12000.00
01247              26.00   -12000.00
01248              22.00   -11800.00
01249              20.00   -12000.00
01250              22.00   -12000.00
01251              24.00   -12000.00
01252              28.00   -11800.00
01253              26.00   -12000.00
01254              18.00   -12000.00
01255              18.00   -12000.00
01256              20.00   -11800.00
01257              28.00   -11800.00
01258              26.00   -11800.00
01259              26.00   -11600.00
01260              22.00   -11800.00
01261              20.00   -11600.00
01262              20.00   -11800.00
01263              20.00   -11600.00
01264              26.00   -11600.00
01265              30.00   -11600.00
01266              22.00   -11400.00
01267              16.00   -11400.00
01268              18.00   -11400.00
01269              22.00   -11400.00
01270              26.00   -11400.00
01271              22.00   -11200.00
01272              18.00   -11200.00
01273              22.00   -11000.00
01274              26.00   -11000.00
01275              20.00   -11000.00
01276              18.00   -11000.00
01277              20.00   -10800.00
01278              26.00   -10600.00
01279              22.00   -10600.00
01280              20.00   -10600.00
01281              18.00   -10400.00
01282              18.00   -10600.00
01283              26.00   -10200.00
01284              22.00   -10200.00
01285              14.00   -10000.00
01286              16.00    -9800.00
01287              20.00    -9800.00
01288              26.00    -9800.00
01289              26.00    -9600.00
01290              12.00    -9600.00
01291              12.00    -9400.00
01292              22.00    -9200.00
01293              20.00    -9200.00
01294              18.00    -9000.00
01295              16.00    -9000.00
01296              18.00    -8800.00
01297              18.00    -8800.00
01298              20.00    -8400.00
01299              18.00    -8400.00
01300              18.00    -8200.00
01301              18.00    -8000.00
01302              18.00    -8000.00
01303              18.00    -7600.00
01304              14.00    -7800.00
01305              14.00    -7400.00
01306              22.00    -7400.00
01307              18.00    -7200.00
01308              14.00    -7000.00
01309              10.00    -6800.00
01310              12.00    -6800.00
01311              18.00    -6600.00
01312              20.00    -6400.00
01313              14.00    -6200.00
01314              12.00    -6000.00
01315              14.00    -5800.00
01316              14.00    -5600.00
01317              12.00    -5600.00
01318              12.00    -5600.00
01319              14.00    -5000.00
01320              16.00    -5000.00
01321              14.00    -4600.00
01322               6.00    -4600.00
01323               4.00    -4400.00
01324              12.00    -4400.00
01325              20.00    -4200.00
01326              12.00    -4000.00
01327              10.00    -3800.00
01328               4.00    -3600.00
01329               6.00    -3400.00
01330              10.00    -3400.00
01331               4.00    -3000.00
01332               4.00    -2800.00
01333              10.00    -2800.00
01334               8.00    -2600.00
01335               4.00    -2400.00
01336               2.00    -2400.00
01337               4.00    -2000.00
01338              12.00    -1800.00
01339               4.00    -1600.00
01340               2.00    -1600.00
01341               2.00    -1200.00
01342               6.00    -1000.00
01343               4.00     -800.00
01344               2.00     -600.00
01345               2.00     -400.00
01346               4.00     -200.00
01347               4.00        0.00
01348               2.00      200.00
01349              10.00      400.00
01350              36.00      400.00
01351              12.00      800.00
01352             -22.00      800.00
01353             -12.00     1200.00
01354              22.00     1200.00
01355              34.00     1400.00
01356              70.00     1800.00
01357             250.00     2000.00
01358              98.00     2400.00
01359            -250.00     2200.00
01360            -250.00     2400.00
01361             204.00     2400.00
01362             250.00     2800.00
01363             250.00     3200.00
01364             -82.00     3200.00
01365            -250.00     3200.00
01366             188.00     3600.00
01367             250.00     3600.00
01368            -230.00     4000.00
01369            -250.00     4000.00
01370             -34.00     4200.00
01371             250.00     4600.00
01372             250.00     4400.00
01373            -246.00     5000.00
01374            -250.00     5000.00
01375              74.00     5000.00
01376             250.00     6000.00
01377              74.00     5400.00
01378            -250.00     5800.00
01379            -174.00     6200.00
01380             150.00     5800.00
01381             208.00     6400.00
01382             -96.00     6400.00
01383            -250.00     6600.00
01384              36.00     6800.00
01385             226.00     7000.00
01386             -10.00     7200.00
01387            -190.00     7200.00
01388            -130.00     7400.00
01389             106.00     7600.00
01390             186.00     7800.00
01391             -90.00     7800.00
01392            -190.00     8000.00
01393              -4.00     8400.00
01394             100.00     8200.00
01395              30.00     8400.00
01396            -106.00     8600.00
01397            -106.00     8600.00
01398              50.00     8800.00
01399              86.00     9000.00
01400             -58.00     9200.00
01401            -116.00     9200.00
01402             -26.00     9400.00
01403              56.00     9400.00
01404              30.00     9600.00
01405             -62.00     9600.00
01406             -86.00     9600.00
01407              -6.00    10000.00
01408              30.00    10000.00
01409             -22.00    10000.00
01410             -50.00    10200.00
01411             -34.00    10400.00
01412               2.00    10400.00
01413              -2.00    10400.00
01414             -46.00    10600.00
01415             -50.00    10600.00
01416             -12.00    10800.00
01417               2.00    10800.00
01418             -14.00    10800.00
01419             -42.00    11000.00
01420             -38.00    11000.00
01421             -18.00    11200.00
01422             -14.00    11200.00
01423             -28.00    11200.00
01424             -28.00    11200.00
01425             -18.00    11600.00
01426             -26.00    11600.00
01427             -32.00    11600.00
01428             -30.00    11600.00
01429             -26.00    11600.00
01430             -16.00    11800.00
01431             -20.00    11800.00
01432             -30.00    11800.00
01433             -32.00    11800.00
01434             -28.00    11800.00
01435             -26.00    11800.00
01436             -22.00    12000.00
01437             -24.00    11800.00
01438             -26.00    12000.00
01439             -26.00    12000.00
01440             -30.00    12000.00
01441             -34.00    12000.00
01442             -30.00    12000.00
01443             -28.00    12000.00
01444             -20.00    11800.00
01445             -22.00    12000.00
01446             -28.00    12000.00
01447             -34.00    12000.00
01448             -36.00    12000.00
01449             -30.00    11800.00
01450             -22.00    12000.00
01451             -10.00    11800.00
01452             -18.00    12000.00
01453             -34.00    11800.00
01454             -50.00    11800.00
01455             -46.00    11800.00
01456             -20.00    11600.00
01457               2.00    11800.00
01458             -12.00    11600.00
01459             -46.00    11600.00
01460             -52.00    11600.00
01461             -38.00    11400.00
01462             -20.00    11400.00
01463             -12.00    11200.00
01464             -22.00    11200.00
01465             -30.00    11200.00
01466             -34.00    11000.00
01467             -34.00    11000.00
01468             -42.00    11000.00
01469             -42.00    11000.00
01470             -14.00    10800.00
01471               2.00    10800.00
01472             -14.00    10600.00
01473             -54.00    10400.00
01474             -62.00    10400.00
01475             -30.00    10400.00
01476               2.00    10200.00
01477              -4.00    10200.00
01478             -30.00    10000.00
01479             -44.00    10000.00
01480             -38.00     9800.00
01481             -28.00     9600.00
01482             -22.00     9600.00
01483             -20.00     9400.00
01484             -18.00     9400.00
01485             -20.00     9200.00
01486             -28.00     9200.00
01487             -38.00     8800.00
01488             -34.00     8800.00
01489             -18.00     8600.00
01490             -10.00     8600.00
01491             -18.00     8400.00
01492             -30.00     8400.00
01493             -34.00     8400.00
01494             -24.00     8000.00
01495             -18.00     8000.00
01496             -18.00     7800.00
01497             -18.00     7600.00
01498             -20.00     7400.00
01499             -22.00     7200.00
01500             -26.00     7000.00
01501             -28.00     7000.00
01502             -22.00     6800.00
01503             -18.00     6600.00
01504             -12.00     6400.00
01505             -18.00     6400.00
01506             -22.00     6000.00
01507             -26.00     6000.00
01508             -20.00     6000.00
01509             -14.00     5800.00
01510             -14.00     5400.00
01511             -16.00     5400.00
01512             -18.00     5200.00
01513             -20.00     4800.00
01514             -20.00     4800.00
01515             -18.00     4600.00
01516             -14.00     4400.00
01517             -12.00     4200.00
01518             -14.00     3800.00
01519             -18.00     3800.00
01520             -18.00     3600.00
01521             -20.00     3400.00
01522             -14.00     3200.00
01523             -12.00     3200.00
01524             -10.00     2800.00
01525             -12.00     2800.00
01526             -12.00     2400.00
01527             -14.00     2200.00
01528             -14.00     2000.00
01529             -12.00     2000.00
01530             -10.00     1800.00
01531              -8.00     1600.00
01532             -10.00     1200.00
01533             -10.00     1200.00
01534             -12.00      800.00
01535             -12.00      600.00
01536              -6.00      600.00
01537              -4.00      400.00
01538              -6.00      200.00
01539              -6.00        0.00
01540              -4.00        0.00
01541               4.00     -400.00
01542              28.00     -400.00
01543               4.00     -800.00
01544             -30.00     -800.00
01545             -18.00    -1000.00
01546              18.00    -1200.00
01547              42.00    -1600.00
01548             230.00    -1600.00
01549             250.00    -2000.00
01550            -250.00    -2400.00
01551            -250.00    -2400.00
01552              -6.00    -2800.00
01553             250.00    -2400.00
01554             250.00    -2600.00
01555            -250.00    -3400.00
01556            -250.00    -2600.00
01557             250.00    -3600.00
01558             250.00    -4000.00
01559            -250.00    -3000.00
01560            -250.00    -4600.00
01561            -250.00    -3600.00
01562             250.00    -4000.00
01563             250.00    -5400.00
01564            -250.00    -3600.00
01565            -194.00    -5600.00
01566             -82.00    -5000.00
01567             250.00    -4400.00
01568             250.00    -6400.00
01569            -250.00    -4600.00
01570             -94.00    -6200.00
01571             126.00    -6000.00
01572             250.00    -5600.00
01573             -66.00    -7000.00
01574            -250.00    -5800.00
01575             144.00    -7000.00
01576             194.00    -6600.00
01577              52.00    -6800.00
01578            -164.00    -7600.00
01579            -174.00    -6800.00
01580             190.00    -7600.00
01581             210.00    -7200.00
01582             -70.00    -7800.00
01583            -150.00    -8000.00
01584             -28.00    -8000.00
01585             158.00    -8400.00
01586              86.00    -8200.00
01587             -94.00    -8400.00
01588             -70.00    -8400.00
01589              50.00    -8800.00
01590             130.00    -8800.00
01591             -12.00    -9000.00
01592             -76.00    -9000.00
01593              -4.00    -9200.00
01594              70.00    -9400.00
01595              74.00    -9400.00
01596             -26.00    -9600.00
01597             -44.00    -9600.00
01598              22.00    -9800.00
01599              58.00    -9800.00
01600              20.00   -10000.00
01601              -2.00   -10000.00
01602              -6.00   -10000.00
01603              34.00   -10400.00
01604              36.00   -10400.00
01605               4.00   -10400.00
01606              -2.00   -10400.00
01607              14.00   -10600.00
01608              38.00   -10800.00
01609              30.00   -10800.00
01610               6.00   -11200.00
01611               4.00   -10800.00
01612              22.00   -11200.00
01613              24.00   -11000.00
01614              20.00   -11400.00
01615              18.00   -11200.00
01616              26.00   -11400.00
01617              26.00   -11400.00
01618              20.00   -11400.00
01619              20.00   -11400.00
01620              10.00   -11600.00
01621              26.00   -11600.00
01622              34.00   -11400.00
01623              22.00   -11600.00
01624              18.00   -11800.00
01625              14.00   -11800.00
01626              22.00   -11800.00
01627              26.00   -11800.00
01628              22.00   -11800.00
01629              20.00   -11800.00
01630              24.00   -12000.00
01631              26.00   -12000.00
01632              20.00   -12000.00
01633              20.00   -11800.00
01634              20.00   -12000.00
01635              26.00   -12000.00
01636              30.00   -12000.00
01637              26.00   -11800.00
01638              18.00   -12000.00
01639              20.00   -12000.00
01640              22.00   -12000.00
01641              28.00   -12000.00
01642              26.00   -11800.00
01643              20.00   -11800.00
01644              22.00   -11600.00
01645              20.00   -11800.00
01646              22.00   -11600.00
01647              22.00   -11600.00
01648              22.00   -11600.00
01649              24.00   -11400.00
01650              22.00   -11600.00
01651              22.00   -11400.00
01652              18.00   -11400.00
01653              18.00   -11400.00
01654              22.00   -11400.00
01655              26.00   -11400.00
01656              22.00   -11000.00
01657              22.00   -11200.00
01658              18.00   -11000.00
01659              20.00   -11000.00
01660              20.00   -10800.00
01661              20.00   -10800.00
01662              24.00   -10600.00
01663              22.00   -10600.00
01664              20.00   -10600.00
01665              20.00   -10400.00
01666              20.00   -10400.00
01667              20.00   -10200.00
01668              20.00   -10000.00
01669              20.00   -10000.00
01670              20.00   -10000.00
01671              18.00    -9800.00
01672              18.00    -9600.00
01673              18.00    -9600.00
01674              20.00    -9600.00
01675              20.00    -9400.00
01676              22.00    -9200.00
01677              20.00    -9000.00
01678              18.00    -9000.00
01679              18.00    -9000.00
01680              18.00    -8800.00
01681              20.00    -8600.00
01682              20.00    -8400.00
01683              16.00    -8400.00
01684              18.00    -8200.00
01685              14.00    -8200.00
01686              14.00    -8000.00
01687              18.00    -7600.00
01688              18.00    -7600.00
01689              18.00    -7400.00
01690              20.00    -7400.00
01691              14.00    -7200.00
01692              12.00    -7000.00
01693              14.00    -6800.00
01694              14.00    -6600.00
01695              14.00    -6600.00
01696              18.00    -6400.00
01697              12.00    -6200.00
01698              14.00    -6000.00
01699              14.00    -6000.00
01700              12.00    -5800.00
01701              12.00    -5600.00
01702              12.00    -5200.00
01703              14.00    -5200.00
01704              12.00    -5000.00
01705              10.00    -4600.00
01706               8.00    -4600.00
01707              12.00    -4400.00
01708              14.00    -4200.00
01709              10.00    -4000.00
01710              10.00    -3800.00
01711               8.00    -3800.00
01712               6.00    -3600.00
01713              10.00    -3200.00
01714               8.00    -3200.00
01715               6.00    -3000.00
01716               6.00    -2800.00
01717               4.00    -2600.00
01718               4.00    -2400.00
01719               4.00    -2000.00
01720               2.00    -2200.00
01721               2.00    -1800.00
01722               6.00    -1800.00
01723               4.00    -1600.00
01724               4.00    -1200.00
01725               2.00    -1000.00
01726               4.00     -800.00
01727               2.00     -800.00
01728               2.00     -600.00
01729               2.00     -400.00
01730               4.00     -200.00
01731               4.00        0.00
01732               4.00      400.00
01733              20.00      400.00
01734              30.00      600.00
01735              -4.00      800.00
01736             -26.00      800.00
01737              -2.00     1200.00
01738              26.00     1200.00
01739              34.00     1400.00
01740             122.00     1800.00
01741             250.00     2200.00
01742            -108.00     2400.00
01743            -250.00     2400.00
01744            -236.00     2400.00
01745             250.00     2600.00
01746             250.00     3000.00
01747             250.00     3200.00
01748            -250.00     3200.00
01749            -250.00     3400.00
01750             250.00     3800.00
01751             250.00     3600.00
01752            -250.00     4200.00
01753            -250.00     4000.00
01754              68.00     4400.00
01755             250.00     4600.00
01756             162.00     4400.00
01757            -250.00     5200.00
01758            -250.00     4800.00
01759             228.00     5400.00
01760             250.00     5800.00
01761             -82.00     5200.00
01762            -250.00     6000.00
01763             -66.00     6000.00
01764             210.00     6200.00
01765             130.00     6600.00
01766            -204.00     6400.00
01767            -186.00     6800.00
01768             148.00     6800.00
01769             178.00     7000.00
01770            -104.00     7200.00
01771            -196.00     7200.00
01772             -62.00     7600.00
01773             180.00     7400.00
01774             122.00     8000.00
01775            -172.00     7800.00
01776            -146.00     8200.00
01777              48.00     8400.00
01778              98.00     8400.00
01779             -14.00     8400.00
01780            -124.00     8600.00
01781             -60.00     8800.00
01782              86.00     8800.00
01783              44.00     9000.00
01784            -102.00     9200.00
01785             -94.00     9200.00
01786              12.00     9200.00
01787              60.00     9400.00
01788              -2.00     9600.00
01789             -86.00     9600.00
01790             -62.00     9800.00
01791              20.00    10000.00
01792              14.00    10000.00
01793             -38.00    10000.00
01794             -50.00    10200.00
01795             -20.00    10400.00
01796               8.00    10400.00
01797             -20.00    10600.00
01798             -60.00    10800.00
01799             -36.00    10800.00
01800              -2.00    10800.00
01801              -4.00    10800.00
01802             -26.00    11000.00
01803             -46.00    11000.00
01804             -34.00    11000.00
01805             -14.00    11000.00
01806             -22.00    11200.00
01807             -30.00    11200.00
01808             -22.00    11400.00
01809             -18.00    11400.00
01810             -28.00    11600.00
01811             -34.00    11600.00
01812             -36.00    11600.00
01813             -22.00    11600.00
01814             -14.00    11800.00
01815             -20.00    11800.00
01816             -30.00    11800.00
01817             -34.00    12000.00
01818             -32.00    11800.00
01819             -26.00    12000.00
01820             -22.00    12000.00
01821             -22.00    11800.00
01822             -24.00    12000.00
01823             -28.00    12000.00
01824             -32.00    12000.00
01825             -30.00    12000.00
01826             -28.00    12000.00
01827             -22.00    12000.00
01828             -20.00    12000.00
01829             -24.00    12000.00
01830             -30.00    12000.00
01831             -36.00    12000.00
01832             -30.00    11800.00
01833             -26.00    12000.00
01834             -22.00    12000.00
01835             -24.00    11800.00
01836             -30.00    11800.00
01837             -30.00    11800.00
01838             -32.00    11800.00
01839             -30.00    11600.00
01840             -24.00    11800.00
01841             -22.00    11600.00
01842             -24.00    11600.00
01843             -28.00    11600.00
01844             -34.00    11600.00
01845             -34.00    11600.00
01846             -30.00    11400.00
01847             -22.00    11200.00
01848             -20.00    11200.00
01849             -28.00    11000.00
01850             -34.00    11200.00
01851             -30.00    11000.00
01852             -30.00    11000.00
01853             -28.00    10800.00
01854             -22.00    10800.00
01855             -24.00    10800.00
01856             -28.00    10600.00
01857             -30.00    10400.00
01858             -34.00    10400.00
01859             -30.00    10200.00
01860             -22.00    10200.00
01861             -22.00    10000.00
01862             -22.00    10000.00
01863             -30.00    10000.00
01864             -30.00     9600.00
01865             -30.00     9600.00
01866             -28.00     9400.00
01867             -22.00     9400.00
01868             -22.00     9200.00
01869             -22.00     9200.00
01870             -28.00     9000.00
01871             -30.00     8800.00
01872             -28.00     8800.00
01873             -22.00     8600.00
01874             -20.00     8600.00
01875             -20.00     8400.00
01876             -26.00     8200.00
01877             -28.00     8200.00
01878             -26.00     8000.00
01879             -22.00     7800.00
01880             -20.00     7600.00
01881             -18.00     7600.00
01882             -20.00     7200.00
01883             -22.00     7200.00
01884             -26.00     7000.00
01885             -22.00     6800.00
01886             -22.00     6800.00
01887             -20.00     6600.00
01888             -18.00     6400.00
01889             -18.00     6400.00
01890             -20.00     6000.00
01891             -22.00     6000.00
01892             -22.00     5800.00
01893             -18.00     5600.00
01894             -14.00     5400.00
01895             -14.00     5200.00
01896             -18.00     5000.00
01897             -20.00     5000.00
01898             -20.00     4600.00
01899             -18.00     4400.00
01900             -12.00     4400.00
01901             -12.00     4200.00
01902             -14.00     3800.00
01903             -14.00     3800.00
01904             -18.00     3600.00
01905             -16.00     3200.00
01906             -14.00     3200.00
01907             -12.00     3000.00
01908             -10.00     2800.00
01909             -12.00     2800.00
01910             -14.00     2400.00
01911             -14.00     2200.00
01912             -14.00     2000.00
01913             -12.00     2000.00
01914             -10.00     1800.00
01915             -10.00     1400.00
01916             -12.00     1400.00
01917             -12.00     1200.00
01918             -12.00      800.00
01919             -12.00      600.00
01920              -6.00      400.00
01921              -6.00      400.00
01922              -4.00        0.00
01923              -6.00     -200.00
01924              -2.00     -200.00
01925              14.00     -400.00
01926              26.00     -600.00
01927              -6.00     -800.00
01928             -32.00     -800.00
01929              -4.00    -1000.00
01930              22.00    -1200.00
01931              70.00    -1400.00
01932             250.00    -1800.00
01933              78.00    -2400.00
01934            -250.00    -2400.00
01935            -250.00    -2400.00
01936             168.00    -2800.00
01937             250.00    -2200.00
01938             250.00    -3000.00
01939            -250.00    -3200.00
01940            -250.00    -2600.00
01941             250.00    -4200.00
01942             250.00    -3200.00
01943            -250.00    -3400.00
01944            -250.00    -4800.00
01945            -174.00    -3200.00
01946             250.00    -4600.00
01947              62.00    -4600.00
01948            -250.00    -4000.00
01949            -122.00    -5800.00
01950              18.00    -4200.00
01951             250.00    -5400.00
01952             -38.00    -5800.00
01953            -250.00    -4600.00
01954              36.00    -6600.00
01955             174.00    -5600.00
01956             238.00    -6400.00
01957            -250.00    -6600.00
01958            -198.00    -6000.00
01959             214.00    -7200.00
01960             140.00    -6400.00
01961               0.00    -7200.00
01962            -210.00    -7200.00
01963             -46.00    -7000.00
01964             250.00    -8000.00
01965             116.00    -7200.00
01966            -138.00    -8200.00
01967            -138.00    -8000.00
01968              28.00    -8200.00
01969             166.00    -8400.00
01970              12.00    -8200.00
01971             -94.00    -8800.00
01972             -22.00    -8600.00
01973             110.00    -8800.00
01974             108.00    -8800.00
01975             -62.00    -9000.00
01976             -66.00    -9200.00
01977              10.00    -9200.00
01978              78.00    -9400.00
01979              38.00    -9600.00
01980             -38.00    -9600.00
01981             -20.00    -9600.00
01982              54.00   -10000.00
01983              52.00    -9800.00
01984               6.00   -10000.00
01985              -6.00   -10000.00
01986              -2.00   -10400.00
01987              38.00   -10400.00
01988              26.00   -10400.00
01989               2.00   -10600.00
01990               4.00   -10600.00
01991              26.00   -10800.00
01992              38.00   -10800.00
01993              18.00   -10800.00
01994               2.00   -10800.00
01995               6.00   -11200.00
01996              26.00   -11200.00
01997              26.00   -11000.00
01998              20.00   -11200.00
01999              14.00   -11000.00
02000              26.00   -11400.00
02001              18.00   -11400.00
02002              18.00   -11400.00
02003              10.00   -11600.00
02004              12.00   -11600.00
02005              30.00   -11600.00
02006              30.00   -11800.00
02007              20.00   -11600.00
02008              16.00   -12000.00
02009              14.00   -11800.00
02010              26.00   -12000.00
02011              24.00   -11800.00
02012              20.00   -11800.00
02013              20.00   -12000.00
02014              26.00   -12000.00
02015              20.00   -12000.00
02016              20.00   -12000.00
02017              24.00   -12000.00
02018              26.00   -12000.00
02019              30.00   -12000.00
02020              26.00   -12000.00
02021              18.00   -12000.00
02022              14.00   -12000.00
02023              18.00   -11800.00
02024              26.00   -12000.00
02025              30.00   -11600.00
02026              26.00   -11800.00
02027              26.00   -11600.00
02028              26.00   -12000.00
02029              20.00   -11600.00
02030              18.00   -11800.00
02031              18.00   -11600.00
02032              20.00   -11600.00
02033              26.00   -11600.00
02034              26.00   -11400.00
02035              22.00   -11400.00
02036              20.00   -11400.00
02037              22.00   -11200.00
02038              26.00   -11000.00
02039              26.00   -11200.00
02040              22.00   -11000.00
02041              20.00   -11000.00
02042              18.00   -11000.00
02043              18.00   -10800.00
02044              22.00   -10800.00
02045              26.00   -10800.00
02046              24.00   -10800.00
02047              20.00   -10600.00
02048              20.00   -10600.00
02049              20.00   -10400.00
02050              20.00   -10400.00
02051              22.00   -10200.00
02052              22.00   -10000.00
02053              22.00   -10000.00
02054              20.00    -9800.00
02055              18.00    -9800.00
02056              18.00    -9800.00
02057              14.00    -9600.00
02058              20.00    -9400.00
02059              22.00    -9200.00
02060              22.00    -9200.00
02061              18.00    -9000.00
02062              18.00    -9000.00
02063              14.00    -8800.00
02064              18.00    -8800.00
02065              18.00    -8600.00
02066              20.00    -8400.00
02067              18.00    -8400.00
02068              18.00    -8200.00
02069              18.00    -8000.00
02070              18.00    -8000.00
02071              18.00    -7600.00
02072              18.00    -7600.00
02073              12.00    -7400.00
02074              18.00    -7200.00
02075              14.00    -7200.00
02076              12.00    -6800.00
02077              12.00    -6800.00
02078              16.00    -6600.00
02079              14.00    -6400.00
02080              18.00    -6200.00
02081              12.00    -6200.00
02082              12.00    -6000.00
02083              12.00    -5800.00
02084              14.00    -5800.00
02085              14.00    -5600.00
02086              12.00    -5200.00
02087              14.00    -5000.00
02088              12.00    -5000.00
02089              10.00    -4800.00
02090              12.00    -4400.00
02091              12.00    -4400.00
02092              12.00    -4200.00
02093              12.00    -4000.00
02094              10.00    -3800.00
02095              10.00    -3600.00
02096              10.00    -3400.00
02097               6.00    -3200.00
02098               6.00    -3200.00
02099              10.00    -3000.00
02100              10.00    -2800.00
02101               8.00    -2400.00
02102               4.00    -2400.00
02103               4.00    -2400.00
02104               4.00    -2000.00
02105               6.00    -1800.00
02106               6.00    -1600.00
02107               6.00    -1400.00
02108               2.00    -1200.00
02109               2.00    -1000.00
02110               4.00     -800.00
02111               2.00     -800.00
02112               4.00     -400.00
02113               2.00     -200.00
02114               4.00     -200.00
02115               4.00        0.00
02116               8.00      400.00
02117              30.00      400.00
02118              20.00      600.00
02119             -14.00      800.00
02120             -24.00      800.00
02121              10.00     1200.00
02122              30.00     1400.00
02123              44.00     1600.00
02124             190.00     1800.00
02125             228.00     2200.00
02126            -250.00     2200.00
02127            -250.00     2200.00
02128               8.00     2600.00
02129             250.00     2800.00
02130             250.00     3000.00
02131             146.00     3200.00
02132            -250.00     3000.00
02133            -190.00     3600.00
02134             250.00     3600.00
02135              66.00     3600.00
02136            -250.00     4200.00
02137            -142.00     4000.00
02138             166.00     4600.00
02139             250.00     4400.00
02140             -42.00     4600.00
02141            -250.00     5200.00
02142            -110.00     4800.00
02143             250.00     5600.00
02144             222.00     5400.00
02145            -208.00     5600.00
02146            -250.00     6200.00
02147              52.00     5600.00
02148             230.00     6400.00
02149              20.00     6400.00
02150            -250.00     6400.00
02151             -80.00     7000.00
02152             214.00     6800.00
02153              86.00     7200.00
02154            -166.00     7200.00
02155            -174.00     7400.00
02156              26.00     7600.00
02157             212.00     7600.00
02158              14.00     8000.00
02159            -208.00     8000.00
02160             -76.00     8200.00
02161              84.00     8400.00
02162              78.00     8200.00
02163             -62.00     8600.00
02164            -126.00     8600.00
02165              -4.00     8800.00
02166             102.00     9200.00
02167             -12.00     9000.00
02168            -116.00     9200.00
02169             -56.00     9200.00
02170              36.00     9200.00
02171              52.00     9600.00
02172             -34.00     9600.00
02173             -92.00     9600.00
02174             -36.00    10000.00
02175              30.00    10000.00
02176              -6.00    10000.00
02177             -48.00    10400.00
02178             -42.00    10200.00
02179              -8.00    10200.00
02180               6.00    10400.00
02181             -38.00    10600.00
02182             -58.00    10800.00
02183             -22.00    10800.00
02184               2.00    10800.00
02185             -10.00    10800.00
02186             -36.00    11000.00
02187             -44.00    11000.00
02188             -26.00    11000.00
02189             -12.00    11200.00
02190             -26.00    11200.00
02191             -28.00    11200.00
02192             -20.00    11400.00
02193             -20.00    11600.00
02194             -30.00    11600.00
02195             -38.00    11800.00
02196             -34.00    11400.00
02197             -22.00    11600.00
02198             -14.00    11800.00
02199             -22.00    11800.00
02200             -34.00    11800.00
02201             -34.00    11800.00
02202             -28.00    11800.00
02203             -22.00    11800.00
02204             -22.00    11800.00
02205             -24.00    12000.00
02206             -26.00    11800.00
02207             -30.00    11800.00
02208             -34.00    12000.00
02209             -30.00    11800.00
02210             -26.00    12000.00
02211             -20.00    12000.00
02212             -22.00    12000.00
02213             -28.00    12000.00
02214             -30.00    11800.00
02215             -36.00    12000.00
02216             -30.00    12000.00
02217             -22.00    12000.00
02218             -20.00    11800.00
02219             -26.00    11800.00
02220             -28.00    12000.00
02221             -34.00    11600.00
02222             -30.00    11800.00
02223             -28.00    11600.00
02224             -22.00    11600.00
02225             -22.00    11600.00
02226             -26.00    11600.00
02227             -28.00    11400.00
02228             -34.00    11600.00
02229             -32.00    11400.00
02230             -26.00    11200.00
02231             -20.00    11200.00
02232             -20.00    11200.00
02233             -28.00    11000.00
02234             -32.00    11000.00
02235             -30.00    11000.00
02236             -28.00    11000.00
02237             -28.00    10800.00
02238             -22.00    10800.00
02239             -26.00    10800.00
02240             -28.00    10600.00
02241             -34.00    10400.00
02242             -30.00    10400.00
02243             -28.00    10200.00
02244             -22.00    10000.00
02245             -22.00    10000.00
02246             -26.00    10000.00
02247             -28.00     9600.00
02248             -30.00     9800.00
02249             -28.00     9400.00
02250             -24.00     9400.00
02251             -20.00     9400.00
02252             -22.00     9200.00
02253             -24.00     9200.00
02254             -28.00     9000.00
02255             -30.00     8800.00
02256             -26.00     8600.00
02257             -22.00     8600.00
02258             -20.00     8400.00
02259             -22.00     8400.00
02260             -24.00     8200.00
02261             -28.00     8000.00
02262             -26.00     8000.00
02263             -24.00     7800.00
02264             -18.00     7600.00
02265             -18.00     7600.00
02266             -20.00     7200.00
02267             -22.00     7200.00
02268             -24.00     7000.00
02269             -22.00     6800.00
02270             -20.00     6600.00
02271             -18.00     6600.00
02272             -20.00     6400.00
02273             -18.00     6200.00
02274             -22.00     6000.00
02275             -20.00     6000.00
02276             -20.00     5600.00
02277             -14.00     5600.00
02278             -14.00     5400.00
02279             -16.00     5200.00
02280             -18.00     4800.00
02281             -18.00     4600.00
02282             -18.00     4600.00
02283             -16.00     4400.00
02284             -12.00     4200.00
02285             -12.00     4000.00
02286             -14.00     3800.00
02287             -14.00     3800.00
02288             -16.00     3600.00
02289             -16.00     3400.00
02290             -14.00     3200.00
02291             -12.00     3000.00
02292             -10.00     2800.00
02293             -10.00     2400.00
02294             -14.00     2200.00
02295             -12.00     2200.00
02296             -12.00     2000.00
02297             -10.00     2000.00
02298              -6.00     1600.00
02299             -10.00     1400.00
02300             -12.00     1200.00
02301             -12.00     1000.00
02302             -12.00      800.00
02303             -12.00      800.00
02304             -10.00      400.00
02305              -4.00      400.00
02306              -4.00        0.00
02307              -4.00        0.00
02308              -2.00     -400.00
02309              26.00     -400.00
02310              14.00     -600.00
02311             -22.00     -800.00
02312             -28.00    -1000.00
02313              10.00    -1200.00
02314              28.00    -1400.00
02315             138.00    -1400.00
02316             250.00    -1800.00
02317            -166.00    -2400.00
02318            -250.00    -2400.00
02319            -222.00    -2800.00
02320             250.00    -2600.00
02321             250.00    -2400.00
02322             238.00    -3200.00
02323            -250.00    -2800.00
02324             -44.00    -3200.00
02325             250.00    -4400.00
02326             -74.00    -3000.00
02327            -250.00    -4200.00
02328            -250.00    -4200.00
02329             162.00    -3400.00
02330             250.00    -5400.00
02331            -250.00    -4000.00
02332            -250.00    -4800.00
02333            -104.00    -5800.00
02334             196.00    -4000.00
02335             250.00    -6000.00
02336            -250.00    -5200.00
02337            -250.00    -5600.00
02338              92.00    -6600.00
02339             236.00    -5200.00
02340             126.00    -6800.00
02341            -250.00    -6000.00
02342              -4.00    -6400.00
02343             234.00    -7200.00
02344              94.00    -6400.00
02345             -82.00    -7600.00
02346            -234.00    -6800.00
02347              74.00    -7400.00
02348             250.00    -7600.00
02349              12.00    -7200.00
02350            -156.00    -8200.00
02351             -84.00    -7600.00
02352             108.00    -8200.00
02353             148.00    -8200.00
02354             -54.00    -8400.00
02355             -92.00    -8400.00
02356               6.00    -8400.00
02357             130.00    -8800.00
02358              50.00    -9000.00
02359             -82.00    -9000.00
02360             -28.00    -9200.00
02361              52.00    -9200.00
02362              92.00    -9400.00
02363               6.00    -9600.00
02364             -50.00    -9600.00
02365              -2.00    -9800.00
02366              60.00    -9800.00
02367              36.00   -10000.00
02368               4.00   -10000.00
02369              -6.00   -10000.00
02370              18.00   -10400.00
02371              44.00   -10400.00
02372              12.00   -10400.00
02373              -2.00   -10600.00
02374               6.00   -10600.00
02375              32.00   -10800.00
02376              34.00   -10800.00
02377              14.00   -10800.00
02378               2.00   -11000.00
02379              18.00   -11000.00
02380              26.00   -11000.00
02381              22.00   -11200.00
02382              16.00   -11200.00
02383              20.00   -11400.00
02384              22.00   -11400.00
02385              20.00   -11400.00
02386              14.00   -11600.00
02387              10.00   -11600.00
02388              20.00   -11600.00
02389              30.00   -11800.00
02390              22.00   -11600.00
02391              20.00   -11600.00
02392              10.00   -11800.00
02393              18.00   -12000.00
02394              26.00   -11800.00
02395              22.00   -11800.00
02396              20.00   -12000.00
02397              22.00   -11800.00
02398              24.00   -11800.00
02399              22.00   -12000.00
02400              18.00   -12000.00
02401              20.00   -11800.00
02402              24.00   -11800.00
02403              28.00   -12000.00
02404              28.00   -12000.00
02405              18.00   -12000.00
02406              18.00   -12000.00
02407              22.00   -11800.00
02408              26.00   -11800.00
02409              28.00   -11800.00
02410              22.00   -11600.00
02411              22.00   -11800.00
02412              26.00   -11800.00
02413              18.00   -11600.00
02414              22.00   -11800.00
02415              26.00   -11800.00
02416              26.00   -11600.00
02417              26.00   -11600.00
02418              26.00   -11600.00
02419              20.00   -11400.00
02420              20.00   -11400.00
02421              22.00   -11400.00
02422              26.00   -11000.00
02423              26.00   -11200.00
02424              26.00   -11000.00
02425              20.00   -11000.00
02426              20.00   -11000.00
02427              22.00   -10800.00
02428              22.00   -10800.00
02429              26.00   -10800.00
02430              24.00   -10600.00
02431              20.00   -10400.00
02432              20.00   -10600.00
02433              20.00   -10200.00
02434              20.00   -10400.00
02435              22.00   -10000.00
02436              22.00   -10000.00
02437              22.00   -10000.00
02438              20.00   -10000.00
02439              18.00    -9800.00
02440              18.00    -9600.00
02441              18.00    -9600.00
02442              20.00    -9400.00
02443              18.00    -9400.00
02444              20.00    -9200.00
02445              18.00    -9000.00
02446              16.00    -8800.00
02447              18.00    -8800.00
02448              18.00    -8800.00
02449              20.00    -8600.00
02450              20.00    -8400.00
02451              18.00    -8400.00
02452              16.00    -8200.00
02453              14.00    -8000.00
02454              14.00    -8000.00
02455              18.00    -7600.00
02456              16.00    -7600.00
02457              20.00    -7400.00
02458              18.00    -7200.00
02459              14.00    -7200.00
02460              10.00    -6800.00
02461              14.00    -6800.00
02462              14.00    -6400.00
02463              18.00    -6400.00
02464              14.00    -6400.00
02465              10.00    -6000.00
02466              12.00    -6000.00
02467              12.00    -6000.00
02468              12.00    -5600.00
02469              12.00    -5400.00
02470              12.00    -5200.00
02471              10.00    -5000.00
02472              12.00    -4800.00
02473              10.00    -4600.00
02474              10.00    -4600.00
02475              12.00    -4200.00
02476              12.00    -4000.00
02477              10.00    -4000.00
02478              10.00    -4000.00
02479              10.00    -3600.00
02480               8.00    -3400.00
02481               6.00    -3400.00
02482              10.00    -3000.00
02483              10.00    -2800.00
02484              10.00    -2800.00
02485               6.00    -2400.00
02486               6.00    -2400.00
02487               4.00    -2200.00
02488               4.00    -2000.00
02489               6.00    -1600.00
02490              10.00    -1600.00
02491               6.00    -1600.00
02492               2.00    -1200.00
02493               2.00    -1000.00
02494               4.00     -800.00
02495               4.00     -600.00
02496               4.00     -200.00
02497               4.00     -200.00
02498               4.00        0.00
02499               4.00        0.00
02500              12.00      400.00
02501              34.00      600.00
02502              10.00      600.00
02503             -26.00      800.00
02504             -12.00     1200.00
02505              22.00     1400.00
02506              32.00     1600.00
02507              70.00     1800.00
02508             250.00     2000.00
02509              92.00     2200.00
02510            -250.00     2200.00
02511            -250.00     2400.00
02512             210.00     2600.00
02513             250.00     2800.00
02514             250.00     3200.00
02515             -90.00     3200.00
02516            -250.00     3200.00
02517             202.00     3600.00
02518             250.00     3400.00
02519            -242.00     3800.00
02520            -250.00     4200.00
02521             -34.00     4000.00
02522             250.00     4600.00
02523             250.00     4400.00
02524            -250.00     5000.00
02525            -250.00     5000.00
02526              74.00     5000.00
02527             250.00     5800.00
02528              74.00     5400.00
02529            -250.00     6000.00
02530            -174.00     6000.00
02531             148.00     5600.00
02532             202.00     6600.00
02533            -102.00     6400.00
02534            -250.00     6600.00
02535              44.00     6800.00
02536             222.00     7000.00
02537             -14.00     7200.00
02538            -196.00     7200.00
02539            -128.00     7400.00
02540             112.00     7600.00
02541             190.00     7800.00
02542             -94.00     8000.00
02543            -194.00     8000.00
02544              -6.00     8400.00
02545             100.00     8400.00
02546              36.00     8600.00
02547            -100.00     8600.00
02548            -102.00     8600.00
02549              50.00     8800.00
02550              84.00     9200.00
02551             -60.00     9200.00
02552            -114.00     9200.00
02553             -22.00     9400.00
02554              58.00     9400.00
02555              30.00     9600.00
02556             -62.00     9800.00
02557             -82.00     9600.00
02558              -6.00     9800.00
02559              30.00    10000.00
02560             -20.00    10000.00
02561             -52.00    10200.00
02562             -30.00    10400.00
02563               4.00    10400.00
02564              -6.00    10400.00
02565             -50.00    10400.00
02566             -50.00    10600.00
02567              -6.00    11000.00
02568               2.00    10800.00
02569             -16.00    10800.00
02570             -42.00    11000.00
02571             -42.00    11200.00
02572             -16.00    11000.00
02573             -12.00    11200.00
02574             -26.00    11200.00
02575             -28.00    11400.00
02576             -20.00    11400.00
02577             -22.00    11400.00
02578             -30.00    11600.00
02579             -34.00    11600.00
02580             -30.00    11600.00
02581             -14.00    11800.00
02582             -18.00    11800.00
02583             -30.00    11800.00
02584             -34.00    11800.00
02585             -30.00    11800.00
02586             -28.00    11800.00
02587             -26.00    11800.00
02588             -26.00    12000.00
02589             -22.00    11800.00
02590             -22.00    12000.00
02591             -30.00    12000.00
02592             -36.00    12000.00
02593             -32.00    12000.00
02594             -22.00    12000.00
02595             -20.00    12000.00
02596             -20.00    12000.00
02597             -34.00    12000.00
02598             -36.00    12000.00
02599             -36.00    12000.00
02600             -26.00    11800.00
02601             -18.00    11800.00
02602             -22.00    11800.00
02603             -28.00    12000.00
02604             -30.00    11800.00
02605             -30.00    11800.00
02606             -28.00    11600.00
02607             -22.00    11600.00
02608             -26.00    11600.00
02609             -26.00    11600.00
02610             -26.00    11600.00
02611             -28.00    11600.00
02612             -34.00    11400.00
02613             -30.00    11200.00
02614             -22.00    11200.00
02615             -20.00    11000.00
02616             -22.00    11200.00
02617             -30.00    11200.00
02618             -30.00    11000.00
02619             -28.00    11000.00
02620             -26.00    10800.00
02621             -22.00    10800.00
02622             -22.00    10800.00
02623             -28.00    10600.00
02624             -28.00    10600.00
02625             -30.00    10400.00
02626             -28.00    10400.00
02627             -22.00    10200.00
02628             -22.00    10200.00
02629             -22.00    10000.00
02630             -26.00    10000.00
02631             -30.00     9800.00
02632             -32.00     9600.00
02633             -26.00     9600.00
02634             -22.00     9400.00
02635             -20.00     9200.00
02636             -22.00     9200.00
02637             -28.00     9000.00
02638             -30.00     8800.00
02639             -28.00     8800.00
02640             -22.00     8600.00
02641             -22.00     8600.00
02642             -26.00     8400.00
02643             -22.00     8400.00
02644             -28.00     8200.00
02645             -24.00     8000.00
02646             -26.00     7800.00
02647             -22.00     7800.00
02648             -20.00     7600.00
02649             -20.00     7400.00
02650             -22.00     7200.00
02651             -22.00     7000.00
02652             -26.00     6800.00
02653             -22.00     6800.00
02654             -20.00     6800.00
02655             -20.00     6400.00
02656             -20.00     6200.00
02657             -22.00     6000.00
02658             -22.00     6000.00
02659             -20.00     6000.00
02660             -18.00     5600.00
02661             -18.00     5600.00
02662             -20.00     5200.00
02663             -18.00     5000.00
02664             -18.00     4800.00
02665             -18.00     4800.00
02666             -18.00     4400.00
02667             -20.00     4400.00
02668             -12.00     4200.00
02669             -12.00     4000.00
02670             -14.00     3800.00
02671             -14.00     3600.00
02672             -18.00     3600.00
02673             -16.00     3200.00
02674             -12.00     3000.00
02675             -12.00     3000.00
02676             -10.00     2800.00
02677             -12.00     2400.00
02678             -14.00     2200.00
02679             -12.00     2200.00
02680             -12.00     1800.00
02681             -10.00     1600.00
02682              -6.00     1600.00
02683              -6.00     1400.00
02684             -12.00     1200.00
02685             -12.00      800.00
02686             -10.00      600.00
02687              -6.00      400.00
02688              -4.00      400.00
02689              -6.00        0.00
02690              -6.00        0.00
02691              -4.00     -200.00
02692               4.00     -400.00
02693              28.00     -600.00
02694               4.00     -800.00
02695             -34.00    -1000.00
02696             -18.00    -1000.00
02697              18.00    -1200.00
02698              42.00    -1600.00
02699             230.00    -1600.00
02700             250.00    -2000.00
02701            -250.00    -2400.00
02702            -250.00    -2400.00
02703              -4.00    -2600.00
02704             250.00    -2400.00
02705             250.00    -2600.00
02706            -250.00    -3400.00
02707            -250.00    -2600.00
02708             250.00    -3600.00
02709             250.00    -4000.00
02710            -250.00    -3000.00
02711            -250.00    -4800.00
02712            -250.00    -3600.00
02713             250.00    -4000.00
02714             250.00    -5400.00
02715            -250.00    -3800.00
02716            -194.00    -5800.00
02717             -84.00    -5000.00
02718             250.00    -4400.00
02719             250.00    -6400.00
02720            -250.00    -4800.00
02721             -94.00    -6200.00
02722             130.00    -6000.00
02723             250.00    -5600.00
02724             -70.00    -6800.00
02725            -250.00    -5600.00
02726             146.00    -7000.00
02727             194.00    -6600.00
02728              50.00    -6800.00
02729            -164.00    -7600.00
02730            -172.00    -6800.00
02731             192.00    -7800.00
02732             206.00    -7200.00
02733             -76.00    -7800.00
02734            -148.00    -8200.00
02735             -26.00    -8000.00
02736             156.00    -8400.00
02737              84.00    -8200.00
02738             -94.00    -8400.00
02739             -66.00    -8400.00
02740              54.00    -8800.00
02741             132.00    -9000.00
02742             -14.00    -9000.00
02743             -76.00    -9000.00
02744              -2.00    -9200.00
02745              76.00    -9200.00
02746              74.00    -9200.00
02747             -26.00    -9600.00
02748             -44.00    -9600.00
02749              24.00    -9800.00
02750              60.00    -9800.00
02751              20.00   -10000.00
02752               2.00   -10000.00
02753              -4.00   -10400.00
02754              36.00   -10400.00
02755              36.00   -10400.00
02756               4.00   -10600.00
02757               0.00   -10600.00
02758              18.00   -10800.00
02759              42.00   -10800.00
02760              30.00   -10800.00
02761               4.00   -11000.00
02762               2.00   -10800.00
02763              20.00   -11200.00
02764              26.00   -11200.00
02765              26.00   -11200.00
02766              14.00   -11200.00
02767              20.00   -11400.00
02768              22.00   -11400.00
02769              20.00   -11600.00
02770              18.00   -11600.00
02771              12.00   -11600.00
02772              26.00   -11600.00
02773              34.00   -11600.00
02774              20.00   -11600.00
02775              14.00   -11600.00
02776              12.00   -12000.00
02777              26.00   -12000.00
02778              26.00   -11800.00
02779              20.00   -12000.00
02780              20.00   -11800.00
02781              22.00   -12000.00
02782              26.00   -12000.00
02783              18.00   -11800.00
02784              16.00   -12000.00
02785              18.00   -12000.00
02786              26.00   -12000.00
02787              30.00   -12000.00
02788              26.00   -12000.00
02789              18.00   -12000.00
02790              18.00   -11600.00
02791              26.00   -12000.00
02792              28.00   -11800.00
02793              26.00   -11800.00
02794              22.00   -11800.00
02795              24.00   -11600.00
02796              22.00   -11800.00
02797              20.00   -11600.00
02798              20.00   -11800.00
02799              24.00   -11600.00
02800              26.00   -11600.00
02801              26.00   -11600.00
02802              22.00   -11400.00
02803              22.00   -11400.00
02804              20.00   -11200.00
02805              26.00   -11000.00
02806              24.00   -11000.00
02807              26.00   -11200.00
02808              26.00   -11000.00
02809              18.00   -11200.00
02810              22.00   -11000.00
02811              20.00   -10800.00
02812              22.00   -10800.00
02813              28.00   -10600.00
02814              22.00   -10600.00
02815              20.00   -10600.00
02816              18.00   -10400.00
02817              22.00   -10400.00
02818              22.00   -10000.00
02819              24.00   -10000.00
02820              20.00   -10000.00
02821              18.00   -10000.00
02822              22.00    -9800.00
02823              22.00    -9800.00
02824              18.00    -9600.00
02825              12.00    -9600.00
02826              18.00    -9200.00
02827              26.00    -9200.00
02828              24.00    -9200.00
02829              18.00    -9000.00
02830              10.00    -8800.00
02831              14.00    -8800.00
02832              24.00    -8800.00
02833              26.00    -8400.00
02834              18.00    -8400.00
02835              14.00    -8200.00
02836              14.00    -8200.00
02837              18.00    -8000.00
02838              18.00    -7800.00
02839              16.00    -7600.00
02840              14.00    -7400.00
02841              24.00    -7200.00
02842              18.00    -7200.00
02843              10.00    -7200.00
02844               4.00    -6800.00
02845              10.00    -6800.00
02846              22.00    -6600.00
02847              22.00    -6400.00
02848              10.00    -6200.00
02849               4.00    -6000.00
02850              12.00    -5800.00
02851              14.00    -5800.00
02852              14.00    -5600.00
02853              14.00    -5200.00
02854              14.00    -5200.00
02855              10.00    -5000.00
02856              10.00    -4800.00
02857               6.00    -4600.00
02858              10.00    -4400.00
02859              12.00    -4200.00
02860              14.00    -4000.00
02861              10.00    -4000.00
02862               6.00    -3600.00
02863               6.00    -3600.00
02864               8.00    -3400.00
02865              12.00    -3200.00
02866               6.00    -2800.00
02867              10.00    -2800.00
02868               6.00    -2800.00
02869              10.00    -2400.00
02870               4.00    -2200.00
02871               2.00    -2000.00
02872               4.00    -1800.00
02873               6.00    -1600.00
02874               6.00    -1600.00
02875               2.00    -1200.00
02876               2.00    -1200.00
02877               4.00     -800.00
02878               6.00     -800.00
02879               4.00     -600.00
02880              -2.00     -400.00
02881              -2.00        0.00
02882              10.00        0.00
02883              12.00      200.00
02884              20.00      400.00
02885              28.00      600.00
02886              -4.00      600.00
02887             -22.00     1000.00
02888               2.00     1200.00
02889              26.00     1200.00
02890              34.00     1800.00
02891             126.00     1800.00
02892             250.00     2000.00
02893            -114.00     2200.00
02894            -250.00     2400.00
02895            -230.00     2600.00
02896             250.00     2400.00
02897             250.00     2800.00
02898             250.00     3200.00
02899            -250.00     3000.00
02900            -250.00     3400.00
02901             250.00     3600.00
02902             250.00     3400.00
02903            -250.00     4000.00
02904            -250.00     4000.00
02905              64.00     4400.00
02906             250.00     4600.00
02907             164.00     4400.00
02908            -250.00     5200.00
02909            -250.00     4800.00
02910             228.00     5200.00
02911             250.00     5600.00
02912             -86.00     5200.00
02913            -250.00     6000.00
02914             -64.00     6000.00
02915             214.00     6000.00
02916             132.00     6400.00
02917            -206.00     6200.00
02918            -190.00     6800.00
02919             148.00     6800.00
02920             180.00     7000.00
02921            -102.00     7200.00
02922            -198.00     7200.00
02923             -64.00     7600.00
02924             180.00     7600.00
02925             116.00     7800.00
02926            -172.00     8000.00
02927            -142.00     8200.00
02928              52.00     8400.00
02929             100.00     8400.00
02930             -14.00     8600.00
02931            -130.00     8600.00
02932             -60.00     8600.00
02933              92.00     8800.00
02934              46.00     9000.00
02935            -100.00     9200.00
02936             -92.00     9200.00
02937              10.00     9400.00
02938              62.00     9400.00
02939               2.00     9600.00
02940             -82.00     9600.00
02941             -62.00     9800.00
02942              20.00    10000.00
02943              14.00    10000.00
02944             -38.00    10000.00
02945             -44.00    10200.00
02946             -14.00    10200.00
02947              12.00    10400.00
02948             -18.00    10400.00
02949             -58.00    10600.00
02950             -36.00    10600.00
02951               2.00    10800.00
02952              -4.00    10800.00
02953             -22.00    11000.00
02954             -44.00    11000.00
02955             -34.00    11000.00
02956             -14.00    11200.00
02957             -20.00    11200.00
02958             -30.00    11200.00
02959             -22.00    11200.00
02960             -18.00    11600.00
02961             -24.00    11600.00
02962             -34.00    11600.00
02963             -38.00    11600.00
02964             -28.00    11600.00
02965             -12.00    11600.00
02966             -16.00    11600.00
02967             -34.00    11800.00
02968             -40.00    11800.00
02969             -30.00    11800.00
02970             -22.00    11800.00
02971             -22.00    11800.00
02972             -28.00    12000.00
02973             -28.00    11800.00
02974             -26.00    12000.00
02975             -32.00    12000.00
02976             -34.00    11800.00
02977             -30.00    12000.00
02978             -22.00    11800.00
02979             -18.00    12000.00
02980             -28.00    12000.00
02981             -34.00    12000.00
02982             -34.00    12000.00
02983             -30.00    12000.00
02984             -26.00    11800.00
02985             -22.00    11800.00
02986             -26.00    11800.00
02987             -28.00    11600.00
02988             -30.00    11800.00
02989             -36.00    11600.00
02990             -30.00    11600.00
02991             -20.00    11800.00
02992             -22.00    11600.00
02993             -26.00    11400.00
02994             -34.00    11600.00
02995             -36.00    11400.00
02996             -28.00    11400.00
02997             -28.00    11200.00
02998             -22.00    11200.00
02999             -22.00    11200.00
03000             -28.00    11000.00
03001             -30.00    11000.00
03002             -30.00    11000.00
03003             -28.00    11000.00
03004             -26.00    11000.00
03005             -20.00    10800.00
03006             -22.00    10800.00
03007             -26.00    10600.00
03008             -30.00    10400.00
03009             -30.00    10400.00
03010             -26.00    10200.00
03011             -20.00    10200.00
03012             -22.00    10000.00
03013             -28.00    10000.00
03014             -30.00    10000.00
03015             -28.00     9800.00
03016             -24.00     9600.00
03017             -22.00     9600.00
03018             -26.00     9400.00
03019             -26.00     9400.00
03020             -22.00     9200.00
03021             -26.00     9200.00
03022             -28.00     8800.00
03023             -28.00     8800.00
03024             -26.00     8600.00
03025             -22.00     8400.00
03026             -20.00     8400.00
03027             -26.00     8200.00
03028             -28.00     8000.00
03029             -28.00     8000.00
03030             -22.00     7800.00
03031             -22.00     7600.00
03032             -20.00     7200.00
03033             -26.00     7200.00
03034             -22.00     7000.00
03035             -22.00     7000.00
03036             -20.00     6800.00
03037             -22.00     6600.00
03038             -22.00     6400.00
03039             -22.00     6200.00
03040             -18.00     6200.00
03041             -14.00     6000.00
03042             -24.00     6000.00
03043             -26.00     5600.00
03044             -20.00     5600.00
03045             -12.00     5400.00
03046             -18.00     5200.00
03047             -22.00     5000.00
03048             -22.00     4600.00
03049             -16.00     4600.00
03050             -16.00     4400.00
03051             -18.00     4200.00
03052             -14.00     4000.00
03053             -12.00     4000.00
03054             -14.00     3800.00
03055             -20.00     3600.00
03056             -22.00     3400.00
03057             -14.00     3200.00
03058             -10.00     3000.00
03059             -12.00     2800.00
03060             -14.00     2600.00
03061             -12.00     2400.00
03062             -14.00     2200.00
03063             -12.00     2000.00
03064             -12.00     1800.00
03065              -6.00     1800.00
03066              -6.00     1400.00
03067             -10.00     1200.00
03068             -12.00     1200.00
03069             -12.00      800.00
03070             -10.00      600.00
03071              -6.00      600.00
03072              -6.00      400.00
03073              -6.00        0.00
03074               2.00        0.00
03075              -2.00     -200.00
03076              14.00     -400.00
03077              22.00     -400.00
03078             -12.00     -800.00
03079             -30.00    -1000.00
03080               2.00    -1000.00
03081              22.00    -1200.00
03082              72.00    -1600.00
03083             250.00    -1600.00
03084              74.00    -2400.00
03085            -250.00    -2200.00
03086            -250.00    -2600.00
03087             172.00    -2600.00
03088             250.00    -2200.00
03089             250.00    -2800.00
03090            -250.00    -3200.00
03091            -250.00    -2600.00
03092             250.00    -4200.00
03093             250.00    -3400.00
03094            -250.00    -3600.00
03095            -250.00    -4800.00
03096            -174.00    -3200.00
03097             250.00    -4800.00
03098              62.00    -4800.00
03099            -250.00    -4000.00
03100            -116.00    -6000.00
03101              12.00    -4200.00
03102             250.00    -5200.00
03103             -46.00    -5800.00
03104            -250.00    -4800.00
03105              28.00    -6800.00
03106             174.00    -5600.00
03107             246.00    -6200.00
03108            -250.00    -6600.00
03109            -188.00    -6000.00
03110             226.00    -7400.00
03111             140.00    -6200.00
03112               2.00    -7200.00
03113            -222.00    -7200.00
03114             -62.00    -7000.00
03115             250.00    -7800.00
03116             114.00    -7200.00
03117            -132.00    -8000.00
03118            -124.00    -7800.00
03119              42.00    -8000.00
03120             178.00    -8400.00
03121               8.00    -8200.00
03122            -108.00    -8600.00
03123             -38.00    -8400.00
03124             100.00    -8800.00
03125             102.00    -9000.00
03126             -58.00    -9000.00
03127             -52.00    -9200.00
03128              26.00    -9200.00
03129              92.00    -9200.00
03130              40.00    -9600.00
03131             -44.00    -9600.00
03132             -20.00    -9800.00
03133              52.00    -9800.00
03134              48.00    -9800.00
03135               6.00   -10000.00
03136              -4.00   -10000.00
03137              10.00   -10000.00
03138              46.00   -10400.00
03139              20.00   -10600.00
03140               2.00   -10600.00
03141               4.00   -10600.00
03142              26.00   -10600.00
03143              38.00   -10800.00
03144              26.00   -10800.00
03145               4.00   -11000.00
03146              14.00   -11000.00
03147              26.00   -11200.00
03148              24.00   -11200.00
03149              22.00   -11200.00
03150              16.00   -11200.00
03151              26.00   -11400.00
03152              20.00   -11600.00
03153              18.00   -11600.00
03154              14.00   -11600.00
03155              16.00   -11600.00
03156              30.00   -11600.00
03157              26.00   -11600.00
03158              20.00   -12000.00
03159              18.00   -11800.00
03160              18.00   -11800.00
03161              26.00   -11800.00
03162              24.00   -11800.00
03163              22.00   -12000.00
03164              22.00   -12000.00
03165              22.00   -12000.00
03166              20.00   -12000.00
03167              18.00   -12000.00
03168              20.00   -12000.00
03169              24.00   -12000.00
03170              26.00   -12000.00
03171              26.00   -12000.00
03172              14.00   -12000.00
03173              16.00   -11800.00
03174              26.00   -11800.00
03175              26.00   -12000.00
03176              22.00   -11800.00
03177              22.00   -11800.00
03178              26.00   -12000.00
03179              22.00   -12000.00
03180              20.00   -11600.00
03181              18.00   -11600.00
03182              26.00   -11600.00
03183              26.00   -11600.00
03184              22.00   -11600.00
03185              20.00   -11400.00
03186              22.00   -11400.00
03187              22.00   -11400.00
03188              20.00   -11400.00
03189              22.00   -11400.00
03190              28.00   -11000.00
03191              28.00   -11000.00
03192              20.00   -11000.00
03193              20.00   -11000.00
03194              20.00   -10800.00
03195              22.00   -10800.00
03196              26.00   -10800.00
03197              22.00   -10800.00
03198              20.00   -10400.00
03199              24.00   -10600.00
03200              20.00   -10400.00
03201              18.00   -10400.00
03202              20.00   -10200.00
03203              22.00   -10000.00
03204              22.00   -10000.00
03205              20.00    -9800.00
03206              18.00    -9800.00
03207              20.00    -9600.00
03208              20.00    -9600.00
03209              18.00    -9400.00
03210              20.00    -9200.00
03211              22.00    -9200.00
03212              20.00    -9000.00
03213              16.00    -9000.00
03214              12.00    -8800.00
03215              18.00    -8800.00
03216              20.00    -8800.00
03217              20.00    -8400.00
03218              14.00    -8400.00
03219              14.00    -8200.00
03220              14.00    -8000.00
03221              18.00    -8000.00
03222              18.00    -7600.00
03223              12.00    -7600.00
03224              14.00    -7400.00
03225              18.00    -7200.00
03226              14.00    -7000.00
03227              10.00    -7200.00
03228              12.00    -6800.00
03229              12.00    -6600.00
03230              18.00    -6400.00
03231              12.00    -6200.00
03232              10.00    -6400.00
03233              12.00    -6000.00
03234              14.00    -6000.00
03235              12.00    -5800.00
03236              14.00    -5200.00
03237              10.00    -5400.00
03238              10.00    -5200.00
03239              10.00    -5000.00
03240              10.00    -4600.00
03241              12.00    -4600.00
03242              10.00    -4400.00
03243              10.00    -4200.00
03244              10.00    -4200.00
03245              10.00    -4000.00
03246               8.00    -3600.00
03247               4.00    -3600.00
03248               4.00    -3200.00
03249              12.00    -3200.00
03250              10.00    -3000.00
03251               6.00    -2800.00
03252               6.00    -2600.00
03253               8.00    -2400.00
03254               6.00    -2400.00
03255               4.00    -2000.00
03256               4.00    -1800.00
03257              10.00    -1600.00
03258               6.00    -1600.00
03259               2.00    -1200.00
03260               2.00    -1000.00
03261               4.00     -800.00
03262               4.00     -600.00
03263               4.00     -400.00
03264               4.00     -400.00
03265               6.00        0.00
03266               6.00        0.00
03267              10.00      400.00
03268              30.00      600.00
03269              24.00      400.00
03270             -12.00      800.00
03271             -18.00     1200.00
03272              10.00     1200.00
03273              30.00     1400.00
03274              50.00     1600.00
03275             196.00     2000.00
03276             226.00     2200.00
03277            -250.00     2200.00
03278            -250.00     2400.00
03279              14.00     2800.00
03280             250.00     2800.00
03281             250.00     3000.00
03282             142.00     3200.00
03283            -250.00     3000.00
03284            -188.00     3600.00
03285             250.00     3600.00
03286              68.00     3600.00
03287            -250.00     4200.00
03288            -146.00     4000.00
03289             158.00     4600.00
03290             250.00     4400.00
03291             -38.00     4600.00
03292            -250.00     5200.00
03293            -106.00     4800.00
03294             250.00     5400.00
03295             214.00     5400.00
03296            -206.00     5400.00
03297            -250.00     6000.00
03298              54.00     5600.00
03299             234.00     6400.00
03300              18.00     6400.00
03301            -250.00     6400.00
03302             -78.00     6800.00
03303             216.00     6800.00
03304              86.00     7000.00
03305            -170.00     7200.00
03306            -174.00     7200.00
03307              28.00     7600.00
03308             208.00     7400.00
03309              10.00     8000.00
03310            -210.00     7800.00
03311             -70.00     8200.00
03312              90.00     8400.00
03313              74.00     8400.00
03314             -66.00     8400.00
03315            -124.00     8800.00
03316              -2.00     8600.00
03317             102.00     8800.00
03318             -10.00     9200.00
03319            -114.00     9200.00
03320             -56.00     9400.00
03321              38.00     9400.00
03322              46.00     9400.00
03323             -34.00     9600.00
03324             -86.00     9600.00
03325             -30.00    10000.00
03326              30.00    10000.00
03327              -6.00    10000.00
03328             -46.00    10200.00
03329             -38.00    10400.00
03330              -6.00    10400.00
03331               4.00    10600.00
03332             -32.00    10400.00
03333             -54.00    10600.00
03334             -22.00    10600.00
03335               2.00    10800.00
03336             -10.00    10800.00
03337             -28.00    10800.00
03338             -44.00    11200.00
03339             -28.00    11200.00
03340             -12.00    11200.00
03341             -20.00    11200.00
03342             -28.00    11200.00
03343             -22.00    11200.00
03344             -22.00    11400.00
03345             -30.00    11600.00
03346             -30.00    11600.00
03347             -30.00    11600.00
03348             -20.00    11600.00
03349             -18.00    11800.00
03350             -26.00    11600.00
03351             -34.00    11800.00
03352             -30.00    11800.00
03353             -28.00    11800.00
03354             -22.00    11800.00
03355             -28.00    11800.00
03356             -26.00    12000.00
03357             -22.00    11800.00
03358             -28.00    11800.00
03359             -36.00    12000.00
03360             -34.00    12000.00
03361             -28.00    12000.00
03362             -22.00    11800.00
03363             -20.00    11800.00
03364             -28.00    12000.00
03365             -34.00    11800.00
03366             -38.00    11800.00
03367             -34.00    11800.00
03368             -22.00    12000.00
03369             -20.00    11800.00
03370             -26.00    11800.00
03371             -32.00    11800.00
03372             -36.00    11800.00
03373             -30.00    11800.00
03374             -24.00    11800.00
03375             -26.00    11600.00
03376             -26.00    11600.00
03377             -28.00    11600.00
03378             -30.00    11400.00
03379             -34.00    11400.00
03380             -36.00    11200.00
03381             -28.00    11200.00
03382             -18.00    11200.00
03383             -20.00    11200.00
03384             -30.00    11000.00
03385             -32.00    11000.00
03386             -28.00    11000.00
03387             -28.00    10800.00
03388             -28.00    11000.00
03389             -26.00    10800.00
03390             -22.00    10600.00
03391             -26.00    10400.00
03392             -30.00    10400.00
03393             -30.00    10200.00
03394             -26.00    10200.00
03395             -22.00    10200.00
03396             -20.00    10000.00
03397             -28.00    10000.00
03398             -28.00     9600.00
03399             -26.00     9800.00
03400             -28.00     9600.00
03401             -26.00     9400.00
03402             -22.00     9200.00
03403             -22.00     9200.00
03404             -22.00     9200.00
03405             -28.00     9000.00
03406             -34.00     8800.00
03407             -22.00     8600.00
03408             -20.00     8600.00
03409             -20.00     8400.00
03410             -22.00     8400.00
03411             -28.00     8400.00
03412             -26.00     8000.00
03413             -28.00     7800.00
03414             -28.00     7600.00
03415             -18.00     7600.00
03416             -18.00     7400.00
03417             -22.00     7200.00
03418             -26.00     7000.00
03419             -28.00     7000.00
03420             -24.00     6800.00
03421             -18.00     6800.00
03422             -18.00     6400.00
03423             -20.00     6400.00
03424             -20.00     6200.00
03425             -22.00     6000.00
03426             -22.00     5800.00
03427             -22.00     5600.00
03428             -18.00     5400.00
03429             -14.00     5400.00
03430             -16.00     5200.00
03431             -20.00     4800.00
03432             -22.00     4600.00
03433             -22.00     4600.00
03434             -18.00     4400.00
03435             -10.00     4000.00
03436             -12.00     4000.00
03437             -14.00     3800.00
03438             -22.00     3600.00
03439             -20.00     3600.00
03440             -12.00     3400.00
03441             -10.00     3000.00
03442             -12.00     3000.00
03443             -12.00     2800.00
03444             -12.00     2600.00
03445             -12.00     2400.00
03446             -14.00     2200.00
03447             -18.00     2000.00
03448             -10.00     2000.00
03449              -2.00     1600.00
03450              -6.00     1400.00
03451             -12.00     1200.00
03452             -12.00     1000.00
03453              -6.00      800.00
03454              -6.00      600.00
03455             -10.00      400.00
03456              -6.00      200.00
03457               0.00      200.00
03458              -2.00     -200.00
03459               0.00     -400.00
03460              22.00     -400.00
03461              18.00     -600.00
03462             -20.00     -800.00
03463             -28.00     -800.00
03464               6.00    -1200.00
03465              34.00    -1400.00
03466             146.00    -1600.00
03467             250.00    -1800.00
03468            -166.00    -2400.00
03469            -250.00    -2400.00
03470            -218.00    -2600.00
03471             250.00    -2600.00
03472             250.00    -2400.00
03473             234.00    -3400.00
03474            -250.00    -2800.00
03475             -44.00    -3000.00
03476             250.00    -4400.00
03477             -72.00    -3000.00
03478            -250.00    -4200.00
03479            -250.00    -4200.00
03480             154.00    -3400.00
03481             250.00    -5400.00
03482            -250.00    -4200.00
03483            -250.00    -4800.00
03484            -102.00    -5800.00
03485             188.00    -4000.00
03486             250.00    -6200.00
03487            -250.00    -5200.00
03488            -250.00    -5400.00
03489              94.00    -6600.00
03490             234.00    -5200.00
03491             122.00    -6800.00
03492            -250.00    -6000.00
03493              -8.00    -6400.00
03494             228.00    -7200.00
03495              92.00    -6400.00
03496             -76.00    -7600.00
03497            -228.00    -6800.00
03498              74.00    -7400.00
03499             250.00    -7600.00
03500               6.00    -7400.00
03501            -150.00    -8000.00
03502             -76.00    -7600.00
03503             114.00    -8400.00
03504             148.00    -8400.00
03505             -62.00    -8200.00
03506             -94.00    -8600.00
03507              10.00    -8600.00
03508             130.00    -8800.00
03509              44.00    -9000.00
03510             -82.00    -9000.00
03511             -28.00    -9200.00
03512              50.00    -9400.00
03513              86.00    -9200.00
03514               4.00    -9600.00
03515             -42.00    -9600.00
03516               2.00    -9800.00
03517              60.00    -9800.00
03518              28.00   -10000.00
03519               4.00   -10000.00
03520              -4.00   -10000.00
03521              20.00   -10200.00
03522              42.00   -10400.00
03523              12.00   -10400.00
03524               2.00   -10600.00
03525               6.00   -10600.00
03526              30.00   -10800.00
03527              36.00   -11000.00
03528              18.00   -10800.00
03529               4.00   -11000.00
03530              14.00   -11200.00
03531              22.00   -11200.00
03532              26.00   -11000.00
03533              18.00   -11200.00
03534              20.00   -11200.00
03535              26.00   -11400.00
03536              20.00   -11400.00
03537              20.00   -11600.00
03538              10.00   -11600.00
03539              16.00   -11600.00
03540              34.00   -11600.00
03541              28.00   -11600.00
03542              18.00   -11600.00
03543              10.00   -11600.00
03544              14.00   -11800.00
03545              26.00   -12000.00
03546              26.00   -11800.00
03547              22.00   -12000.00
03548              18.00   -11800.00
03549              22.00   -12000.00
03550              20.00   -12000.00
03551              18.00   -12000.00
03552              22.00   -12000.00
03553              22.00   -11800.00
03554              26.00   -12000.00
03555              22.00   -12000.00
03556              18.00   -12000.00
03557              18.00   -11800.00
03558              22.00   -12000.00
03559              26.00   -12000.00
03560              26.00   -12000.00
03561              22.00   -11800.00
03562              20.00   -11800.00
03563              24.00   -11600.00
03564              18.00   -11600.00
03565              20.00   -11600.00
03566              20.00   -11800.00
03567              22.00   -11600.00
03568              26.00   -11600.00
03569              22.00   -11400.00
03570              20.00   -11400.00
03571              18.00   -11400.00
03572              20.00   -11200.00
03573              26.00   -11000.00
03574              28.00   -11200.00
03575              22.00   -11200.00
03576              20.00   -11000.00
03577              20.00   -11200.00
03578              22.00   -10800.00
03579              20.00   -10800.00
03580              22.00   -10600.00
03581              22.00   -10600.00
03582              26.00   -10600.00
03583              20.00   -10600.00
03584              18.00   -10400.00
03585              18.00   -10200.00
03586              22.00   -10000.00
03587              24.00   -10000.00
03588              20.00    -9800.00
03589              16.00    -9800.00
03590              20.00    -9600.00
03591              20.00    -9600.00
03592              20.00    -9600.00
03593              18.00    -9400.00
03594              20.00    -9200.00
03595              22.00    -9200.00
03596              18.00    -9200.00
03597              16.00    -9000.00
03598              18.00    -8800.00
03599              20.00    -8800.00
03600              20.00    -8400.00
03601              18.00    -8400.00
03602              14.00    -8200.00
03603              18.00    -8000.00
03604              14.00    -8000.00
03605              14.00    -7800.00
03606              18.00    -8000.00
03607              20.00    -7600.00
03608              18.00    -7400.00
03609              14.00    -7200.00
03610              14.00    -7200.00
03611              10.00    -6800.00
03612              18.00    -6800.00
03613              12.00    -6600.00
03614              12.00    -6400.00
03615              14.00    -6400.00
03616              12.00    -6200.00
03617              14.00    -6000.00
03618              10.00    -5800.00
03619              12.00    -5600.00
03620              14.00    -5600.00
03621              12.00    -5200.00
03622              10.00    -5200.00
03623              10.00    -5000.00
03624              14.00    -4600.00
03625              10.00    -4600.00
03626               8.00    -4400.00
03627               6.00    -4200.00
03628              10.00    -4200.00
03629              10.00    -3800.00
03630              10.00    -3800.00
03631               6.00    -3600.00
03632               6.00    -3200.00
03633               6.00    -3200.00
03634              10.00    -2800.00
03635              12.00    -2800.00
03636              10.00    -2600.00
03637               4.00    -2400.00
03638               2.00    -2000.00
03639               2.00    -2000.00
03640              10.00    -1600.00
03641               6.00    -1600.00
03642               2.00    -1400.00
03643               4.00    -1200.00
03644               4.00    -1000.00
03645               2.00     -800.00
03646               2.00     -600.00
03647               2.00     -400.00
03648               4.00     -200.00
03649              10.00        0.00
03650               4.00      200.00
03651              10.00      400.00
03652              34.00      600.00
03653              14.00      600.00
03654             -22.00      800.00
03655             -14.00     1000.00
03656              24.00     1200.00
03657              36.00     1400.00
03658              70.00     1600.00
03659             250.00     2000.00
03660              90.00     2200.00
03661            -250.00     2200.00
03662            -250.00     2400.00
03663             212.00     2800.00
03664             250.00     2800.00
03665             250.00     3200.00
03666             -90.00     3200.00
03667            -250.00     3200.00
03668             202.00     3600.00
03669             250.00     3600.00
03670            -234.00     4000.00
03671            -250.00     4200.00
03672             -38.00     4000.00
03673             250.00     4600.00
03674             250.00     4400.00
03675            -250.00     5000.00
03676            -250.00     4800.00
03677              74.00     5000.00
03678             250.00     5600.00
03679              70.00     5200.00
03680            -250.00     5800.00
03681            -172.00     6000.00
03682             148.00     5800.00
03683             204.00     6400.00
03684            -100.00     6200.00
03685            -250.00     6800.00
03686              42.00     6800.00
03687             220.00     6800.00
03688             -16.00     7000.00
03689            -196.00     7200.00
03690            -128.00     7400.00
03691             106.00     7400.00
03692             184.00     7600.00
03693             -92.00     8000.00
03694            -190.00     8000.00
03695              -4.00     8200.00
03696              98.00     8400.00
03697              30.00     8400.00
03698            -100.00     8600.00
03699            -100.00     8600.00
03700              50.00     8800.00
03701              84.00     9000.00
03702             -60.00     9000.00
03703            -110.00     9200.00
03704             -22.00     9200.00
03705              50.00     9400.00
03706              28.00     9600.00
03707             -60.00     9600.00
03708             -84.00     9600.00
03709              -6.00    10000.00
03710              28.00    10000.00
03711             -22.00    10000.00
03712             -46.00    10200.00
03713             -30.00    10200.00
03714               2.00    10400.00
03715              -2.00    10400.00
03716             -46.00    10600.00
03717             -44.00    10600.00
03718              -8.00    10800.00
03719               2.00    10800.00
03720             -14.00    11000.00
03721             -40.00    11000.00
03722             -38.00    11000.00
03723             -12.00    11200.00
03724             -14.00    11200.00
03725             -30.00    11200.00
03726             -26.00    11200.00
03727             -14.00    11600.00
03728             -18.00    11600.00
03729             -34.00    11600.00
03730             -40.00    11600.00
03731             -28.00    11800.00
03732              -6.00    11600.00
03733             -12.00    11600.00
03734             -30.00    11800.00
03735             -38.00    11800.00
03736             -30.00    11800.00
03737             -26.00    12000.00
03738             -26.00    11800.00
03739             -30.00    12000.00
03740             -22.00    11800.00
03741             -22.00    11800.00
03742             -30.00    12000.00
03743             -38.00    11800.00
03744             -32.00    12000.00
03745             -24.00    12000.00
03746             -20.00    11800.00
03747             -24.00    11800.00
03748             -34.00    12000.00
03749             -38.00    12000.00
03750             -34.00    11800.00
03751             -28.00    11800.00
03752             -22.00    11800.00
03753             -26.00    11800.00
03754             -28.00    11800.00
03755             -28.00    11800.00
03756             -34.00    11800.00
03757             -34.00    11600.00
03758             -28.00    11600.00
03759             -22.00    11600.00
03760             -24.00    11600.00
03761             -28.00    11600.00
03762             -34.00    11200.00
03763             -34.00    11600.00
03764             -30.00    11200.00
03765             -22.00    11200.00
03766             -22.00    11200.00
03767             -28.00    11000.00
03768             -32.00    11000.00
03769             -30.00    11000.00
03770             -28.00    10800.00
03771             -34.00    11000.00
03772             -28.00    10800.00
03773             -20.00    10600.00
03774             -22.00    10600.00
03775             -30.00    10400.00
03776             -34.00    10400.00
03777             -28.00    10400.00
03778             -22.00    10400.00
03779             -22.00    10000.00
03780             -28.00    10000.00
03781             -26.00     9800.00
03782             -26.00     9600.00
03783             -28.00     9600.00
03784             -28.00     9600.00
03785             -26.00     9600.00
03786             -22.00     9400.00
03787             -20.00     9200.00
03788             -28.00     9200.00
03789             -30.00     8800.00
03790             -26.00     8800.00
03791             -22.00     8800.00
03792             -22.00     8600.00
03793             -20.00     8400.00
03794             -24.00     8400.00
03795             -24.00     8000.00
03796             -26.00     8200.00
03797             -28.00     7800.00
03798             -18.00     7600.00
03799             -20.00     7600.00
03800             -20.00     7400.00
03801             -22.00     7200.00
03802             -24.00     7200.00
03803             -26.00     7000.00
03804             -22.00     6800.00
03805             -22.00     6600.00
03806             -14.00     6400.00
03807             -14.00     6400.00
03808             -20.00     6200.00
03809             -24.00     6000.00
03810             -22.00     5800.00
03811             -22.00     5600.00
03812             -14.00     5400.00
03813             -12.00     5200.00
03814             -20.00     4800.00
03815             -22.00     4800.00
03816             -22.00     4600.00
03817             -22.00     4400.00
03818             -12.00     4400.00
03819             -10.00     4000.00
03820             -12.00     4000.00
03821             -20.00     3800.00
03822             -20.00     3600.00
03823             -18.00     3600.00
03824             -12.00     3200.00
03825             -14.00     3000.00
03826             -12.00     2800.00
03827             -12.00     2800.00
03828             -14.00     2600.00
03829             -14.00     2200.00
03830             -14.00     2200.00
03831             -12.00     2000.00
03832              -6.00     1800.00
03833             -10.00     1600.00
03834             -10.00     1400.00
03835              -6.00     1200.00
03836             -12.00     1000.00
03837             -10.00      800.00
03838             -12.00      600.00
03839              -6.00      400.00
03840               0.00      200.00
03841              -4.00        0.00
03842              -4.00     -200.00
03843               4.00     -400.00
03844              28.00     -400.00
03845               4.00     -800.00
03846             -30.00    -1000.00
03847             -20.00    -1200.00
03848              22.00    -1200.00
03849              44.00    -1400.00
03850             234.00    -1600.00
03851             250.00    -2200.00
03852            -250.00    -2400.00
03853            -250.00    -2400.00
03854               2.00    -2600.00
03855             250.00    -2400.00
03856             250.00    -2600.00
03857            -250.00    -3400.00
03858            -250.00    -2600.00
03859             250.00    -3600.00
03860             250.00    -4000.00
03861            -250.00    -3000.00
03862            -250.00    -4800.00
03863            -250.00    -3600.00
03864             250.00    -4000.00
03865             250.00    -5200.00
03866            -250.00    -3800.00
03867            -186.00    -5600.00
03868             -84.00    -5000.00
03869             250.00    -4600.00
03870             250.00    -6200.00
03871            -250.00    -4600.00
03872             -94.00    -6400.00
03873             130.00    -6000.00
03874             250.00    -5800.00
03875             -70.00    -7000.00
03876            -250.00    -5800.00
03877             140.00    -7000.00
03878             186.00    -6600.00
03879              54.00    -6800.00
03880            -162.00    -7600.00
03881            -174.00    -6800.00
03882             186.00    -7800.00
03883             202.00    -7200.00
03884             -76.00    -7600.00
03885            -148.00    -8200.00
03886             -26.00    -8000.00
03887             160.00    -8400.00
03888              86.00    -8200.00
03889             -98.00    -8400.00
03890             -70.00    -8800.00
03891              50.00    -8800.00
03892             130.00    -8800.00
03893              -6.00    -9000.00
03894             -72.00    -9200.00
03895              -6.00    -9200.00
03896              68.00    -9200.00
03897              68.00    -9400.00
03898             -20.00    -9600.00
03899             -38.00    -9800.00
03900              22.00    -9800.00
03901              58.00   -10000.00
03902              18.00   -10000.00
03903               2.00   -10000.00
03904              -6.00   -10000.00
03905              30.00   -10400.00
03906              40.00   -10400.00
03907               8.00   -10600.00
03908               0.00   -10800.00
03909              10.00   -10600.00
03910              34.00   -10800.00
03911              32.00   -10800.00
03912              12.00   -10800.00
03913               4.00   -10800.00
03914              20.00   -11200.00
03915              28.00   -11200.00
03916              22.00   -11200.00
03917              14.00   -11200.00
03918              22.00   -11400.00
03919              24.00   -11400.00
03920              22.00   -11400.00
03921              18.00   -11600.00
03922               6.00   -11600.00
03923              28.00   -11600.00
03924              34.00   -11600.00
03925              26.00   -11600.00
03926              18.00   -11800.00
03927              12.00   -11800.00
03928              22.00   -11600.00
03929              26.00   -12000.00
03930              20.00   -11600.00
03931              20.00   -12000.00
03932              26.00   -12000.00
03933              22.00   -12000.00
03934              18.00   -12000.00
03935              18.00   -12000.00
03936              20.00   -12000.00
03937              26.00   -12000.00
03938              26.00   -12000.00
03939              20.00   -12000.00
03940              18.00   -12000.00
03941              18.00   -12000.00
03942              22.00   -11800.00
03943              26.00   -12000.00
03944              20.00   -11800.00
03945              22.00   -12000.00
03946              26.00   -11800.00
03947              22.00   -11800.00
03948              18.00   -11600.00
03949              20.00   -11600.00
03950              22.00   -11600.00
03951              26.00   -11600.00
03952              24.00   -11600.00
03953              20.00   -11400.00
03954              22.00   -11400.00
03955              18.00   -11600.00
03956              20.00   -11400.00
03957              22.00   -11200.00
03958              20.00   -11200.00
03959              22.00   -11000.00
03960              22.00   -11000.00
03961              22.00   -11000.00
03962              18.00   -10800.00
03963              20.00   -10800.00
03964              26.00   -10800.00
03965              26.00   -10600.00
03966              22.00   -10600.00
03967              18.00   -10600.00
03968              18.00   -10400.00
03969              24.00   -10000.00
03970              20.00   -10000.00
03971              20.00   -10000.00
03972              18.00   -10000.00
03973              26.00    -9800.00
03974              22.00    -9800.00
03975              20.00    -9600.00
03976              18.00    -9600.00
03977              20.00    -9200.00
03978              26.00    -9200.00
03979              22.00    -9200.00
03980              12.00    -9000.00
03981              18.00    -8800.00
03982              20.00    -8800.00
03983              20.00    -8600.00
03984              20.00    -8400.00
03985              18.00    -8400.00
03986              20.00    -8200.00
03987              18.00    -8000.00
03988              14.00    -8000.00
03989              14.00    -8000.00
03990              20.00    -7600.00
03991              18.00    -7400.00
03992              20.00    -7200.00
03993              14.00    -7200.00
03994              12.00    -7200.00
03995              12.00    -6800.00
03996              14.00    -6600.00
03997              10.00    -6600.00
03998              18.00    -6400.00
03999              14.00    -6400.00
04000              10.00    -6000.00
04001              14.00    -6000.00
04002              12.00    -5800.00
04003              12.00    -5600.00
04004              12.00    -5400.00
04005              10.00    -5200.00
04006              12.00    -5000.00
04007              14.00    -4800.00
04008              10.00    -4600.00
04009               6.00    -4400.00
04010               4.00    -4400.00
04011              10.00    -4000.00
04012              12.00    -4000.00
04013              10.00    -3600.00
04014               4.00    -3600.00
04015               4.00    -3400.00
04016               4.00    -3200.00
04017               6.00    -3200.00
04018              10.00    -2800.00
04019               6.00    -2600.00
04020               6.00    -2600.00
04021               6.00    -2400.00
04022               4.00    -2000.00
04023               4.00    -2000.00
04024               6.00    -1600.00
04025               4.00    -1600.00
04026               6.00    -1200.00
04027               4.00    -1000.00
04028               2.00    -1000.00
04029              -2.00     -800.00
04030              -2.00     -400.00
04031               4.00     -400.00
04032              10.00     -200.00
04033               4.00        0.00
04034               2.00      200.00
04035              22.00      400.00
04036              34.00      600.00
04037              -2.00      800.00
04038             -28.00      800.00
04039               2.00     1200.00
04040              34.00     1400.00
04041              36.00     1400.00
04042             124.00     1800.00
04043             250.00     2200.00
04044            -110.00     2200.00
04045            -250.00     2400.00
04046            -234.00     2600.00
04047             250.00     2800.00
04048             250.00     2800.00
04049             250.00     3200.00
04050            -250.00     3000.00
04051            -250.00     3400.00
04052             250.00     3600.00
04053             250.00     3400.00
04054            -250.00     4000.00
04055            -250.00     4200.00
04056              68.00     4400.00
04057             250.00     4600.00
04058             158.00     4400.00
04059            -250.00     5000.00
04060            -250.00     4800.00
04061             230.00     5200.00
04062             250.00     5600.00
04063             -86.00     5200.00
04064            -250.00     6000.00
04065             -60.00     5800.00
04066             214.00     6000.00
04067             130.00     6600.00
04068            -204.00     6200.00
04069            -186.00     6800.00
04070             148.00     6800.00
04071             172.00     7000.00
04072            -108.00     7200.00
04073            -194.00     7200.00
04074             -58.00     7600.00
04075             176.00     7400.00
04076             112.00     7800.00
04077            -178.00     8000.00
04078            -140.00     8200.00
04079              52.00     8400.00
04080             100.00     8200.00
04081             -20.00     8600.00
04082            -126.00     8600.00
04083             -60.00     8600.00
04084              90.00     8800.00
04085              44.00     9200.00
04086            -100.00     9200.00
04087             -92.00     9200.00
04088              10.00     9400.00
04089              58.00     9400.00
04090              -2.00     9600.00
04091             -86.00     9600.00
04092             -60.00     9800.00
04093              26.00    10000.00
04094              18.00    10000.00
04095             -42.00    10000.00
04096             -52.00    10200.00
04097             -22.00    10400.00
04098              12.00    10400.00
04099             -16.00    10600.00
04100             -56.00    10600.00
04101             -36.00    10800.00
04102               2.00    10800.00
04103               2.00    10800.00
04104             -18.00    11000.00
04105             -50.00    11000.00
04106             -44.00    11200.00
04107              -6.00    11200.00
04108             -36.00    11200.00
04109             -54.00    11400.00
04110               2.00    11200.00
04111             -18.00    11600.00
04112              10.00    11200.00
04113               2.00    11600.00
04114             -76.00    11600.00
04115             -26.00    11600.00
04116             -28.00    12000.00
04117              10.00    11600.00
04118             -50.00    11800.00
04119             -82.00    11800.00
04120             -10.00    11800.00
04121             -14.00    12000.00
04122               2.00    11800.00
04123              -2.00    12000.00
04124             -14.00    11800.00
04125             -38.00    11800.00
04126             -78.00    11800.00
04127             -60.00    11800.00
04128              -2.00    12000.00
04129             -12.00    12000.00
04130             -28.00    12000.00
04131             -30.00    12000.00
04132             -20.00    11800.00
04133             -22.00    12000.00
04134             -36.00    11800.00
04135             -28.00    11800.00
04136             -30.00    11800.00
04137             -34.00    11800.00
04138             -50.00    11800.00
04139             -20.00    11800.00
04140             -18.00    11600.00
04141             -28.00    11600.00
04142             -36.00    11600.00
04143             -38.00    11600.00
04144             -12.00    11400.00
04145             -12.00    11600.00
04146             -36.00    11600.00
04147             -52.00    11200.00
04148             -38.00    11200.00
04149             -20.00    11200.00
04150              -6.00    11200.00
04151             -20.00    11200.00
04152             -44.00    11000.00
04153             -44.00    11000.00
04154             -28.00    10800.00
04155             -18.00    10800.00
04156             -18.00    10800.00
04157             -26.00    10800.00
04158             -38.00    10600.00
04159             -28.00    10400.00
04160             -26.00    10400.00
04161             -20.00    10200.00
04162             -26.00    10000.00
04163             -34.00    10200.00
04164             -30.00    10000.00
04165             -20.00    10000.00
04166             -20.00     9600.00
04167             -26.00     9600.00
04168             -24.00     9400.00
04169             -28.00     9400.00
04170             -22.00     9200.00
04171             -28.00     9200.00
04172             -30.00     9000.00
04173             -22.00     9000.00
04174             -24.00     8800.00
04175             -26.00     8600.00
04176             -20.00     8400.00
04177             -12.00     8400.00
04178             -18.00     8400.00
04179             -28.00     8000.00
04180             -34.00     8000.00
04181             -24.00     7800.00
04182             -16.00     7600.00
04183             -20.00     7600.00
04184             -22.00     7400.00
04185             -20.00     7200.00
04186             -20.00     7000.00
04187             -20.00     6800.00
04188             -22.00     6800.00
04189             -22.00     6600.00
04190             -14.00     6400.00
04191             -18.00     6200.00
04192             -22.00     6000.00
04193             -24.00     6000.00
04194             -22.00     5800.00
04195             -18.00     5400.00
04196             -14.00     5400.00
04197             -18.00     5200.00
04198             -18.00     4800.00
04199             -18.00     4800.00
04200             -22.00     4600.00
04201             -18.00     4400.00
04202             -12.00     4400.00
04203             -12.00     4000.00
04204             -18.00     4000.00
04205             -18.00     3800.00
04206             -18.00     3600.00
04207             -12.00     3400.00
04208             -14.00     3200.00
04209             -12.00     3000.00
04210             -10.00     2800.00
04211              -8.00     2600.00
04212             -14.00     2400.00
04213             -20.00     2200.00
04214             -18.00     2000.00
04215             -10.00     2000.00
04216              -8.00     1800.00
04217             -10.00     1400.00
04218             -12.00     1400.00
04219             -12.00     1200.00
04220              -8.00      800.00
04221              -8.00      800.00
04222              -8.00      600.00
04223              -6.00      400.00
04224              -6.00        0.00
04225              -6.00        0.00
04226              -4.00     -200.00
04227              18.00     -200.00
04228              26.00     -600.00
04229             -12.00     -800.00
04230             -36.00    -1000.00
04231               2.00    -1000.00
04232              26.00    -1400.00
04233              74.00    -1400.00
04234             250.00    -1800.00
04235              76.00    -2200.00
04236            -250.00    -2400.00
04237            -250.00    -2600.00
04238             170.00    -2800.00
04239             250.00    -2000.00
04240             250.00    -3200.00
04241            -250.00    -3200.00
04242            -250.00    -2600.00
04243             250.00    -4200.00
04244             250.00    -3400.00
04245            -250.00    -3600.00
04246            -250.00    -4600.00
04247            -178.00    -3200.00
04248             250.00    -4800.00
04249              66.00    -4600.00
04250            -250.00    -4000.00
04251            -116.00    -6000.00
04252              12.00    -4200.00
04253             250.00    -5400.00
04254             -46.00    -6000.00
04255            -250.00    -4600.00
04256              28.00    -6600.00
04257             180.00    -5400.00
04258             244.00    -6400.00
04259            -250.00    -6400.00
04260            -188.00    -5800.00
04261             226.00    -7400.00
04262             138.00    -6400.00
04263              -8.00    -7400.00
04264            -222.00    -7200.00
04265             -58.00    -6800.00
04266             250.00    -8000.00
04267             108.00    -7200.00
04268            -132.00    -8200.00
04269            -122.00    -8000.00
04270              42.00    -8000.00
04271             172.00    -8400.00
04272               6.00    -8200.00
04273            -102.00    -8600.00
04274             -34.00    -8800.00
04275              92.00    -8800.00
04276             100.00    -8800.00
04277             -58.00    -9200.00
04278             -58.00    -9200.00
04279              20.00    -9200.00
04280              86.00    -9400.00
04281              42.00    -9400.00
04282             -40.00    -9600.00
04283             -28.00    -9800.00
04284              44.00    -9800.00
04285              46.00   -10000.00
04286              12.00   -10000.00
04287              -4.00   -10000.00
04288               2.00   -10000.00
04289              44.00   -10400.00
04290              26.00   -10600.00
04291               2.00   -10600.00
04292              -2.00   -10800.00
04293              20.00   -10600.00
04294              36.00   -10800.00
04295              26.00   -10800.00
04296               6.00   -10800.00
04297              12.00   -11200.00
04298              24.00   -11000.00
04299              22.00   -11000.00
04300              20.00   -11200.00
04301              20.00   -11200.00
04302              28.00   -11400.00
04303              18.00   -11600.00
04304              18.00   -11400.00
04305              10.00   -11600.00
04306              18.00   -11400.00
04307              36.00   -11600.00
04308              28.00   -11600.00
04309              22.00   -11600.00
04310              14.00   -11800.00
04311              16.00   -11600.00
04312              26.00   -12000.00
04313              20.00   -12000.00
04314              22.00   -12000.00
04315              28.00   -12000.00
04316              22.00   -12000.00
04317              20.00   -12000.00
04318              18.00   -12000.00
04319              22.00   -12000.00
04320              22.00   -12000.00
04321              26.00   -12000.00
04322              26.00   -11800.00
04323              22.00   -12000.00
04324              14.00   -11800.00
04325              18.00   -12000.00
04326              22.00   -12000.00
04327              26.00   -11800.00
04328              26.00   -11800.00
04329              20.00   -11600.00
04330              20.00   -11800.00
04331              22.00   -11800.00
04332              24.00   -11600.00
04333              22.00   -11600.00
04334              22.00   -11600.00
04335              24.00   -11400.00
04336              26.00   -11400.00
04337              20.00   -11400.00
04338              14.00   -11400.00
04339              18.00   -11400.00
04340              26.00   -11000.00
04341              28.00   -11200.00
04342              22.00   -11000.00
04343              20.00   -11000.00
04344              16.00   -10800.00
04345              22.00   -10800.00
04346              26.00   -10800.00
04347              22.00   -10800.00
04348              22.00   -10600.00
04349              18.00   -10600.00
04350              20.00   -10600.00
04351              20.00   -10400.00
04352              22.00   -10400.00
04353              20.00   -10200.00
04354              18.00   -10000.00
04355              18.00   -10000.00
04356              20.00    -9800.00
04357              26.00    -9800.00
04358              20.00    -9600.00
04359              18.00    -9600.00
04360              20.00    -9600.00
04361              22.00    -9200.00
04362              22.00    -9200.00
04363              20.00    -9200.00
04364              18.00    -9000.00
04365              20.00    -8800.00
04366              16.00    -8800.00
04367              20.00    -8600.00
04368              20.00    -8400.00
04369              20.00    -8200.00
04370              18.00    -8200.00
04371              12.00    -8200.00
04372              12.00    -8000.00
04373              22.00    -7600.00
04374              18.00    -7600.00
04375              18.00    -7400.00
04376              20.00    -7200.00
04377              16.00    -7200.00
04378              12.00    -6800.00
04379              14.00    -6800.00
04380              10.00    -6600.00
04381              20.00    -6400.00
04382              20.00    -6400.00
04383              12.00    -6200.00
04384              10.00    -6000.00
04385              12.00    -5800.00
04386              12.00    -5800.00
04387              12.00    -5600.00
04388              10.00    -5200.00
04389              12.00    -5000.00
04390              14.00    -5000.00
04391              10.00    -4800.00
04392               8.00    -4400.00
04393              10.00    -4400.00
04394              14.00    -4200.00
04395              12.00    -4000.00
04396               6.00    -3800.00
04397               4.00    -3600.00
04398              10.00    -3600.00
04399               6.00    -3400.00
04400               4.00    -3200.00
04401               4.00    -3000.00
04402               8.00    -2600.00
04403              10.00    -2600.00
04404               2.00    -2400.00
04405               0.00    -2200.00
04406               2.00    -2000.00
04407              10.00    -1800.00
04408               6.00    -1800.00
04409               4.00    -1600.00
04410               2.00    -1200.00
04411               4.00    -1000.00
04412               2.00     -800.00
04413              -4.00     -600.00
04414               2.00     -400.00
04415               6.00     -200.00
04416               6.00        0.00
04417               2.00        0.00
04418               4.00      200.00
04419              26.00      400.00
04420              26.00      600.00
04421             -12.00      600.00
04422             -22.00      800.00
04423              12.00     1200.00
04424              30.00     1400.00
04425              44.00     1600.00
04426             196.00     1800.00
04427             230.00     2200.00
04428            -250.00     2400.00
04429            -250.00     2400.00
04430              10.00     2600.00
04431             250.00     2600.00
04432             250.00     3000.00
04433             140.00     3200.00
04434            -250.00     3200.00
04435            -182.00     3600.00
04436             250.00     3400.00
04437              64.00     3600.00
04438            -250.00     4200.00
04439            -142.00     4000.00
04440             170.00     4600.00
04441             250.00     4400.00
04442             -46.00     4600.00
04443            -250.00     5200.00
04444            -100.00     4800.00
04445             250.00     5600.00
04446             212.00     5400.00
04447            -210.00     5400.00
04448            -250.00     6200.00
04449              54.00     5800.00
04450             234.00     6200.00
04451              20.00     6400.00
04452            -250.00     6400.00
04453             -76.00     6800.00
04454             212.00     6800.00
04455              82.00     7000.00
04456            -166.00     7000.00
04457            -166.00     7400.00
04458              22.00     7600.00
04459             204.00     7600.00
04460               8.00     7800.00
04461            -206.00     7800.00
04462             -74.00     8200.00
04463              84.00     8200.00
04464              74.00     8400.00
04465             -62.00     8600.00
04466            -126.00     8600.00
04467              -6.00     8800.00
04468             100.00     8800.00
04469              -6.00     9200.00
04470            -114.00     9200.00
04471             -62.00     9200.00
04472              34.00     9400.00
04473              52.00     9400.00
04474             -34.00     9600.00
04475             -92.00     9600.00
04476             -36.00    10000.00
04477              28.00     9800.00
04478              -6.00    10200.00
04479             -46.00    10000.00
04480             -40.00    10200.00
04481              -8.00    10200.00
04482               6.00    10400.00
04483             -34.00    10400.00
04484             -56.00    10600.00
04485             -22.00    10800.00
04486               2.00    10800.00
04487              -6.00    10800.00
04488             -30.00    11000.00
04489             -46.00    11000.00
04490             -26.00    11200.00
04491             -14.00    11200.00
04492             -22.00    11200.00
04493             -26.00    11400.00
04494             -20.00    11200.00
04495             -20.00    11600.00
04496             -28.00    11600.00
04497             -34.00    11600.00
04498             -30.00    11600.00
04499             -18.00    11600.00
04500             -12.00    11600.00
04501             -22.00    11800.00
04502             -34.00    12000.00
04503             -34.00    11800.00
04504             -28.00    12000.00
04505             -22.00    11800.00
04506             -22.00    11800.00
04507             -22.00    11800.00
04508             -26.00    11800.00
04509             -30.00    11800.00
04510             -30.00    11800.00
04511             -28.00    12000.00
04512             -28.00    12000.00
04513             -18.00    11800.00
04514             -20.00    11800.00
04515             -28.00    12000.00
04516             -34.00    12000.00
04517             -36.00    12000.00
04518             -30.00    11800.00
04519             -22.00    11800.00
04520             -22.00    11800.00
04521             -26.00    11800.00
04522             -30.00    11800.00
04523             -34.00    11600.00
04524             -34.00    11600.00
04525             -28.00    11600.00
04526             -22.00    11600.00
04527             -22.00    11600.00
04528             -28.00    11600.00
04529             -34.00    11600.00
04530             -36.00    11400.00
04531             -30.00    11200.00
04532             -22.00    11200.00
04533             -22.00    11200.00
04534             -26.00    11200.00
04535             -34.00    11200.00
04536             -32.00    11000.00
04537             -30.00    11000.00
04538             -28.00    10800.00
04539             -26.00    10800.00
04540             -22.00    10800.00
04541             -26.00    10600.00
04542             -28.00    10600.00
04543             -30.00    10400.00
04544             -30.00    10200.00
04545             -26.00    10200.00
04546             -22.00    10400.00
04547             -22.00    10000.00
04548             -26.00    10000.00
04549             -30.00     9600.00
04550             -30.00     9800.00
04551             -26.00     9600.00
04552             -22.00     9400.00
04553             -24.00     9200.00
04554             -26.00     9200.00
04555             -26.00     9200.00
04556             -22.00     9000.00
04557             -24.00     9000.00
04558             -26.00     8800.00
04559             -24.00     8600.00
04560             -22.00     8400.00
04561             -18.00     8400.00
04562             -22.00     8200.00
04563             -22.00     8000.00
04564             -24.00     7800.00
04565             -22.00     7800.00
04566             -20.00     7600.00
04567             -18.00     7600.00
04568             -18.00     7200.00
04569             -20.00     7200.00
04570             -22.00     7000.00
04571             -28.00     6800.00
04572             -22.00     6800.00
04573             -14.00     6400.00
04574             -14.00     6400.00
04575             -20.00     6200.00
04576             -20.00     6000.00
04577             -20.00     5800.00
04578             -18.00     5600.00
04579             -20.00     5400.00
04580             -18.00     5200.00
04581             -12.00     5200.00
04582             -14.00     4800.00
04583             -22.00     4800.00
04584             -22.00     4600.00
04585             -20.00     4400.00
04586             -12.00     4000.00
04587             -12.00     4000.00
04588             -18.00     3800.00
04589             -18.00     3600.00
04590             -14.00     3600.00
04591             -20.00     3200.00
04592             -12.00     3000.00
04593             -12.00     3000.00
04594             -12.00     2800.00
04595             -10.00     2400.00
04596             -18.00     2400.00
04597             -20.00     2200.00
04598             -12.00     2000.00
04599             -12.00     1800.00
04600             -10.00     1600.00
04601             -12.00     1400.00
04602             -12.00     1200.00
04603             -12.00     1000.00
04604             -14.00      600.00
04605             -12.00      600.00
04606              -6.00      400.00
04607              -4.00      200.00
04608              -6.00        0.00
04609              -4.00     -200.00
04610              -4.00     -400.00
04611              26.00     -400.00
04612              18.00     -800.00
04613             -26.00     -800.00
04614             -28.00    -1000.00
04615              12.00    -1200.00
04616              28.00    -1400.00
04617             140.00    -1600.00
04618             250.00    -1800.00
04619            -170.00    -2400.00
04620            -250.00    -2400.00
04621            -218.00    -2600.00
04622             250.00    -2600.00
04623             250.00    -2200.00
04624             230.00    -3400.00
04625            -250.00    -2800.00
04626             -34.00    -3000.00
04627             250.00    -4400.00
04628             -76.00    -2800.00
04629            -250.00    -4200.00
04630            -250.00    -4200.00
04631             164.00    -3200.00
04632             250.00    -5600.00
04633            -250.00    -4200.00
04634            -250.00    -4800.00
04635            -104.00    -5600.00
04636             196.00    -4000.00
04637             250.00    -6000.00
04638            -250.00    -5000.00
04639            -250.00    -5600.00
04640              94.00    -6600.00
04641             234.00    -5200.00
04642             122.00    -7000.00
04643            -250.00    -6000.00
04644              -4.00    -6600.00
04645             230.00    -7200.00
04646              90.00    -6400.00
04647             -84.00    -7600.00
04648            -228.00    -7000.00
04649              74.00    -7600.00
04650             250.00    -7600.00
04651               8.00    -7200.00
04652            -150.00    -8200.00
04653             -78.00    -7600.00
04654             106.00    -8200.00
04655             146.00    -8400.00
04656             -54.00    -8400.00
04657             -92.00    -8800.00
04658               4.00    -8600.00
04659             124.00    -8800.00
04660              46.00    -9000.00
04661             -78.00    -9200.00
04662             -30.00    -9200.00
04663              42.00    -9200.00
04664              90.00    -9200.00
04665              12.00    -9600.00
04666             -48.00    -9600.00
04667              -4.00    -9800.00
04668              58.00    -9800.00
04669              34.00   -10000.00
04670               4.00   -10000.00
04671             -10.00   -10200.00
04672              18.00   -10400.00
04673              50.00   -10400.00
04674              14.00   -10400.00
04675              -2.00   -10600.00
04676               6.00   -10600.00
04677              30.00   -10800.00
04678              38.00   -10800.00
04679              12.00   -11000.00
04680               2.00   -11000.00
04681              20.00   -10800.00
04682              26.00   -11200.00
04683              22.00   -11200.00
04684              14.00   -11200.00
04685              20.00   -11400.00
04686              28.00   -11200.00
04687              20.00   -11400.00
04688              18.00   -11400.00
04689              12.00   -11600.00
04690              26.00   -11600.00
04691              34.00   -11600.00
04692              26.00   -11600.00
04693              20.00   -11600.00
04694              12.00   -11800.00
04695              20.00   -11800.00
04696              28.00   -12000.00
04697              22.00   -11800.00
04698              22.00   -12000.00
04699              20.00   -12000.00
04700              22.00   -11800.00
04701              24.00   -12000.00
04702              22.00   -12000.00
04703              22.00   -11800.00
04704              22.00   -11800.00
04705              26.00   -12000.00
04706              30.00   -12000.00
04707              22.00   -12000.00
04708              14.00   -12000.00
04709              20.00   -11800.00
04710              28.00   -12000.00
04711              28.00   -11800.00
04712              20.00   -11800.00
04713              20.00   -11800.00
04714              26.00   -11800.00
04715              26.00   -11800.00
04716              20.00   -11600.00
04717              20.00   -11600.00
04718              26.00   -11600.00
04719              26.00   -11600.00
04720              24.00   -11600.00
04721              16.00   -11400.00
04722              18.00   -11400.00
04723              26.00   -11200.00
04724              26.00   -11400.00
04725              22.00   -11200.00
04726              20.00   -11000.00
04727              20.00   -11200.00
04728              20.00   -11000.00
04729              20.00   -10800.00
04730              18.00   -10800.00
04731              26.00   -10800.00
04732              26.00   -10800.00
04733              18.00   -10600.00
04734              20.00   -10600.00
04735              20.00   -10400.00
04736              22.00   -10400.00
04737              20.00   -10200.00
04738              20.00   -10200.00
04739              20.00   -10000.00
04740              22.00    -9800.00
04741              18.00    -9800.00
04742              18.00    -9600.00
04743              20.00    -9600.00
04744              22.00    -9200.00
04745              24.00    -9200.00
04746              20.00    -9200.00
04747              18.00    -9200.00
04748              20.00    -9000.00
04749              20.00    -8800.00
04750              18.00    -8800.00
04751              14.00    -8600.00
04752              18.00    -8400.00
04753              22.00    -8400.00
04754              18.00    -8200.00
04755              14.00    -8200.00
04756              16.00    -7600.00
04757              14.00    -7600.00
04758              18.00    -7600.00
04759              22.00    -7400.00
04760              18.00    -7200.00
04761              14.00    -7200.00
04762              12.00    -6800.00
04763              12.00    -6800.00
04764              20.00    -6600.00
04765              18.00    -6400.00
04766              14.00    -6400.00
04767              12.00    -6000.00
04768              12.00    -6000.00
04769              12.00    -5800.00
04770              10.00    -5800.00
04771              10.00    -5600.00
04772              12.00    -5200.00
04773              18.00    -5200.00
04774              12.00    -4800.00
04775              10.00    -4800.00
04776              10.00    -4400.00
04777              12.00    -4400.00
04778              10.00    -4200.00
04779               8.00    -4000.00
04780               6.00    -3800.00
04781              10.00    -3600.00
04782               6.00    -3400.00
04783               4.00    -3200.00
04784               4.00    -3200.00
04785              10.00    -3000.00
04786              10.00    -2800.00
04787               4.00    -2600.00
04788               2.00    -2400.00
04789               4.00    -2200.00
04790               8.00    -2000.00
04791               4.00    -1800.00
04792               4.00    -1600.00
04793               4.00    -1400.00
04794               2.00    -1000.00
04795               2.00    -1000.00
04796              -2.00     -800.00
04797               0.00     -600.00
04798               4.00     -400.00
04799               4.00     -200.00
04800               2.00        0.00
04801               4.00        0.00
04802              12.00      200.00
04803              36.00      400.00
04804              10.00      600.00
04805             -26.00      800.00
04806              -8.00     1200.00
04807              26.00     1200.00
04808              30.00     1400.00
04809              72.00     1800.00
04810             250.00     2000.00
04811              88.00     2200.00
04812            -250.00     2200.00
04813            -250.00     2400.00
04814             212.00     2400.00
04815             250.00     2800.00
04816             250.00     3200.00
04817             -98.00     3200.00
04818            -250.00     3200.00
04819             204.00     3600.00
04820             250.00     3600.00
04821            -236.00     3800.00
04822            -250.00     4000.00
04823             -38.00     4200.00
04824             250.00     4600.00
04825             250.00     4400.00
04826            -250.00     4800.00
04827            -250.00     4800.00
04828              80.00     4800.00
04829             250.00     5800.00
04830              68.00     5200.00
04831            -250.00     5600.00
04832            -172.00     6000.00
04833             150.00     5800.00
04834             204.00     6400.00
04835            -102.00     6200.00
04836            -250.00     6600.00
04837              42.00     6800.00
04838             226.00     6800.00
04839             -14.00     7200.00
04840            -190.00     7200.00
04841            -128.00     7400.00
04842             110.00     7600.00
04843             186.00     7600.00
04844             -94.00     8000.00
04845            -194.00     8200.00
04846              -6.00     8200.00
04847             102.00     8400.00
04848              36.00     8400.00
04849            -106.00     8600.00
04850            -104.00     8600.00
04851              50.00     8800.00
04852              86.00     9000.00
04853             -60.00     9000.00
04854            -110.00     9200.00
04855             -22.00     9400.00
04856              52.00     9400.00
04857              28.00     9600.00
04858             -64.00     9600.00
04859             -84.00     9600.00
04860              -4.00    10000.00
04861              26.00    10000.00
04862             -26.00    10000.00
04863             -50.00    10200.00
04864             -30.00    10200.00
04865               4.00    10400.00
04866              -6.00    10400.00
04867             -50.00    10600.00
04868             -44.00    10600.00
04869             -10.00    10800.00
04870              -4.00    10800.00
04871             -20.00    11000.00
04872             -40.00    11000.00
04873             -36.00    11000.00
04874             -12.00    11200.00
04875             -18.00    11200.00
04876             -30.00    11200.00
04877             -26.00    11200.00
04878             -18.00    11600.00
04879             -22.00    11400.00
04880             -34.00    11600.00
04881             -34.00    11600.00
04882             -28.00    11600.00
04883             -14.00    11800.00
04884             -14.00    11600.00
04885             -28.00    11800.00
04886             -30.00    11800.00
04887             -30.00    11800.00
04888             -26.00    12000.00
04889             -22.00    11800.00
04890             -26.00    11800.00
04891             -24.00    11800.00
04892             -24.00    12000.00
04893             -30.00    12000.00
04894             -34.00    11800.00
04895             -28.00    12000.00
04896             -22.00    12000.00
04897             -20.00    12000.00
04898             -22.00    11800.00
04899             -30.00    11800.00
04900             -30.00    12000.00
04901             -30.00    12000.00
04902             -26.00    11800.00
04903             -22.00    12000.00
04904             -28.00    11800.00
04905             -28.00    11800.00
04906             -26.00    11600.00
04907             -30.00    11800.00
04908             -34.00    11600.00
04909             -28.00    11600.00
04910             -26.00    11600.00
04911             -22.00    11600.00
04912             -28.00    11600.00
04913             -38.00    11600.00
04914             -34.00    11400.00
04915             -26.00    11200.00
04916             -26.00    11200.00
04917             -22.00    11200.00
04918             -28.00    11200.00
04919             -30.00    11200.00
04920             -30.00    10800.00
04921             -34.00    10800.00
04922             -30.00    10800.00
04923             -20.00    10800.00
04924             -22.00    10600.00
04925             -28.00    10600.00
04926             -30.00    10400.00
04927             -34.00    10400.00
04928             -28.00    10200.00
04929             -28.00    10000.00
04930             -22.00    10000.00
04931             -20.00    10000.00
04932             -26.00    10000.00
04933             -30.00     9600.00
04934             -30.00     9600.00
04935             -28.00     9400.00
04936             -20.00     9400.00
04937             -22.00     9200.00
04938             -24.00     9200.00
04939             -28.00     9200.00
04940             -26.00     9000.00
04941             -28.00     8800.00
04942             -26.00     8600.00
04943             -22.00     8600.00
04944             -20.00     8400.00
04945             -22.00     8400.00
04946             -28.00     8000.00
04947             -28.00     8000.00
04948             -20.00     8000.00
04949             -20.00     7600.00
04950             -20.00     7600.00
04951             -20.00     7200.00
04952             -22.00     7200.00
04953             -22.00     7000.00
04954             -28.00     7000.00
04955             -24.00     6800.00
04956             -18.00     6600.00
04957             -12.00     6400.00
04958             -20.00     6400.00
04959             -22.00     6000.00
04960             -24.00     6000.00
04961             -20.00     6000.00
04962             -18.00     5600.00
04963             -16.00     5400.00
04964             -18.00     5200.00
04965             -18.00     5000.00
04966             -18.00     4800.00
04967             -20.00     4600.00
04968             -20.00     4600.00
04969             -18.00     4400.00
04970             -12.00     4000.00
04971             -12.00     4000.00
04972             -18.00     3800.00
04973             -18.00     3600.00
04974             -20.00     3400.00
04975             -14.00     3200.00
04976              -8.00     3000.00
04977             -10.00     3000.00
04978             -14.00     2800.00
04979             -18.00     2400.00
04980             -18.00     2200.00
04981             -10.00     2200.00
04982             -10.00     1800.00
04983             -12.00     1600.00
04984             -10.00     1600.00
04985             -10.00     1200.00
04986             -12.00     1200.00
04987             -14.00      800.00
04988             -14.00      800.00
04989              -6.00      600.00
04990              -6.00      400.00
04991             -10.00      200.00
04992              -6.00        0.00
04993              -4.00     -200.00
04994               6.00     -400.00
04995              26.00     -400.00
04996              -2.00     -800.00
04997             -30.00     -800.00
04998             -12.00    -1000.00
04999              18.00    -1200.00
05000              38.00    -1600.00
