Unit:(mV)
                     CH1         CH2
Frequency              ? 260.784 kHz
00001             -12.00     1000.00
00002             -14.00      600.00
00003             -12.00      600.00
00004              -6.00      400.00
00005              -4.00        0.00
00006              -6.00     -200.00
00007             -10.00     -200.00
00008               2.00     -400.00
00009              30.00     -400.00
00010               6.00     -800.00
00011             -34.00     -800.00
00012             -20.00    -1200.00
00013              18.00    -1200.00
00014              34.00    -1400.00
00015             194.00    -1600.00
00016             250.00    -2000.00
00017            -250.00    -2400.00
00018            -250.00    -2400.00
00019             -66.00    -2800.00
00020             250.00    -2400.00
00021             250.00    -2600.00
00022             -14.00    -3400.00
00023            -250.00    -2800.00
00024             246.00    -3400.00
00025             250.00    -4200.00
00026            -194.00    -3000.00
00027            -232.00    -4400.00
00028            -250.00    -4000.00
00029             250.00    -3600.00
00030             250.00    -5400.00
00031            -250.00    -4000.00
00032            -230.00    -5200.00
00033             -90.00    -5400.00
00034             250.00    -4200.00
00035             250.00    -6400.00
00036            -250.00    -4800.00
00037            -150.00    -5800.00
00038             100.00    -6400.00
00039             250.00    -5400.00
00040              36.00    -7000.00
00041            -250.00    -5800.00
00042              74.00    -6800.00
00043             206.00    -7000.00
00044              70.00    -6600.00
00045            -116.00    -7600.00
00046            -198.00    -6600.00
00047             132.00    -7600.00
00048             228.00    -7400.00
00049             -34.00    -7600.00
00050            -144.00    -8200.00
00051             -52.00    -7800.00
00052             130.00    -8400.00
00053             118.00    -8200.00
00054             -70.00    -8400.00
00055             -78.00    -8600.00
00056              24.00    -8600.00
00057             132.00    -8800.00
00058              20.00    -9000.00
00059             -72.00    -9200.00
00060             -20.00    -9200.00
00061              56.00    -9600.00
00062              86.00    -9400.00
00063              -4.00    -9600.00
00064             -44.00    -9800.00
00065               6.00    -9800.00
00066              58.00   -10000.00
00067              28.00   -10000.00
00068              10.00   -10200.00
00069              -6.00   -10000.00
00070              26.00   -10400.00
00071              44.00   -10400.00
00072              14.00   -10600.00
00073              -2.00   -10600.00
00074               4.00   -10600.00
00075              34.00   -10800.00
00076              38.00   -10800.00
00077              16.00   -10800.00
00078               2.00   -10800.00
00079              20.00   -11200.00
00080              28.00   -11200.00
00081              26.00   -11400.00
00082              18.00   -11000.00
00083              22.00   -11400.00
00084              26.00   -11400.00
00085              22.00   -11400.00
00086              20.00   -11400.00
00087              12.00   -11600.00
00088              26.00   -11600.00
00089              36.00   -11600.00
00090              26.00   -11600.00
00091              18.00   -11800.00
00092              18.00   -11600.00
00093              26.00   -11800.00
00094              28.00   -11800.00
00095              26.00   -12000.00
00096              22.00   -12000.00
00097              26.00   -12000.00
00098              26.00   -12000.00
00099              22.00   -12000.00
00100              22.00   -12000.00
00101              26.00   -11800.00
00102              26.00   -12000.00
00103              32.00   -12000.00
00104              26.00   -12000.00
00105              20.00   -12000.00
00106              20.00   -12000.00
00107              22.00   -12000.00
00108              26.00   -12000.00
00109              30.00   -11800.00
00110              26.00   -12000.00
00111              26.00   -11600.00
00112              26.00   -11800.00
00113              22.00   -11600.00
00114              26.00   -11600.00
00115              26.00   -11600.00
00116              26.00   -11600.00
00117              30.00   -11600.00
00118              26.00   -11400.00
00119              20.00   -11400.00
00120              20.00   -11400.00
00121              24.00   -11400.00
00122              28.00   -11000.00
00123              26.00   -11200.00
00124              20.00   -11000.00
00125              20.00   -11200.00
00126              26.00   -11000.00
00127              22.00   -10800.00
00128              22.00   -10800.00
00129              26.00   -10600.00
00130              26.00   -10600.00
00131              22.00   -10600.00
00132              18.00   -10600.00
00133              18.00   -10400.00
00134              26.00   -10400.00
00135              22.00   -10200.00
00136              20.00   -10000.00
00137              20.00    -9800.00
00138              20.00    -9800.00
00139              20.00    -9600.00
00140              18.00    -9600.00
00141              18.00    -9600.00
00142              20.00    -9400.00
00143              26.00    -9200.00
00144              20.00    -9200.00
00145              20.00    -9000.00
00146              18.00    -8800.00
00147              20.00    -8800.00
00148              20.00    -8600.00
00149              18.00    -8400.00
00150              18.00    -8400.00
00151              22.00    -8400.00
00152              18.00    -8200.00
00153              14.00    -8000.00
00154              18.00    -7800.00
00155              20.00    -7600.00
00156              18.00    -7400.00
00157              18.00    -7400.00
00158              14.00    -7200.00
00159              20.00    -7000.00
00160              14.00    -6800.00
00161              12.00    -6600.00
00162              14.00    -6400.00
00163              18.00    -6400.00
00164              18.00    -6200.00
00165              12.00    -6000.00
00166              10.00    -6000.00
00167              16.00    -5800.00
00168              16.00    -5600.00
00169              12.00    -5200.00
00170              12.00    -5200.00
00171              14.00    -5000.00
00172              14.00    -4800.00
00173              10.00    -4600.00
00174               6.00    -4400.00
00175              12.00    -4200.00
00176              16.00    -4200.00
00177              12.00    -4000.00
00178               6.00    -3800.00
00179               4.00    -3600.00
00180               6.00    -3400.00
00181               6.00    -3200.00
00182              10.00    -3000.00
00183               6.00    -2800.00
00184               6.00    -2600.00
00185               4.00    -2400.00
00186               2.00    -2400.00
00187               6.00    -2000.00
00188               6.00    -1800.00
00189               4.00    -1600.00
00190               4.00    -1600.00
00191               2.00    -1200.00
00192               4.00    -1000.00
00193               4.00    -1000.00
00194              -2.00     -800.00
00195               2.00     -600.00
00196               4.00     -400.00
00197               4.00     -200.00
00198               2.00        0.00
00199               0.00        0.00
00200              22.00      400.00
00201              34.00      600.00
00202              -4.00      800.00
00203             -28.00      800.00
00204              -2.00     1200.00
00205              30.00     1400.00
00206              34.00     1400.00
00207             114.00     1800.00
00208             250.00     2200.00
00209             -86.00     2400.00
00210            -250.00     2400.00
00211            -250.00     2600.00
00212             250.00     2400.00
00213             244.00     2800.00
00214             250.00     3200.00
00215            -250.00     3200.00
00216            -250.00     3200.00
00217             250.00     3800.00
00218             250.00     3600.00
00219            -250.00     4000.00
00220            -250.00     4200.00
00221              52.00     4200.00
00222             250.00     4800.00
00223             182.00     4400.00
00224            -250.00     5200.00
00225            -250.00     5000.00
00226             188.00     5200.00
00227             250.00     5600.00
00228             -50.00     5400.00
00229            -250.00     6000.00
00230             -84.00     6000.00
00231             178.00     6000.00
00232             134.00     6400.00
00233            -164.00     6200.00
00234            -188.00     6800.00
00235             110.00     6800.00
00236             170.00     7000.00
00237             -86.00     7200.00
00238            -178.00     7200.00
00239             -74.00     7600.00
00240             146.00     7600.00
00241             122.00     7800.00
00242            -148.00     8000.00
00243            -140.00     8200.00
00244              34.00     8400.00
00245              86.00     8400.00
00246              -4.00     8600.00
00247            -110.00     8600.00
00248             -70.00     8600.00
00249              70.00     8800.00
00250              46.00     9000.00
00251             -86.00     9200.00
00252             -92.00     9200.00
00253              -4.00     9400.00
00254              50.00     9400.00
00255               2.00     9600.00
00256             -76.00     9600.00
00257             -68.00    10000.00
00258              10.00    10000.00
00259              12.00    10000.00
00260             -38.00    10200.00
00261             -46.00    10200.00
00262             -22.00    10400.00
00263               6.00    10400.00
00264             -18.00    10400.00
00265             -60.00    10800.00
00266             -44.00    10800.00
00267              -4.00    10800.00
00268              -4.00    10800.00
00269             -26.00    11000.00
00270             -48.00    11000.00
00271             -36.00    11000.00
00272             -14.00    11200.00
00273             -22.00    11200.00
00274             -34.00    11200.00
00275             -26.00    11200.00
00276             -18.00    11600.00
00277             -28.00    11600.00
00278             -36.00    11800.00
00279             -36.00    11600.00
00280             -26.00    11600.00
00281             -14.00    11800.00
00282             -22.00    11800.00
00283             -36.00    11800.00
00284             -30.00    11800.00
00285             -30.00    11800.00
00286             -30.00    12000.00
00287             -26.00    11800.00
00288             -24.00    12000.00
00289             -28.00    12000.00
00290             -30.00    12000.00
00291             -36.00    12000.00
00292             -34.00    12000.00
00293             -26.00    12000.00
00294             -26.00    12000.00
00295             -22.00    11800.00
00296             -26.00    12000.00
00297             -30.00    11800.00
00298             -38.00    11800.00
00299             -36.00    11800.00
00300             -26.00    11800.00
00301             -20.00    12000.00
00302             -26.00    11800.00
00303             -32.00    11800.00
00304             -34.00    11800.00
00305             -34.00    11800.00
00306             -30.00    11600.00
00307             -30.00    11600.00
00308             -26.00    11600.00
00309             -22.00    11800.00
00310             -28.00    11600.00
00311             -36.00    11400.00
00312             -38.00    11200.00
00313             -30.00    11200.00
00314             -24.00    11200.00
00315             -22.00    11000.00
00316             -30.00    11200.00
00317             -34.00    11000.00
00318             -34.00    11000.00
00319             -30.00    11000.00
00320             -26.00    10800.00
00321             -26.00    10800.00
00322             -28.00    10800.00
00323             -28.00    10600.00
00324             -30.00    10400.00
00325             -34.00    10400.00
00326             -30.00    10200.00
00327             -28.00    10000.00
00328             -22.00    10000.00
00329             -22.00    10000.00
00330             -28.00     9800.00
00331             -36.00     9600.00
00332             -38.00     9400.00
00333             -30.00     9400.00
00334             -22.00     9200.00
00335             -22.00     9200.00
00336             -28.00     9000.00
00337             -28.00     9000.00
00338             -30.00     8800.00
00339             -28.00     8800.00
00340             -26.00     8600.00
00341             -22.00     8400.00
00342             -20.00     8400.00
00343             -22.00     8400.00
00344             -30.00     8000.00
00345             -32.00     8000.00
00346             -26.00     7800.00
00347             -22.00     7600.00
00348             -18.00     7400.00
00349             -26.00     7200.00
00350             -22.00     7200.00
00351             -22.00     7000.00
00352             -26.00     6800.00
00353             -22.00     6800.00
00354             -20.00     6600.00
00355             -14.00     6400.00
00356             -18.00     6200.00
00357             -22.00     6000.00
00358             -24.00     6000.00
00359             -18.00     5800.00
00360             -18.00     5600.00
00361             -18.00     5400.00
00362             -14.00     5200.00
00363             -20.00     4800.00
00364             -20.00     4600.00
00365             -22.00     4600.00
00366             -22.00     4400.00
00367             -12.00     4200.00
00368             -12.00     4000.00
00369             -14.00     3800.00
00370             -18.00     3800.00
00371             -18.00     3600.00
00372             -14.00     3600.00
00373             -14.00     3200.00
00374             -14.00     3200.00
00375             -12.00     3000.00
00376             -10.00     2400.00
00377             -14.00     2400.00
00378             -18.00     2200.00
00379             -14.00     2000.00
00380             -12.00     2000.00
00381             -10.00     1800.00
00382             -12.00     1400.00
00383             -14.00     1200.00
00384             -10.00     1200.00
00385             -12.00      800.00
00386             -12.00      600.00
00387             -12.00      400.00
00388              -6.00      400.00
00389              -6.00        0.00
00390              -4.00        0.00
00391              -4.00     -200.00
00392              18.00     -400.00
00393              18.00     -600.00
00394             -18.00     -800.00
00395             -30.00    -1000.00
00396               6.00    -1200.00
00397              22.00    -1200.00
00398              84.00    -1600.00
00399             250.00    -1800.00
00400              20.00    -2400.00
00401            -250.00    -2400.00
00402            -250.00    -2400.00
00403             210.00    -2800.00
00404             250.00    -2400.00
00405             250.00    -3000.00
00406            -250.00    -3200.00
00407            -250.00    -2600.00
00408             250.00    -4200.00
00409             228.00    -3200.00
00410            -250.00    -3600.00
00411            -250.00    -4800.00
00412            -136.00    -3200.00
00413             250.00    -5000.00
00414               4.00    -4600.00
00415            -250.00    -4200.00
00416            -102.00    -6000.00
00417              34.00    -4200.00
00418             250.00    -5600.00
00419             -90.00    -5800.00
00420            -250.00    -5000.00
00421              44.00    -6800.00
00422             170.00    -5400.00
00423             230.00    -6400.00
00424            -250.00    -6400.00
00425            -156.00    -6000.00
00426             222.00    -7200.00
00427             126.00    -6400.00
00428             -10.00    -7400.00
00429            -212.00    -7200.00
00430             -38.00    -7000.00
00431             250.00    -7800.00
00432              92.00    -7200.00
00433            -126.00    -8000.00
00434            -106.00    -8000.00
00435              50.00    -8200.00
00436             166.00    -8400.00
00437               4.00    -8400.00
00438             -94.00    -8600.00
00439             -28.00    -8600.00
00440              98.00    -8800.00
00441              92.00    -9000.00
00442             -54.00    -9200.00
00443             -44.00    -9200.00
00444              22.00    -9400.00
00445              86.00    -9400.00
00446              36.00    -9600.00
00447             -36.00    -9600.00
00448             -20.00    -9800.00
00449              46.00   -10000.00
00450              48.00   -10000.00
00451              10.00   -10000.00
00452              -4.00   -10200.00
00453              10.00   -10400.00
00454              50.00   -10400.00
00455              26.00   -10600.00
00456               2.00   -10600.00
00457              -2.00   -10800.00
00458              24.00   -10800.00
00459              44.00   -10800.00
00460              26.00   -10800.00
00461               4.00   -10800.00
00462              12.00   -11200.00
00463              26.00   -11000.00
00464              26.00   -11200.00
00465              20.00   -11400.00
00466              16.00   -11200.00
00467              30.00   -11400.00
00468              26.00   -11600.00
00469              20.00   -11600.00
00470              14.00   -11600.00
00471              14.00   -11600.00
00472              36.00   -11800.00
00473              30.00   -11600.00
00474              20.00   -11600.00
00475              18.00   -11600.00
00476              20.00   -12000.00
00477              28.00   -12000.00
00478              26.00   -12000.00
00479              26.00   -11800.00
00480              26.00   -12000.00
00481              28.00   -12000.00
00482              22.00   -12000.00
00483              20.00   -12000.00
00484              26.00   -12000.00
00485              26.00   -12000.00
00486              28.00   -12000.00
00487              28.00   -12000.00
00488              22.00   -12000.00
00489              20.00   -12000.00
00490              20.00   -12000.00
00491              26.00   -12000.00
00492              30.00   -11800.00
00493              28.00   -11800.00
00494              26.00   -11800.00
00495              26.00   -11800.00
00496              24.00   -11600.00
00497              26.00   -11600.00
00498              26.00   -11600.00
00499              24.00   -11600.00
00500              28.00   -11400.00
00501              30.00   -11600.00
00502              22.00   -11400.00
00503              20.00   -11400.00
00504              20.00   -11400.00
00505              28.00   -11200.00
00506              28.00   -11200.00
00507              22.00   -11000.00
00508              20.00   -11200.00
00509              26.00   -11000.00
00510              26.00   -10800.00
00511              22.00   -10800.00
00512              20.00   -10800.00
00513              26.00   -10600.00
00514              22.00   -10600.00
00515              24.00   -10400.00
00516              20.00   -10400.00
00517              20.00   -10400.00
00518              20.00   -10000.00
00519              22.00   -10200.00
00520              26.00   -10000.00
00521              26.00   -10000.00
00522              20.00    -9800.00
00523              18.00    -9600.00
00524              18.00    -9600.00
00525              24.00    -9400.00
00526              26.00    -9200.00
00527              20.00    -9200.00
00528              18.00    -9000.00
00529              18.00    -8800.00
00530              20.00    -8800.00
00531              18.00    -8800.00
00532              18.00    -8600.00
00533              20.00    -8400.00
00534              22.00    -8200.00
00535              20.00    -8200.00
00536              12.00    -8000.00
00537              14.00    -7600.00
00538              18.00    -7600.00
00539              20.00    -7400.00
00540              18.00    -7400.00
00541              18.00    -7200.00
00542              18.00    -7000.00
00543              14.00    -7000.00
00544              14.00    -6800.00
00545              14.00    -6600.00
00546              18.00    -6400.00
00547              20.00    -6200.00
00548              12.00    -6000.00
00549              12.00    -5800.00
00550              14.00    -6000.00
00551              14.00    -5600.00
00552              14.00    -5600.00
00553              12.00    -5200.00
00554              14.00    -5200.00
00555              12.00    -5000.00
00556              12.00    -4600.00
00557              10.00    -4400.00
00558              12.00    -4400.00
00559              18.00    -4200.00
00560              12.00    -4000.00
00561              10.00    -3800.00
00562              10.00    -3600.00
00563              10.00    -3600.00
00564              10.00    -3200.00
00565               4.00    -3200.00
00566               6.00    -2800.00
00567              12.00    -2600.00
00568              10.00    -2600.00
00569               4.00    -2400.00
00570               4.00    -2200.00
00571               4.00    -2000.00
00572               6.00    -1800.00
00573               6.00    -1600.00
00574               2.00    -1400.00
00575               2.00    -1200.00
00576               6.00    -1000.00
00577               2.00     -800.00
00578               2.00     -600.00
00579              -2.00     -400.00
00580               2.00     -200.00
00581              10.00     -200.00
00582               4.00      200.00
00583               6.00      400.00
00584              34.00      400.00
00585              10.00      600.00
00586             -22.00      800.00
00587             -12.00     1200.00
00588              22.00     1200.00
00589              28.00     1200.00
00590              52.00     1800.00
00591             226.00     2000.00
00592             170.00     2200.00
00593            -250.00     2200.00
00594            -250.00     2400.00
00595             124.00     2800.00
00596             250.00     2800.00
00597             244.00     3000.00
00598              78.00     3200.00
00599            -250.00     3000.00
00600             -46.00     3800.00
00601             250.00     3600.00
00602             -68.00     3800.00
00603            -250.00     4400.00
00604             -76.00     4000.00
00605             180.00     4600.00
00606             250.00     4400.00
00607            -120.00     4800.00
00608            -250.00     5200.00
00609             -30.00     4800.00
00610             250.00     5600.00
00611             146.00     5400.00
00612            -226.00     5600.00
00613            -206.00     6200.00
00614              82.00     5800.00
00615             198.00     6400.00
00616             -20.00     6400.00
00617            -236.00     6600.00
00618             -34.00     6800.00
00619             204.00     6800.00
00620              38.00     7000.00
00621            -164.00     7200.00
00622            -140.00     7600.00
00623              44.00     7600.00
00624             186.00     7800.00
00625             -26.00     8200.00
00626            -190.00     8000.00
00627             -44.00     8200.00
00628              82.00     8400.00
00629              54.00     8400.00
00630             -70.00     8600.00
00631            -110.00     8800.00
00632               6.00     8800.00
00633              86.00     9000.00
00634             -22.00     9200.00
00635            -108.00     9200.00
00636             -46.00     9400.00
00637              36.00     9400.00
00638              38.00     9400.00
00639             -44.00     9800.00
00640             -90.00     9800.00
00641             -30.00     9800.00
00642              28.00    10000.00
00643             -10.00    10200.00
00644             -48.00    10200.00
00645             -40.00    10400.00
00646             -10.00    10400.00
00647               2.00    10400.00
00648             -36.00    10600.00
00649             -52.00    10800.00
00650             -22.00    10800.00
00651              -4.00    10800.00
00652             -14.00    11000.00
00653             -36.00    11000.00
00654             -44.00    11000.00
00655             -28.00    11000.00
00656             -14.00    11200.00
00657             -26.00    11200.00
00658             -30.00    11200.00
00659             -20.00    11400.00
00660             -28.00    11600.00
00661             -34.00    11600.00
00662             -34.00    11600.00
00663             -34.00    11600.00
00664             -20.00    11800.00
00665             -18.00    11600.00
00666             -28.00    11800.00
00667             -36.00    11800.00
00668             -36.00    11800.00
00669             -30.00    11800.00
00670             -24.00    11800.00
00671             -22.00    11800.00
00672             -28.00    12000.00
00673             -28.00    11800.00
00674             -30.00    12000.00
00675             -36.00    12000.00
00676             -30.00    12000.00
00677             -26.00    12000.00
00678             -22.00    12000.00
00679             -22.00    11800.00
00680             -28.00    12000.00
00681             -36.00    11800.00
00682             -36.00    12000.00
00683             -30.00    11800.00
00684             -22.00    12000.00
00685             -22.00    11800.00
00686             -28.00    11800.00
00687             -34.00    11800.00
00688             -36.00    11800.00
00689             -34.00    11800.00
00690             -28.00    11800.00
00691             -26.00    11600.00
00692             -26.00    11600.00
00693             -28.00    11600.00
00694             -32.00    11600.00
00695             -34.00    11400.00
00696             -28.00    11400.00
00697             -24.00    11200.00
00698             -28.00    11200.00
00699             -28.00    11200.00
00700             -28.00    11000.00
00701             -28.00    11000.00
00702             -32.00    10800.00
00703             -36.00    10800.00
00704             -28.00    10800.00
00705             -26.00    10800.00
00706             -26.00    10800.00
00707             -32.00    10400.00
00708             -36.00    10400.00
00709             -30.00    10200.00
00710             -28.00    10200.00
00711             -26.00    10000.00
00712             -26.00    10000.00
00713             -28.00     9800.00
00714             -30.00     9600.00
00715             -30.00     9600.00
00716             -30.00     9600.00
00717             -28.00     9400.00
00718             -22.00     9200.00
00719             -22.00     9200.00
00720             -28.00     9200.00
00721             -30.00     8800.00
00722             -30.00     8800.00
00723             -28.00     8600.00
00724             -22.00     8600.00
00725             -26.00     8400.00
00726             -26.00     8400.00
00727             -28.00     8000.00
00728             -28.00     8200.00
00729             -22.00     7800.00
00730             -24.00     7600.00
00731             -26.00     7600.00
00732             -22.00     7600.00
00733             -22.00     7200.00
00734             -20.00     7000.00
00735             -28.00     7000.00
00736             -28.00     6800.00
00737             -22.00     6400.00
00738             -18.00     6400.00
00739             -18.00     6200.00
00740             -26.00     6200.00
00741             -24.00     6000.00
00742             -18.00     6000.00
00743             -18.00     5600.00
00744             -20.00     5600.00
00745             -20.00     5200.00
00746             -14.00     5200.00
00747             -18.00     4800.00
00748             -22.00     4600.00
00749             -22.00     4400.00
00750             -18.00     4400.00
00751             -10.00     4200.00
00752             -14.00     3800.00
00753             -20.00     3800.00
00754             -18.00     3600.00
00755             -14.00     3400.00
00756             -16.00     3200.00
00757             -14.00     3200.00
00758             -12.00     2800.00
00759              -6.00     2800.00
00760             -12.00     2600.00
00761             -16.00     2200.00
00762             -14.00     2000.00
00763             -12.00     2000.00
00764             -10.00     1800.00
00765             -10.00     1600.00
00766             -10.00     1400.00
00767              -8.00     1200.00
00768             -12.00     1000.00
00769             -12.00      600.00
00770             -10.00      600.00
00771              -6.00      400.00
00772              -4.00        0.00
00773              -6.00     -200.00
00774              -6.00     -200.00
00775              10.00     -400.00
00776              30.00     -400.00
00777               2.00     -800.00
00778             -30.00    -1000.00
00779             -14.00    -1200.00
00780              18.00    -1400.00
00781              34.00    -1600.00
00782             214.00    -1600.00
00783             250.00    -2000.00
00784            -250.00    -2400.00
00785            -250.00    -2400.00
00786             -20.00    -2800.00
00787             250.00    -2400.00
00788             250.00    -2600.00
00789            -138.00    -3400.00
00790            -250.00    -2800.00
00791             250.00    -3600.00
00792             250.00    -4000.00
00793            -230.00    -3000.00
00794            -236.00    -4600.00
00795            -250.00    -3800.00
00796             250.00    -4000.00
00797             250.00    -5600.00
00798            -250.00    -4000.00
00799            -198.00    -5200.00
00800             -86.00    -5400.00
00801             250.00    -4400.00
00802             250.00    -6400.00
00803            -250.00    -4800.00
00804            -108.00    -6000.00
00805             108.00    -6200.00
00806             250.00    -5600.00
00807              -6.00    -7000.00
00808            -250.00    -5800.00
00809             110.00    -6800.00
00810             194.00    -6800.00
00811              58.00    -6600.00
00812            -130.00    -7600.00
00813            -178.00    -6800.00
00814             156.00    -7600.00
00815             210.00    -7400.00
00816             -54.00    -7600.00
00817            -134.00    -8000.00
00818             -36.00    -8000.00
00819             140.00    -8400.00
00820             102.00    -8200.00
00821             -78.00    -8400.00
00822             -68.00    -8600.00
00823              36.00    -8800.00
00824             128.00    -9000.00
00825              10.00    -9000.00
00826             -68.00    -9200.00
00827             -10.00    -9200.00
00828              66.00    -9400.00
00829              78.00    -9200.00
00830              -6.00    -9600.00
00831             -38.00    -9800.00
00832              14.00    -9800.00
00833              60.00   -10000.00
00834              28.00   -10000.00
00835               4.00   -10000.00
00836              -6.00   -10200.00
00837              30.00   -10400.00
00838              42.00   -10400.00
00839              10.00   -10600.00
00840              -2.00   -10600.00
00841              10.00   -10800.00
00842              38.00   -10800.00
00843              30.00   -10800.00
00844              12.00   -11000.00
00845               4.00   -11000.00
00846              20.00   -11200.00
00847              26.00   -11000.00
00848              22.00   -11000.00
00849              16.00   -11400.00
00850              26.00   -11200.00
00851              28.00   -11400.00
00852              18.00   -11400.00
00853              18.00   -11600.00
00854              10.00   -11600.00
00855              26.00   -11600.00
00856              34.00   -11600.00
00857              22.00   -11800.00
00858              18.00   -11800.00
00859              18.00   -11800.00
00860              26.00   -11800.00
00861              26.00   -12000.00
00862              26.00   -11600.00
00863              22.00   -12000.00
00864              26.00   -12000.00
00865              28.00   -12000.00
00866              20.00   -12000.00
00867              20.00   -12000.00
00868              22.00   -12000.00
00869              26.00   -12000.00
00870              36.00   -11800.00
00871              26.00   -12000.00
00872              20.00   -12000.00
00873              18.00   -12000.00
00874              22.00   -12000.00
00875              32.00   -11600.00
00876              30.00   -11800.00
00877              22.00   -11800.00
00878              22.00   -11600.00
00879              26.00   -11600.00
00880              26.00   -11600.00
00881              24.00   -11600.00
00882              22.00   -11600.00
00883              28.00   -11600.00
00884              30.00   -11600.00
00885              22.00   -11400.00
00886              22.00   -11400.00
00887              20.00   -11200.00
00888              28.00   -11200.00
00889              30.00   -11200.00
00890              22.00   -11000.00
00891              22.00   -11000.00
00892              26.00   -11000.00
00893              24.00   -11000.00
00894              20.00   -10800.00
00895              26.00   -10800.00
00896              26.00   -10800.00
00897              26.00   -10600.00
00898              22.00   -10600.00
00899              18.00   -10400.00
00900              22.00   -10400.00
00901              24.00   -10400.00
00902              20.00   -10000.00
00903              22.00   -10000.00
00904              20.00   -10000.00
00905              22.00    -9800.00
00906              18.00    -9800.00
00907              14.00    -9800.00
00908              20.00    -9400.00
00909              26.00    -9200.00
00910              20.00    -9200.00
00911              18.00    -9200.00
00912              20.00    -9000.00
00913              20.00    -8800.00
00914              20.00    -8800.00
00915              18.00    -8600.00
00916              18.00    -8400.00
00917              22.00    -8400.00
00918              18.00    -8200.00
00919              14.00    -8000.00
00920              14.00    -8000.00
00921              18.00    -7800.00
00922              18.00    -7600.00
00923              14.00    -7600.00
00924              16.00    -7200.00
00925              20.00    -7200.00
00926              18.00    -7000.00
00927              14.00    -6800.00
00928              12.00    -6600.00
00929              12.00    -6600.00
00930              20.00    -6400.00
00931              18.00    -6400.00
00932              14.00    -6000.00
00933              12.00    -6000.00
00934              12.00    -5800.00
00935              12.00    -5600.00
00936              14.00    -5200.00
00937              18.00    -5200.00
00938              14.00    -5000.00
00939              10.00    -4600.00
00940               6.00    -4600.00
00941              10.00    -4400.00
00942              18.00    -4400.00
00943              14.00    -4200.00
00944              10.00    -4000.00
00945              10.00    -3600.00
00946              12.00    -3400.00
00947              10.00    -3400.00
00948               4.00    -3200.00
00949               4.00    -3000.00
00950              12.00    -2800.00
00951              10.00    -2600.00
00952               4.00    -2400.00
00953               2.00    -2200.00
00954               4.00    -2000.00
00955               8.00    -1800.00
00956              10.00    -1600.00
00957               4.00    -1600.00
00958               6.00    -1200.00
00959               4.00    -1000.00
00960               4.00     -800.00
00961               2.00     -600.00
00962               2.00     -400.00
00963               4.00     -400.00
00964               6.00     -200.00
00965               2.00        0.00
00966               2.00      200.00
00967              28.00      400.00
00968              28.00      600.00
00969              -8.00      800.00
00970             -24.00     1000.00
00971               4.00     1200.00
00972              30.00     1400.00
00973              34.00     1600.00
00974             130.00     1800.00
00975             250.00     2200.00
00976            -138.00     2400.00
00977            -250.00     2400.00
00978            -198.00     2400.00
00979             250.00     2600.00
00980             238.00     2800.00
00981             248.00     3200.00
00982            -250.00     3200.00
00983            -250.00     3200.00
00984             250.00     3600.00
00985             250.00     3600.00
00986            -250.00     4400.00
00987            -230.00     4000.00
00988              68.00     4400.00
00989             250.00     4800.00
00990             146.00     4400.00
00991            -250.00     5200.00
00992            -250.00     4800.00
00993             218.00     5200.00
00994             250.00     5600.00
00995             -84.00     5400.00
00996            -250.00     6000.00
00997             -60.00     6000.00
00998             186.00     6000.00
00999             118.00     6400.00
01000            -182.00     6400.00
01001            -178.00     6800.00
01002             132.00     6800.00
01003             160.00     7000.00
01004             -98.00     7200.00
01005            -174.00     7200.00
01006             -60.00     7600.00
01007             158.00     7600.00
01008             108.00     8000.00
01009            -164.00     8000.00
01010            -134.00     8200.00
01011              44.00     8400.00
01012              90.00     8400.00
01013             -12.00     8400.00
01014            -118.00     8800.00
01015             -66.00     8800.00
01016              76.00     9000.00
01017              46.00     9000.00
01018             -90.00     9200.00
01019             -86.00     9400.00
01020               4.00     9400.00
01021              52.00     9400.00
01022              -2.00     9600.00
01023             -80.00     9800.00
01024             -66.00    10000.00
01025              18.00    10000.00
01026              14.00    10000.00
01027             -38.00    10200.00
01028             -46.00    10200.00
01029             -22.00    10400.00
01030               4.00    10400.00
01031             -22.00    10600.00
01032             -60.00    10800.00
01033             -38.00    10600.00
01034              -4.00    10800.00
01035              -6.00    10800.00
01036             -28.00    11000.00
01037             -44.00    11000.00
01038             -34.00    11200.00
01039             -14.00    11200.00
01040             -28.00    11200.00
01041             -30.00    11200.00
01042             -22.00    11200.00
01043             -22.00    11400.00
01044             -30.00    11600.00
01045             -36.00    11600.00
01046             -36.00    11800.00
01047             -26.00    11600.00
01048             -20.00    11800.00
01049             -26.00    11800.00
01050             -28.00    11800.00
01051             -34.00    11800.00
01052             -34.00    11800.00
01053             -30.00    11800.00
01054             -28.00    12000.00
01055             -26.00    12000.00
01056             -22.00    12000.00
01057             -32.00    12000.00
01058             -38.00    12000.00
01059             -34.00    12000.00
01060             -30.00    11800.00
01061             -22.00    12000.00
01062             -22.00    12000.00
01063             -28.00    12000.00
01064             -34.00    12000.00
01065             -38.00    12000.00
01066             -34.00    11800.00
01067             -28.00    11800.00
01068             -22.00    11800.00
01069             -26.00    12000.00
01070             -30.00    11800.00
01071             -34.00    11800.00
01072             -36.00    11600.00
01073             -30.00    11600.00
01074             -26.00    11800.00
01075             -28.00    11600.00
01076             -28.00    11600.00
01077             -34.00    11600.00
01078             -36.00    11600.00
01079             -36.00    11400.00
01080             -28.00    11200.00
01081             -22.00    11200.00
01082             -26.00    11200.00
01083             -30.00    11200.00
01084             -32.00    11000.00
01085             -36.00    11000.00
01086             -30.00    11000.00
01087             -26.00    10800.00
01088             -22.00    10600.00
01089             -28.00    10600.00
01090             -34.00    10600.00
01091             -34.00    10400.00
01092             -28.00    10400.00
01093             -30.00    10200.00
01094             -28.00    10200.00
01095             -26.00    10000.00
01096             -26.00    10000.00
01097             -28.00     9800.00
01098             -36.00     9600.00
01099             -30.00     9400.00
01100             -22.00     9400.00
01101             -22.00     9200.00
01102             -26.00     9200.00
01103             -28.00     9200.00
01104             -28.00     9000.00
01105             -30.00     8800.00
01106             -28.00     8800.00
01107             -28.00     8600.00
01108             -20.00     8600.00
01109             -20.00     8400.00
01110             -28.00     8400.00
01111             -28.00     8000.00
01112             -28.00     8000.00
01113             -22.00     7800.00
01114             -22.00     7600.00
01115             -26.00     7200.00
01116             -26.00     7200.00
01117             -20.00     7200.00
01118             -26.00     7000.00
01119             -28.00     6800.00
01120             -28.00     6800.00
01121             -22.00     6400.00
01122             -14.00     6400.00
01123             -20.00     6200.00
01124             -22.00     6000.00
01125             -26.00     6000.00
01126             -26.00     5600.00
01127             -20.00     5400.00
01128             -12.00     5200.00
01129             -16.00     5000.00
01130             -20.00     5200.00
01131             -20.00     4800.00
01132             -26.00     4600.00
01133             -20.00     4400.00
01134             -10.00     4400.00
01135             -12.00     4000.00
01136             -16.00     4000.00
01137             -20.00     3800.00
01138             -18.00     3600.00
01139             -12.00     3200.00
01140             -12.00     3200.00
01141             -12.00     2800.00
01142             -10.00     2800.00
01143             -14.00     2600.00
01144             -14.00     2400.00
01145             -10.00     2200.00
01146             -10.00     2000.00
01147             -12.00     2000.00
01148             -12.00     1600.00
01149             -10.00     1400.00
01150              -6.00     1200.00
01151              -6.00     1000.00
01152             -12.00      800.00
01153             -12.00      600.00
01154              -6.00      600.00
01155              -4.00      400.00
01156              -4.00        0.00
01157              -4.00     -200.00
01158              -2.00     -200.00
01159              26.00     -400.00
01160              18.00     -800.00
01161             -22.00     -800.00
01162             -30.00    -1000.00
01163               6.00    -1200.00
01164              26.00    -1400.00
01165              98.00    -1600.00
01166             250.00    -1800.00
01167             -30.00    -2400.00
01168            -250.00    -2400.00
01169            -250.00    -2400.00
01170             236.00    -2800.00
01171             250.00    -2200.00
01172             250.00    -3200.00
01173            -250.00    -3200.00
01174            -250.00    -2800.00
01175             250.00    -4400.00
01176             138.00    -3400.00
01177            -250.00    -3800.00
01178            -250.00    -4600.00
01179             -68.00    -3200.00
01180             250.00    -5200.00
01181             -84.00    -4600.00
01182            -250.00    -4200.00
01183             -94.00    -6000.00
01184              70.00    -4200.00
01185             250.00    -5800.00
01186            -158.00    -5600.00
01187            -250.00    -5000.00
01188              58.00    -6800.00
01189             184.00    -5200.00
01190             212.00    -6600.00
01191            -250.00    -6400.00
01192            -118.00    -6000.00
01193             222.00    -7200.00
01194             116.00    -6400.00
01195             -24.00    -7400.00
01196            -218.00    -7200.00
01197             -12.00    -7200.00
01198             250.00    -8000.00
01199              68.00    -7200.00
01200            -126.00    -8200.00
01201            -100.00    -8000.00
01202              62.00    -8200.00
01203             164.00    -8400.00
01204             -14.00    -8200.00
01205             -92.00    -8800.00
01206             -22.00    -8400.00
01207             106.00    -8800.00
01208              86.00    -9000.00
01209             -62.00    -9200.00
01210             -44.00    -9200.00
01211              30.00    -9200.00
01212              94.00    -9400.00
01213              34.00    -9400.00
01214             -42.00    -9600.00
01215             -22.00    -9600.00
01216              52.00    -9800.00
01217              52.00   -10000.00
01218              14.00   -10000.00
01219              -4.00   -10200.00
01220               6.00   -10400.00
01221              46.00   -10400.00
01222              26.00   -10600.00
01223               2.00   -10600.00
01224               2.00   -10800.00
01225              26.00   -10800.00
01226              38.00   -10800.00
01227              22.00   -10800.00
01228               4.00   -10800.00
01229              12.00   -11200.00
01230              26.00   -11200.00
01231              26.00   -11200.00
01232              20.00   -11200.00
01233              18.00   -11400.00
01234              26.00   -11400.00
01235              20.00   -11400.00
01236              20.00   -11400.00
01237              14.00   -11600.00
01238              14.00   -11600.00
01239              34.00   -11600.00
01240              30.00   -11600.00
01241              22.00   -11800.00
01242              14.00   -11800.00
01243              18.00   -12000.00
01244              28.00   -12000.00
01245              26.00   -12000.00
01246              22.00   -11600.00
01247              22.00   -12000.00
01248              24.00   -12000.00
01249              26.00   -12000.00
01250              20.00   -11800.00
01251              20.00   -12000.00
01252              28.00   -12000.00
01253              26.00   -12000.00
01254              28.00   -12000.00
01255              20.00   -12000.00
01256              18.00   -12000.00
01257              20.00   -12000.00
01258              26.00   -12000.00
01259              28.00   -11600.00
01260              24.00   -11800.00
01261              26.00   -12000.00
01262              26.00   -11800.00
01263              24.00   -11800.00
01264              24.00   -11600.00
01265              22.00   -11600.00
01266              28.00   -11600.00
01267              28.00   -11400.00
01268              24.00   -11600.00
01269              22.00   -11400.00
01270              22.00   -11400.00
01271              26.00   -11400.00
01272              26.00   -11200.00
01273              26.00   -11200.00
01274              22.00   -11000.00
01275              28.00   -11000.00
01276              22.00   -11000.00
01277              22.00   -10800.00
01278              24.00   -10800.00
01279              26.00   -10800.00
01280              26.00   -10600.00
01281              22.00   -10600.00
01282              20.00   -10600.00
01283              22.00   -10600.00
01284              28.00   -10400.00
01285              26.00   -10200.00
01286              20.00   -10000.00
01287              20.00   -10000.00
01288              22.00    -9800.00
01289              22.00   -10000.00
01290              22.00    -9600.00
01291              18.00    -9600.00
01292              22.00    -9400.00
01293              22.00    -9200.00
01294              22.00    -9200.00
01295              18.00    -9200.00
01296              18.00    -9000.00
01297              20.00    -8800.00
01298              22.00    -8800.00
01299              18.00    -8400.00
01300              18.00    -8400.00
01301              18.00    -8400.00
01302              18.00    -8200.00
01303              18.00    -8000.00
01304              18.00    -8000.00
01305              14.00    -7800.00
01306              18.00    -7600.00
01307              20.00    -7400.00
01308              20.00    -7200.00
01309              14.00    -7200.00
01310              12.00    -7000.00
01311              14.00    -6800.00
01312              14.00    -6600.00
01313              18.00    -6400.00
01314              14.00    -6400.00
01315              14.00    -6200.00
01316              14.00    -6000.00
01317              12.00    -5800.00
01318              10.00    -5800.00
01319              12.00    -5400.00
01320              12.00    -5200.00
01321              14.00    -5200.00
01322              12.00    -4800.00
01323               8.00    -4800.00
01324               8.00    -4600.00
01325              12.00    -4400.00
01326              14.00    -4200.00
01327              12.00    -4000.00
01328               4.00    -3800.00
01329               6.00    -3600.00
01330               6.00    -3600.00
01331               6.00    -3400.00
01332              10.00    -3200.00
01333              14.00    -2800.00
01334              12.00    -2800.00
01335              12.00    -2600.00
01336              14.00    -2200.00
01337              12.00    -2000.00
01338               4.00    -2000.00
01339              -4.00    -1800.00
01340             -10.00    -1600.00
01341             -10.00    -1400.00
01342               0.00    -1200.00
01343              10.00    -1000.00
01344              12.00     -800.00
01345              12.00     -400.00
01346              14.00     -400.00
01347              10.00     -400.00
01348               4.00        0.00
01349              -6.00        0.00
01350               0.00      400.00
01351              22.00      600.00
01352               4.00      600.00
01353             -18.00      800.00
01354               2.00     1200.00
01355              36.00     1200.00
01356              38.00     1400.00
01357              58.00     1600.00
01358             236.00     2000.00
01359             122.00     2000.00
01360            -250.00     2200.00
01361            -250.00     2400.00
01362             170.00     2400.00
01363             250.00     2800.00
01364             250.00     3200.00
01365              36.00     3200.00
01366            -250.00     3000.00
01367              34.00     3600.00
01368             250.00     3600.00
01369            -142.00     3800.00
01370            -250.00     4200.00
01371             -52.00     4000.00
01372             198.00     4600.00
01373             250.00     4400.00
01374            -164.00     4800.00
01375            -250.00     5200.00
01376               2.00     4800.00
01377             250.00     5600.00
01378             118.00     5400.00
01379            -236.00     5600.00
01380            -190.00     6200.00
01381              92.00     5600.00
01382             192.00     6400.00
01383             -42.00     6400.00
01384            -238.00     6400.00
01385             -12.00     6800.00
01386             200.00     6800.00
01387              14.00     7000.00
01388            -166.00     7200.00
01389            -132.00     7600.00
01390              62.00     7600.00
01391             180.00     7600.00
01392             -52.00     8000.00
01393            -190.00     7800.00
01394             -30.00     8200.00
01395              86.00     8400.00
01396              46.00     8400.00
01397             -84.00     8800.00
01398            -110.00     8600.00
01399              22.00     8800.00
01400              90.00     9200.00
01401             -36.00     9200.00
01402            -110.00     9200.00
01403             -42.00     9200.00
01404              42.00     9400.00
01405              36.00     9600.00
01406             -52.00     9600.00
01407             -90.00     9600.00
01408             -20.00    10000.00
01409              34.00    10000.00
01410             -12.00    10200.00
01411             -46.00    10200.00
01412             -42.00    10400.00
01413             -10.00    10400.00
01414               2.00    10400.00
01415             -44.00    10400.00
01416             -52.00    10800.00
01417             -18.00    10800.00
01418              -4.00    11000.00
01419             -12.00    11000.00
01420             -36.00    11000.00
01421             -44.00    11000.00
01422             -26.00    11200.00
01423             -20.00    11200.00
01424             -32.00    11200.00
01425             -28.00    11200.00
01426             -20.00    11400.00
01427             -26.00    11400.00
01428             -34.00    11600.00
01429             -38.00    11600.00
01430             -36.00    11600.00
01431             -20.00    11600.00
01432             -14.00    11800.00
01433             -30.00    11800.00
01434             -38.00    11800.00
01435             -36.00    11800.00
01436             -30.00    11800.00
01437             -20.00    11800.00
01438             -22.00    11800.00
01439             -34.00    11800.00
01440             -34.00    12000.00
01441             -30.00    12000.00
01442             -30.00    12000.00
01443             -34.00    11800.00
01444             -32.00    11800.00
01445             -24.00    12000.00
01446             -24.00    11800.00
01447             -34.00    12000.00
01448             -42.00    12000.00
01449             -38.00    11800.00
01450             -26.00    11800.00
01451             -22.00    12000.00
01452             -26.00    11800.00
01453             -30.00    11800.00
01454             -34.00    11800.00
01455             -36.00    11600.00
01456             -34.00    11800.00
01457             -34.00    11600.00
01458             -22.00    11800.00
01459             -26.00    11600.00
01460             -30.00    11600.00
01461             -34.00    11600.00
01462             -36.00    11200.00
01463             -30.00    11200.00
01464             -24.00    11200.00
01465             -28.00    11200.00
01466             -28.00    11200.00
01467             -28.00    11200.00
01468             -34.00    11000.00
01469             -34.00    10800.00
01470             -28.00    10800.00
01471             -22.00    10800.00
01472             -22.00    10800.00
01473             -30.00    10600.00
01474             -34.00    10400.00
01475             -28.00    10400.00
01476             -28.00    10400.00
01477             -28.00    10200.00
01478             -24.00    10200.00
01479             -26.00    10000.00
01480             -26.00     9800.00
01481             -34.00     9800.00
01482             -34.00     9600.00
01483             -28.00     9400.00
01484             -22.00     9400.00
01485             -22.00     9200.00
01486             -28.00     9200.00
01487             -32.00     9200.00
01488             -28.00     8800.00
01489             -28.00     8800.00
01490             -26.00     8600.00
01491             -26.00     8600.00
01492             -22.00     8400.00
01493             -26.00     8400.00
01494             -28.00     8000.00
01495             -28.00     8200.00
01496             -26.00     7800.00
01497             -22.00     7800.00
01498             -20.00     7600.00
01499             -22.00     7400.00
01500             -26.00     7200.00
01501             -28.00     7000.00
01502             -26.00     7000.00
01503             -22.00     6800.00
01504             -22.00     6800.00
01505             -22.00     6400.00
01506             -20.00     6200.00
01507             -22.00     6000.00
01508             -22.00     5800.00
01509             -26.00     5800.00
01510             -22.00     5600.00
01511             -18.00     5400.00
01512             -12.00     5200.00
01513             -18.00     5000.00
01514             -22.00     4800.00
01515             -22.00     4600.00
01516             -18.00     4400.00
01517             -12.00     4400.00
01518             -18.00     4000.00
01519             -18.00     4000.00
01520             -18.00     3800.00
01521             -14.00     3600.00
01522             -18.00     3400.00
01523             -20.00     3200.00
01524             -12.00     3200.00
01525              -6.00     2800.00
01526             -10.00     2600.00
01527             -14.00     2600.00
01528             -16.00     2400.00
01529             -12.00     2200.00
01530              -6.00     2000.00
01531             -12.00     1800.00
01532             -12.00     1600.00
01533              -6.00     1400.00
01534             -10.00     1200.00
01535             -12.00     1000.00
01536             -12.00      800.00
01537             -10.00      600.00
01538              -4.00      400.00
01539              -4.00      200.00
01540             -10.00        0.00
01541              -2.00     -200.00
01542              12.00     -400.00
01543              28.00     -400.00
01544              -2.00     -800.00
01545             -30.00    -1000.00
01546             -12.00    -1000.00
01547              20.00    -1200.00
01548              38.00    -1600.00
01549             238.00    -1600.00
01550             242.00    -2200.00
01551            -250.00    -2400.00
01552            -250.00    -2400.00
01553              22.00    -2800.00
01554             250.00    -2400.00
01555             250.00    -2600.00
01556            -250.00    -3400.00
01557            -250.00    -2600.00
01558             250.00    -3600.00
01559             250.00    -4000.00
01560            -250.00    -3200.00
01561            -238.00    -4800.00
01562            -250.00    -3800.00
01563             250.00    -4000.00
01564             250.00    -5400.00
01565            -250.00    -3800.00
01566            -176.00    -5800.00
01567             -74.00    -5000.00
01568             250.00    -4600.00
01569             250.00    -6400.00
01570            -250.00    -4800.00
01571             -84.00    -6200.00
01572             116.00    -6000.00
01573             250.00    -5800.00
01574             -52.00    -7200.00
01575            -250.00    -5800.00
01576             134.00    -6800.00
01577             182.00    -6600.00
01578              52.00    -6600.00
01579            -148.00    -7600.00
01580            -164.00    -6800.00
01581             180.00    -7600.00
01582             198.00    -7400.00
01583             -70.00    -7600.00
01584            -138.00    -8000.00
01585             -28.00    -8000.00
01586             152.00    -8400.00
01587              90.00    -8200.00
01588             -86.00    -8400.00
01589             -66.00    -8600.00
01590              50.00    -8800.00
01591             130.00    -8800.00
01592              -6.00    -9000.00
01593             -70.00    -9000.00
01594              -6.00    -9200.00
01595              74.00    -9400.00
01596              74.00    -9400.00
01597             -20.00    -9600.00
01598             -44.00    -9800.00
01599              22.00    -9800.00
01600              68.00   -10000.00
01601              22.00   -10000.00
01602               2.00   -10000.00
01603              -6.00   -10000.00
01604              38.00   -10400.00
01605              42.00   -10400.00
01606               6.00   -10600.00
01607              -2.00   -10600.00
01608              20.00   -10600.00
01609              42.00   -10800.00
01610              34.00   -10800.00
01611               6.00   -10800.00
01612               4.00   -10800.00
01613              26.00   -11200.00
01614              28.00   -11200.00
01615              22.00   -11400.00
01616              16.00   -11000.00
01617              22.00   -11400.00
01618              22.00   -11400.00
01619              22.00   -11400.00
01620              20.00   -11600.00
01621              12.00   -11400.00
01622              26.00   -11600.00
01623              30.00   -11600.00
01624              22.00   -11600.00
01625              20.00   -11600.00
01626              14.00   -12000.00
01627              22.00   -11800.00
01628              24.00   -11800.00
01629              22.00   -12000.00
01630              22.00   -11800.00
01631              24.00   -12000.00
01632              26.00   -12000.00
01633              22.00   -12000.00
01634              20.00   -12000.00
01635              22.00   -12000.00
01636              28.00   -12000.00
01637              34.00   -12000.00
01638              26.00   -12000.00
01639              16.00   -12000.00
01640              14.00   -12000.00
01641              26.00   -12000.00
01642              32.00   -11800.00
01643              26.00   -11800.00
01644              20.00   -12000.00
01645              26.00   -11600.00
01646              26.00   -11800.00
01647              20.00   -11800.00
01648              20.00   -11600.00
01649              24.00   -11600.00
01650              30.00   -11600.00
01651              30.00   -11600.00
01652              22.00   -11400.00
01653              18.00   -11400.00
01654              20.00   -11400.00
01655              30.00   -11400.00
01656              30.00   -11000.00
01657              28.00   -11200.00
01658              22.00   -11000.00
01659              20.00   -11000.00
01660              22.00   -11000.00
01661              26.00   -10800.00
01662              28.00   -10800.00
01663              28.00   -10600.00
01664              24.00   -10600.00
01665              20.00   -10600.00
01666              24.00   -10600.00
01667              26.00   -10400.00
01668              20.00   -10400.00
01669              26.00   -10000.00
01670              26.00    -9800.00
01671              26.00   -10000.00
01672              22.00    -9800.00
01673              12.00    -9800.00
01674              22.00    -9600.00
01675              26.00    -9600.00
01676              22.00    -9400.00
01677              20.00    -9200.00
01678              24.00    -9200.00
01679              20.00    -9000.00
01680              18.00    -8800.00
01681              18.00    -8800.00
01682              20.00    -8600.00
01683              26.00    -8400.00
01684              20.00    -8200.00
01685              14.00    -8200.00
01686              14.00    -8200.00
01687              20.00    -7800.00
01688              20.00    -7800.00
01689              18.00    -7600.00
01690              12.00    -7400.00
01691              20.00    -7400.00
01692              22.00    -7200.00
01693              12.00    -7000.00
01694              10.00    -6800.00
01695              14.00    -6800.00
01696              18.00    -6600.00
01697              18.00    -6200.00
01698              10.00    -6400.00
01699              12.00    -6000.00
01700              18.00    -5800.00
01701              12.00    -5800.00
01702              12.00    -5600.00
01703              12.00    -5400.00
01704              14.00    -5000.00
01705              12.00    -5000.00
01706              10.00    -4800.00
01707               6.00    -4600.00
01708              12.00    -4400.00
01709              12.00    -4200.00
01710              10.00    -4200.00
01711              12.00    -4000.00
01712              10.00    -3800.00
01713              10.00    -3600.00
01714               6.00    -3400.00
01715               6.00    -3200.00
01716              10.00    -2800.00
01717              12.00    -2800.00
01718               8.00    -2600.00
01719               6.00    -2400.00
01720               6.00    -2200.00
01721               4.00    -2000.00
01722               6.00    -1800.00
01723               4.00    -1600.00
01724               4.00    -1600.00
01725               6.00    -1200.00
01726               4.00    -1000.00
01727               2.00     -800.00
01728              -2.00     -600.00
01729               4.00     -400.00
01730               6.00     -200.00
01731               6.00     -200.00
01732               4.00        0.00
01733               6.00      200.00
01734              24.00      400.00
01735              26.00      600.00
01736              -6.00      800.00
01737             -22.00      800.00
01738               6.00     1200.00
01739              26.00     1400.00
01740              34.00     1400.00
01741             148.00     1800.00
01742             250.00     2200.00
01743            -188.00     2200.00
01744            -250.00     2200.00
01745            -142.00     2400.00
01746             250.00     2600.00
01747             228.00     3000.00
01748             234.00     3200.00
01749            -250.00     3000.00
01750            -250.00     3400.00
01751             250.00     3600.00
01752             250.00     3600.00
01753            -250.00     4000.00
01754            -204.00     4000.00
01755              88.00     4400.00
01756             250.00     4600.00
01757             106.00     4400.00
01758            -250.00     5200.00
01759            -226.00     4800.00
01760             238.00     5400.00
01761             250.00     5600.00
01762            -110.00     5200.00
01763            -250.00     6200.00
01764             -38.00     5800.00
01765             186.00     6200.00
01766             100.00     6400.00
01767            -196.00     6400.00
01768            -160.00     6800.00
01769             148.00     6800.00
01770             140.00     7000.00
01771            -114.00     7200.00
01772            -172.00     7200.00
01773             -50.00     7600.00
01774             170.00     7600.00
01775              94.00     8000.00
01776            -178.00     8000.00
01777            -122.00     8200.00
01778              50.00     8200.00
01779              82.00     8400.00
01780             -22.00     8600.00
01781            -124.00     8600.00
01782             -54.00     8800.00
01783              84.00     8800.00
01784              34.00     9200.00
01785             -98.00     9200.00
01786             -84.00     9400.00
01787               8.00     9400.00
01788              52.00     9400.00
01789             -10.00     9800.00
01790             -86.00     9600.00
01791             -58.00     9800.00
01792              20.00    10000.00
01793              10.00    10000.00
01794             -44.00    10200.00
01795             -48.00    10400.00
01796             -22.00    10400.00
01797               6.00    10400.00
01798             -22.00    10600.00
01799             -54.00    10800.00
01800             -36.00    10800.00
01801              -6.00    10800.00
01802              -6.00    11000.00
01803             -22.00    11000.00
01804             -44.00    11200.00
01805             -34.00    11200.00
01806             -18.00    11200.00
01807             -24.00    11200.00
01808             -26.00    11400.00
01809             -20.00    11600.00
01810             -22.00    11400.00
01811             -34.00    11600.00
01812             -38.00    11600.00
01813             -34.00    11600.00
01814             -26.00    11600.00
01815             -18.00    11600.00
01816             -22.00    11800.00
01817             -36.00    11800.00
01818             -38.00    11800.00
01819             -34.00    11800.00
01820             -26.00    11800.00
01821             -22.00    11800.00
01822             -26.00    12000.00
01823             -32.00    11800.00
01824             -30.00    12000.00
01825             -30.00    12000.00
01826             -32.00    12000.00
01827             -30.00    12000.00
01828             -28.00    12000.00
01829             -24.00    11800.00
01830             -28.00    12000.00
01831             -34.00    12000.00
01832             -38.00    11800.00
01833             -36.00    12000.00
01834             -26.00    11800.00
01835             -24.00    11800.00
01836             -26.00    11800.00
01837             -30.00    11800.00
01838             -36.00    11800.00
01839             -38.00    11600.00
01840             -34.00    11800.00
01841             -22.00    11600.00
01842             -22.00    11600.00
01843             -28.00    11400.00
01844             -34.00    11600.00
01845             -36.00    11600.00
01846             -34.00    11200.00
01847             -28.00    11400.00
01848             -28.00    11200.00
01849             -28.00    11200.00
01850             -22.00    11000.00
01851             -30.00    11000.00
01852             -38.00    11000.00
01853             -36.00    11000.00
01854             -26.00    10800.00
01855             -20.00    10800.00
01856             -22.00    10800.00
01857             -30.00    10400.00
01858             -36.00    10400.00
01859             -36.00    10400.00
01860             -28.00    10200.00
01861             -20.00    10200.00
01862             -22.00    10200.00
01863             -26.00    10000.00
01864             -30.00    10000.00
01865             -34.00     9600.00
01866             -28.00     9600.00
01867             -22.00     9600.00
01868             -22.00     9400.00
01869             -22.00     9400.00
01870             -28.00     9200.00
01871             -28.00     9200.00
01872             -28.00     8800.00
01873             -24.00     8600.00
01874             -22.00     8800.00
01875             -22.00     8400.00
01876             -22.00     8400.00
01877             -28.00     8000.00
01878             -28.00     8200.00
01879             -30.00     7800.00
01880             -22.00     7800.00
01881             -20.00     7600.00
01882             -22.00     7400.00
01883             -22.00     7200.00
01884             -28.00     7200.00
01885             -26.00     7000.00
01886             -26.00     6800.00
01887             -22.00     6600.00
01888             -18.00     6400.00
01889             -20.00     6200.00
01890             -22.00     6200.00
01891             -22.00     6000.00
01892             -24.00     5800.00
01893             -20.00     5600.00
01894             -20.00     5400.00
01895             -18.00     5400.00
01896             -18.00     5000.00
01897             -20.00     4800.00
01898             -22.00     4800.00
01899             -20.00     4600.00
01900             -20.00     4400.00
01901             -18.00     4000.00
01902             -14.00     4000.00
01903             -14.00     3800.00
01904             -16.00     3600.00
01905             -20.00     3400.00
01906             -18.00     3200.00
01907             -18.00     3200.00
01908             -12.00     2800.00
01909             -12.00     2800.00
01910             -12.00     2400.00
01911             -14.00     2400.00
01912             -16.00     2200.00
01913             -14.00     2000.00
01914              -8.00     1800.00
01915             -10.00     1600.00
01916              -6.00     1400.00
01917             -12.00     1200.00
01918             -14.00     1000.00
01919             -10.00      800.00
01920              -6.00      600.00
01921              -6.00      400.00
01922              -8.00      200.00
01923             -10.00        0.00
01924              -4.00     -200.00
01925               4.00     -200.00
01926              26.00     -400.00
01927              16.00     -400.00
01928             -22.00    -1000.00
01929             -28.00    -1000.00
01930              12.00    -1200.00
01931              26.00    -1400.00
01932             116.00    -1600.00
01933             250.00    -1800.00
01934             -92.00    -2400.00
01935            -250.00    -2400.00
01936            -250.00    -2800.00
01937             250.00    -2800.00
01938             250.00    -2400.00
01939             250.00    -3400.00
01940            -250.00    -3000.00
01941            -250.00    -2800.00
01942             250.00    -4400.00
01943              56.00    -3200.00
01944            -250.00    -4000.00
01945            -250.00    -4600.00
01946               6.00    -3200.00
01947             250.00    -5200.00
01948            -172.00    -4400.00
01949            -250.00    -4400.00
01950             -92.00    -5800.00
01951             108.00    -4200.00
01952             250.00    -5800.00
01953            -222.00    -5600.00
01954            -250.00    -5200.00
01955              70.00    -6600.00
01956             194.00    -5200.00
01957             184.00    -6800.00
01958            -250.00    -6400.00
01959             -82.00    -6200.00
01960             226.00    -7200.00
01961             106.00    -6400.00
01962             -44.00    -7600.00
01963            -220.00    -7000.00
01964              20.00    -7400.00
01965             250.00    -7800.00
01966              46.00    -7200.00
01967            -140.00    -8200.00
01968             -94.00    -8000.00
01969              78.00    -8200.00
01970             162.00    -8200.00
01971             -26.00    -8200.00
01972             -98.00    -8600.00
01973             -18.00    -8600.00
01974             116.00    -8800.00
01975              80.00    -8800.00
01976             -68.00    -9200.00
01977             -38.00    -9200.00
01978              34.00    -9200.00
01979              92.00    -9400.00
01980              26.00    -9600.00
01981             -38.00    -9600.00
01982             -12.00    -9800.00
01983              58.00    -9800.00
01984              42.00   -10000.00
01985              12.00   -10000.00
01986              -4.00   -10000.00
01987              12.00   -10200.00
01988              50.00   -10400.00
01989              22.00   -10400.00
01990               2.00   -10600.00
01991               6.00   -10600.00
01992              28.00   -10600.00
01993              40.00   -10800.00
01994              26.00   -10800.00
01995               4.00   -11200.00
01996              18.00   -11200.00
01997              28.00   -11000.00
01998              24.00   -11200.00
01999              22.00   -11200.00
02000              20.00   -11200.00
02001              26.00   -11400.00
02002              22.00   -11400.00
02003              22.00   -11400.00
02004              16.00   -11600.00
02005              18.00   -11600.00
02006              28.00   -11600.00
02007              30.00   -11600.00
02008              26.00   -11800.00
02009              14.00   -12000.00
02010              16.00   -11800.00
02011              22.00   -12000.00
02012              26.00   -11800.00
02013              26.00   -12000.00
02014              26.00   -12000.00
02015              22.00   -11800.00
02016              26.00   -12000.00
02017              18.00   -11800.00
02018              22.00   -12000.00
02019              26.00   -12000.00
02020              28.00   -12000.00
02021              28.00   -12000.00
02022              22.00   -12000.00
02023              16.00   -12000.00
02024              20.00   -12000.00
02025              26.00   -11600.00
02026              26.00   -12000.00
02027              26.00   -11800.00
02028              26.00   -11800.00
02029              26.00   -12000.00
02030              18.00   -11800.00
02031              20.00   -11600.00
02032              26.00   -11800.00
02033              32.00   -11400.00
02034              30.00   -11600.00
02035              26.00   -11400.00
02036              20.00   -11400.00
02037              20.00   -11400.00
02038              22.00   -11400.00
02039              28.00   -11000.00
02040              26.00   -11200.00
02041              24.00   -11000.00
02042              20.00   -11200.00
02043              20.00   -11000.00
02044              22.00   -11000.00
02045              26.00   -10800.00
02046              26.00   -10800.00
02047              28.00   -10600.00
02048              24.00   -10600.00
02049              22.00   -10600.00
02050              20.00   -10400.00
02051              20.00   -10400.00
02052              26.00   -10000.00
02053              30.00   -10200.00
02054              28.00   -10000.00
02055              20.00    -9800.00
02056              16.00    -9800.00
02057              20.00    -9600.00
02058              26.00    -9600.00
02059              22.00    -9400.00
02060              22.00    -9400.00
02061              20.00    -9200.00
02062              20.00    -9000.00
02063              20.00    -8800.00
02064              18.00    -8800.00
02065              18.00    -8600.00
02066              26.00    -8400.00
02067              26.00    -8400.00
02068              18.00    -8200.00
02069              18.00    -8200.00
02070              18.00    -8000.00
02071              20.00    -8000.00
02072              20.00    -7600.00
02073              12.00    -7600.00
02074              18.00    -7400.00
02075              22.00    -7400.00
02076              14.00    -7200.00
02077              10.00    -6800.00
02078              14.00    -6800.00
02079              14.00    -6600.00
02080              18.00    -6400.00
02081              14.00    -6400.00
02082               8.00    -6200.00
02083              18.00    -6000.00
02084              12.00    -5800.00
02085              10.00    -5800.00
02086              12.00    -5400.00
02087              12.00    -5200.00
02088              14.00    -5000.00
02089              10.00    -5000.00
02090               4.00    -4600.00
02091              12.00    -4600.00
02092              12.00    -4400.00
02093              12.00    -4200.00
02094              10.00    -4000.00
02095               6.00    -3800.00
02096               6.00    -3600.00
02097               4.00    -3400.00
02098               2.00    -3400.00
02099               6.00    -3200.00
02100              10.00    -2800.00
02101              12.00    -2600.00
02102               4.00    -2600.00
02103               4.00    -2400.00
02104               4.00    -2200.00
02105               4.00    -2000.00
02106               4.00    -1600.00
02107               4.00    -1600.00
02108               6.00    -1400.00
02109               2.00    -1200.00
02110               2.00    -1000.00
02111               4.00     -800.00
02112               2.00     -600.00
02113               6.00     -400.00
02114               4.00     -200.00
02115               2.00        0.00
02116               6.00      400.00
02117              16.00      400.00
02118              34.00      600.00
02119               8.00      800.00
02120             -22.00      800.00
02121              -6.00     1200.00
02122              22.00     1200.00
02123              26.00     1400.00
02124              70.00     1600.00
02125             250.00     2200.00
02126              96.00     2400.00
02127            -250.00     2400.00
02128            -250.00     2400.00
02129             208.00     2600.00
02130             250.00     3000.00
02131             250.00     3000.00
02132             -22.00     3200.00
02133            -250.00     3200.00
02134             118.00     3600.00
02135             250.00     3600.00
02136            -198.00     3800.00
02137            -250.00     4200.00
02138             -34.00     4000.00
02139             214.00     4600.00
02140             250.00     4400.00
02141            -202.00     5000.00
02142            -250.00     5000.00
02143              42.00     4800.00
02144             250.00     5600.00
02145              84.00     5200.00
02146            -250.00     5800.00
02147            -172.00     6200.00
02148             114.00     5800.00
02149             188.00     6400.00
02150             -70.00     6200.00
02151            -236.00     6400.00
02152              12.00     6800.00
02153             204.00     7000.00
02154              -4.00     7200.00
02155            -178.00     7200.00
02156            -126.00     7200.00
02157              82.00     7600.00
02158             174.00     7800.00
02159             -74.00     7800.00
02160            -186.00     8000.00
02161             -14.00     8200.00
02162              90.00     8400.00
02163              36.00     8400.00
02164             -94.00     8600.00
02165            -106.00     8600.00
02166              34.00     8800.00
02167              84.00     8800.00
02168             -50.00     9200.00
02169            -110.00     9200.00
02170             -34.00     9400.00
02171              44.00     9400.00
02172              30.00     9600.00
02173             -54.00     9600.00
02174             -84.00    10000.00
02175             -12.00    10000.00
02176              26.00    10000.00
02177             -20.00    10000.00
02178             -50.00    10200.00
02179             -34.00    10200.00
02180              -2.00    10400.00
02181              -4.00    10400.00
02182             -46.00    10600.00
02183             -52.00    10800.00
02184             -14.00    10800.00
02185              -2.00    11000.00
02186             -16.00    11000.00
02187             -38.00    11200.00
02188             -44.00    11000.00
02189             -20.00    11000.00
02190             -18.00    11200.00
02191             -28.00    11200.00
02192             -26.00    11400.00
02193             -22.00    11200.00
02194             -22.00    11600.00
02195             -30.00    11600.00
02196             -38.00    11400.00
02197             -30.00    11600.00
02198             -20.00    11600.00
02199             -14.00    11800.00
02200             -30.00    11800.00
02201             -36.00    11800.00
02202             -38.00    11800.00
02203             -30.00    11800.00
02204             -26.00    11800.00
02205             -22.00    12000.00
02206             -28.00    11800.00
02207             -30.00    12000.00
02208             -32.00    12000.00
02209             -36.00    11800.00
02210             -34.00    12000.00
02211             -26.00    12000.00
02212             -22.00    11800.00
02213             -22.00    11800.00
02214             -32.00    11800.00
02215             -38.00    11800.00
02216             -38.00    12000.00
02217             -30.00    11800.00
02218             -22.00    11800.00
02219             -22.00    11800.00
02220             -28.00    11800.00
02221             -36.00    11800.00
02222             -38.00    11800.00
02223             -36.00    11600.00
02224             -28.00    11600.00
02225             -22.00    11600.00
02226             -26.00    11600.00
02227             -34.00    11600.00
02228             -38.00    11400.00
02229             -38.00    11400.00
02230             -28.00    11200.00
02231             -26.00    11200.00
02232             -22.00    11200.00
02233             -28.00    11200.00
02234             -30.00    11000.00
02235             -34.00    11000.00
02236             -32.00    10800.00
02237             -28.00    10800.00
02238             -26.00    10800.00
02239             -24.00    10600.00
02240             -28.00    10600.00
02241             -34.00    10400.00
02242             -30.00    10400.00
02243             -28.00    10200.00
02244             -24.00    10200.00
02245             -24.00    10000.00
02246             -26.00    10000.00
02247             -28.00     9800.00
02248             -28.00     9800.00
02249             -30.00     9600.00
02250             -30.00     9400.00
02251             -22.00     9400.00
02252             -22.00     9400.00
02253             -22.00     9000.00
02254             -26.00     9200.00
02255             -30.00     8800.00
02256             -30.00     8800.00
02257             -22.00     8600.00
02258             -22.00     8400.00
02259             -22.00     8400.00
02260             -24.00     8200.00
02261             -28.00     8000.00
02262             -28.00     8000.00
02263             -26.00     7800.00
02264             -22.00     7600.00
02265             -22.00     7400.00
02266             -20.00     7600.00
02267             -24.00     7200.00
02268             -26.00     7000.00
02269             -26.00     6800.00
02270             -26.00     6800.00
02271             -20.00     6400.00
02272             -20.00     6400.00
02273             -20.00     6200.00
02274             -22.00     6000.00
02275             -26.00     5800.00
02276             -26.00     5800.00
02277             -20.00     5600.00
02278             -14.00     5400.00
02279             -18.00     5200.00
02280             -20.00     5000.00
02281             -24.00     4800.00
02282             -20.00     4600.00
02283             -18.00     4400.00
02284             -18.00     4400.00
02285             -16.00     4000.00
02286             -14.00     4000.00
02287             -14.00     3800.00
02288             -20.00     3600.00
02289             -22.00     3400.00
02290             -20.00     3200.00
02291             -10.00     3000.00
02292             -10.00     2800.00
02293             -12.00     2800.00
02294             -18.00     2400.00
02295             -20.00     2400.00
02296             -12.00     2000.00
02297              -8.00     2000.00
02298             -12.00     1600.00
02299             -10.00     1400.00
02300             -12.00     1400.00
02301             -10.00     1200.00
02302             -12.00      800.00
02303             -12.00      600.00
02304              -6.00      600.00
02305              -6.00      200.00
02306              -4.00      200.00
02307              -4.00     -200.00
02308              -6.00     -200.00
02309               8.00     -400.00
02310              28.00     -400.00
02311               2.00     -800.00
02312             -30.00    -1000.00
02313             -12.00    -1000.00
02314              18.00    -1200.00
02315              46.00    -1200.00
02316             250.00    -1600.00
02317             210.00    -2000.00
02318            -250.00    -2400.00
02319            -250.00    -2600.00
02320              68.00    -2800.00
02321             250.00    -2400.00
02322             250.00    -2600.00
02323            -250.00    -3400.00
02324            -250.00    -2600.00
02325             250.00    -3800.00
02326             250.00    -4000.00
02327            -250.00    -3000.00
02328            -250.00    -4800.00
02329            -250.00    -3600.00
02330             250.00    -4200.00
02331             250.00    -5200.00
02332            -250.00    -3600.00
02333            -150.00    -5800.00
02334             -66.00    -4600.00
02335             250.00    -4600.00
02336             202.00    -6200.00
02337            -250.00    -4600.00
02338             -52.00    -6400.00
02339             118.00    -6000.00
02340             250.00    -5800.00
02341             -92.00    -6800.00
02342            -250.00    -5800.00
02343             158.00    -7200.00
02344             168.00    -6400.00
02345              36.00    -7000.00
02346            -164.00    -7600.00
02347            -142.00    -6800.00
02348             196.00    -8000.00
02349             180.00    -7400.00
02350             -86.00    -7600.00
02351            -132.00    -8200.00
02352             -14.00    -8000.00
02353             158.00    -8400.00
02354              70.00    -8200.00
02355             -92.00    -8400.00
02356             -60.00    -8600.00
02357              58.00    -8800.00
02358             124.00    -9000.00
02359             -22.00    -9000.00
02360             -62.00    -9200.00
02361               4.00    -9200.00
02362              78.00    -9400.00
02363              66.00    -9400.00
02364             -26.00    -9600.00
02365             -38.00    -9600.00
02366              32.00    -9800.00
02367              60.00    -9800.00
02368              18.00   -10000.00
02369               2.00   -10000.00
02370              -2.00   -10000.00
02371              38.00   -10400.00
02372              36.00   -10400.00
02373               4.00   -10600.00
02374               8.00   -10600.00
02375              20.00   -10600.00
02376              36.00   -10600.00
02377              32.00   -10800.00
02378              10.00   -10800.00
02379              12.00   -11200.00
02380              26.00   -11000.00
02381              26.00   -11200.00
02382              22.00   -11200.00
02383              22.00   -11000.00
02384              28.00   -11200.00
02385              22.00   -11400.00
02386              20.00   -11400.00
02387              20.00   -11600.00
02388              18.00   -11600.00
02389              28.00   -11600.00
02390              30.00   -11600.00
02391              28.00   -11600.00
02392              20.00   -11800.00
02393              16.00   -11800.00
02394              26.00   -11600.00
02395              28.00   -12000.00
02396              26.00   -12000.00
02397              20.00   -11800.00
02398              20.00   -12000.00
02399              26.00   -12000.00
02400              22.00   -12000.00
02401              20.00   -12000.00
02402              22.00   -12000.00
02403              28.00   -12000.00
02404              32.00   -12000.00
02405              26.00   -12000.00
02406              14.00   -12000.00
02407              18.00   -11800.00
02408              30.00   -12000.00
02409              30.00   -12000.00
02410              26.00   -12000.00
02411              22.00   -11800.00
02412              26.00   -12000.00
02413              26.00   -11600.00
02414              20.00   -11600.00
02415              20.00   -11600.00
02416              28.00   -11600.00
02417              30.00   -11600.00
02418              26.00   -11600.00
02419              20.00   -11600.00
02420              20.00   -11400.00
02421              20.00   -11400.00
02422              30.00   -11200.00
02423              28.00   -11000.00
02424              26.00   -11200.00
02425              22.00   -11000.00
02426              20.00   -11000.00
02427              22.00   -10800.00
02428              22.00   -10800.00
02429              22.00   -10800.00
02430              26.00   -10800.00
02431              26.00   -10600.00
02432              20.00   -10600.00
02433              20.00   -10600.00
02434              20.00   -10200.00
02435              22.00   -10200.00
02436              26.00   -10000.00
02437              26.00   -10000.00
02438              22.00   -10000.00
02439              20.00    -9800.00
02440              22.00    -9600.00
02441              22.00    -9600.00
02442              20.00    -9400.00
02443              20.00    -9600.00
02444              26.00    -9200.00
02445              22.00    -9200.00
02446              20.00    -9000.00
02447              14.00    -8800.00
02448              14.00    -8800.00
02449              24.00    -8400.00
02450              28.00    -8400.00
02451              20.00    -8200.00
02452              16.00    -8200.00
02453              14.00    -8000.00
02454              20.00    -8000.00
02455              20.00    -7800.00
02456              18.00    -7400.00
02457              18.00    -7600.00
02458              20.00    -7200.00
02459              18.00    -7200.00
02460              12.00    -7000.00
02461              12.00    -6800.00
02462              14.00    -6600.00
02463              18.00    -6400.00
02464              18.00    -6400.00
02465              10.00    -6200.00
02466              12.00    -6000.00
02467              12.00    -6000.00
02468              12.00    -5800.00
02469              18.00    -5600.00
02470              14.00    -5400.00
02471              10.00    -5000.00
02472               6.00    -5000.00
02473               6.00    -4600.00
02474              12.00    -4600.00
02475              14.00    -4400.00
02476              12.00    -4200.00
02477               8.00    -4200.00
02478               4.00    -4000.00
02479              10.00    -3600.00
02480               6.00    -3600.00
02481               6.00    -3400.00
02482               4.00    -3200.00
02483               4.00    -2800.00
02484               8.00    -2800.00
02485               6.00    -2600.00
02486               4.00    -2400.00
02487               4.00    -2200.00
02488               4.00    -2000.00
02489               4.00    -1800.00
02490               6.00    -1600.00
02491               2.00    -1400.00
02492               2.00    -1200.00
02493               4.00    -1000.00
02494               4.00     -800.00
02495               0.00     -600.00
02496               2.00     -400.00
02497               4.00     -200.00
02498               4.00        0.00
02499               4.00        0.00
02500               6.00      200.00
02501              28.00      400.00
02502              28.00      600.00
02503             -12.00      800.00
02504             -22.00      800.00
02505              12.00     1200.00
02506              30.00     1400.00
02507              36.00     1400.00
02508             160.00     2000.00
02509             250.00     2200.00
02510            -236.00     2400.00
02511            -250.00     2400.00
02512             -86.00     2600.00
02513             250.00     2800.00
02514             228.00     3000.00
02515             220.00     3200.00
02516            -250.00     3200.00
02517            -250.00     3600.00
02518             250.00     3600.00
02519             234.00     3600.00
02520            -250.00     4200.00
02521            -178.00     4000.00
02522             106.00     4600.00
02523             250.00     4600.00
02524              70.00     4600.00
02525            -250.00     5200.00
02526            -192.00     4800.00
02527             250.00     5400.00
02528             250.00     5600.00
02529            -134.00     5400.00
02530            -250.00     6200.00
02531             -18.00     6000.00
02532             198.00     6200.00
02533              84.00     6400.00
02534            -212.00     6400.00
02535            -138.00     6800.00
02536             160.00     6800.00
02537             124.00     7000.00
02538            -124.00     7000.00
02539            -170.00     7400.00
02540             -30.00     7600.00
02541             178.00     7400.00
02542              68.00     8000.00
02543            -182.00     8000.00
02544            -104.00     8200.00
02545              58.00     8400.00
02546              82.00     8400.00
02547             -30.00     8400.00
02548            -120.00     8600.00
02549             -42.00     8600.00
02550              82.00     8800.00
02551              18.00     9200.00
02552            -100.00     9200.00
02553             -70.00     9200.00
02554              14.00     9400.00
02555              44.00     9600.00
02556             -20.00     9600.00
02557             -84.00     9800.00
02558             -46.00     9800.00
02559              20.00    10000.00
02560               2.00    10000.00
02561             -44.00    10200.00
02562             -44.00    10200.00
02563             -14.00    10200.00
02564               6.00    10400.00
02565             -28.00    10800.00
02566             -54.00    10600.00
02567             -30.00    10600.00
02568              -2.00    10800.00
02569              -6.00    10800.00
02570             -28.00    11000.00
02571             -46.00    11000.00
02572             -30.00    11200.00
02573             -14.00    11200.00
02574             -26.00    11200.00
02575             -28.00    11200.00
02576             -22.00    11600.00
02577             -20.00    11600.00
02578             -30.00    11600.00
02579             -34.00    11600.00
02580             -36.00    11600.00
02581             -22.00    11600.00
02582             -14.00    11600.00
02583             -24.00    11800.00
02584             -36.00    11800.00
02585             -34.00    11800.00
02586             -32.00    11800.00
02587             -22.00    11800.00
02588             -20.00    12000.00
02589             -26.00    12000.00
02590             -28.00    12000.00
02591             -30.00    12000.00
02592             -34.00    12000.00
02593             -34.00    12000.00
02594             -30.00    12000.00
02595             -22.00    11800.00
02596             -24.00    12000.00
02597             -30.00    12000.00
02598             -38.00    11800.00
02599             -38.00    11800.00
02600             -34.00    11800.00
02601             -26.00    12000.00
02602             -26.00    12000.00
02603             -28.00    11800.00
02604             -34.00    11600.00
02605             -34.00    11600.00
02606             -34.00    11800.00
02607             -28.00    11600.00
02608             -28.00    11600.00
02609             -30.00    11600.00
02610             -28.00    11600.00
02611             -30.00    11600.00
02612             -36.00    11400.00
02613             -38.00    11400.00
02614             -36.00    11200.00
02615             -22.00    11000.00
02616             -22.00    11200.00
02617             -30.00    11000.00
02618             -34.00    11200.00
02619             -36.00    11000.00
02620             -34.00    10800.00
02621             -22.00    10800.00
02622             -22.00    10800.00
02623             -26.00    10800.00
02624             -28.00    10400.00
02625             -34.00    10400.00
02626             -36.00    10400.00
02627             -28.00    10200.00
02628             -22.00    10000.00
02629             -22.00    10000.00
02630             -28.00    10000.00
02631             -34.00     9800.00
02632             -30.00     9800.00
02633             -26.00     9600.00
02634             -28.00     9400.00
02635             -22.00     9400.00
02636             -22.00     9200.00
02637             -22.00     9200.00
02638             -30.00     8800.00
02639             -34.00     8800.00
02640             -26.00     8600.00
02641             -18.00     8600.00
02642             -18.00     8600.00
02643             -28.00     8400.00
02644             -28.00     8200.00
02645             -30.00     8000.00
02646             -22.00     7800.00
02647             -20.00     7800.00
02648             -22.00     7600.00
02649             -20.00     7400.00
02650             -22.00     7200.00
02651             -26.00     7200.00
02652             -22.00     7000.00
02653             -22.00     6800.00
02654             -20.00     6800.00
02655             -20.00     6600.00
02656             -20.00     6400.00
02657             -22.00     6200.00
02658             -22.00     6000.00
02659             -26.00     6000.00
02660             -22.00     5600.00
02661             -20.00     5600.00
02662             -14.00     5200.00
02663             -20.00     5200.00
02664             -22.00     4800.00
02665             -22.00     4600.00
02666             -14.00     4600.00
02667             -14.00     4400.00
02668             -20.00     4400.00
02669             -18.00     4000.00
02670             -20.00     3800.00
02671             -14.00     3600.00
02672             -14.00     3600.00
02673             -20.00     3200.00
02674             -18.00     3000.00
02675             -12.00     3000.00
02676             -12.00     2800.00
02677             -12.00     2400.00
02678             -18.00     2400.00
02679             -14.00     2200.00
02680             -12.00     2000.00
02681             -12.00     1600.00
02682             -10.00     1600.00
02683             -10.00     1400.00
02684             -12.00     1200.00
02685             -10.00     1000.00
02686              -6.00      800.00
02687             -10.00      800.00
02688             -12.00      400.00
02689             -12.00      400.00
02690              -6.00        0.00
02691               2.00     -200.00
02692               2.00     -200.00
02693              22.00     -600.00
02694              12.00     -400.00
02695             -22.00     -800.00
02696             -22.00    -1000.00
02697              12.00    -1200.00
02698              26.00    -1400.00
02699             132.00    -1600.00
02700             250.00    -2000.00
02701            -142.00    -2400.00
02702            -250.00    -2400.00
02703            -226.00    -2600.00
02704             250.00    -2600.00
02705             250.00    -2200.00
02706             250.00    -3400.00
02707            -250.00    -3000.00
02708            -154.00    -3000.00
02709             250.00    -4400.00
02710             -18.00    -3000.00
02711            -246.00    -4200.00
02712            -250.00    -4400.00
02713              76.00    -3200.00
02714             250.00    -5200.00
02715            -238.00    -4200.00
02716            -250.00    -4800.00
02717             -90.00    -5800.00
02718             146.00    -4000.00
02719             250.00    -6000.00
02720            -250.00    -5200.00
02721            -250.00    -5200.00
02722              78.00    -6600.00
02723             204.00    -5200.00
02724             162.00    -6800.00
02725            -250.00    -6200.00
02726             -44.00    -6400.00
02727             220.00    -7200.00
02728              98.00    -6200.00
02729             -54.00    -7600.00
02730            -220.00    -6800.00
02731              42.00    -7400.00
02732             250.00    -7600.00
02733              30.00    -7400.00
02734            -142.00    -8200.00
02735             -86.00    -7800.00
02736              92.00    -8200.00
02737             152.00    -8200.00
02738             -38.00    -8400.00
02739             -92.00    -8600.00
02740              -6.00    -8600.00
02741             124.00    -8800.00
02742              62.00    -9000.00
02743             -70.00    -9000.00
02744             -34.00    -9200.00
02745              42.00    -9200.00
02746              90.00    -9200.00
02747              14.00    -9600.00
02748             -44.00    -9600.00
02749              -6.00    -9800.00
02750              60.00   -10000.00
02751              38.00    -9800.00
02752              10.00   -10000.00
02753              -4.00   -10200.00
02754              18.00   -10400.00
02755              46.00   -10400.00
02756              14.00   -10600.00
02757               4.00   -10600.00
02758              10.00   -10800.00
02759              30.00   -10800.00
02760              36.00   -10800.00
02761              18.00   -10800.00
02762               8.00   -11000.00
02763              20.00   -11000.00
02764              30.00   -11200.00
02765              26.00   -11200.00
02766              18.00   -11000.00
02767              20.00   -11200.00
02768              28.00   -11400.00
02769              22.00   -11400.00
02770              22.00   -11600.00
02771              18.00   -11400.00
02772              20.00   -11600.00
02773              34.00   -11600.00
02774              26.00   -11600.00
02775              20.00   -11600.00
02776              18.00   -12000.00
02777              22.00   -11800.00
02778              28.00   -12000.00
02779              26.00   -11800.00
02780              24.00   -12000.00
02781              22.00   -12000.00
02782              28.00   -11800.00
02783              26.00   -12000.00
02784              20.00   -12000.00
02785              22.00   -12000.00
02786              24.00   -12000.00
02787              30.00   -12000.00
02788              26.00   -12000.00
02789              20.00   -12000.00
02790              20.00   -12000.00
02791              20.00   -12000.00
02792              26.00   -11800.00
02793              28.00   -12000.00
02794              28.00   -11800.00
02795              26.00   -11800.00
02796              22.00   -11600.00
02797              18.00   -12000.00
02798              20.00   -11600.00
02799              28.00   -11600.00
02800              28.00   -11800.00
02801              24.00   -11600.00
02802              20.00   -11400.00
02803              20.00   -11400.00
02804              22.00   -11200.00
02805              26.00   -11400.00
02806              26.00   -11400.00
02807              26.00   -11200.00
02808              26.00   -11000.00
02809              20.00   -11000.00
02810              22.00   -10800.00
02811              20.00   -11000.00
02812              22.00   -10800.00
02813              28.00   -10800.00
02814              26.00   -10600.00
02815              24.00   -10400.00
02816              20.00   -10400.00
02817              20.00   -10400.00
02818              24.00   -10200.00
02819              24.00   -10000.00
02820              22.00   -10000.00
02821              22.00    -9800.00
02822              20.00   -10000.00
02823              20.00    -9800.00
02824              20.00    -9600.00
02825              22.00    -9600.00
02826              22.00    -9400.00
02827              26.00    -9200.00
02828              22.00    -9200.00
02829              20.00    -9000.00
02830              20.00    -9000.00
02831              18.00    -8800.00
02832              20.00    -8600.00
02833              20.00    -8400.00
02834              20.00    -8400.00
02835              18.00    -8200.00
02836              18.00    -8200.00
02837              18.00    -8000.00
02838              18.00    -8000.00
02839              20.00    -7600.00
02840              18.00    -7600.00
02841              20.00    -7400.00
02842              18.00    -7200.00
02843              14.00    -7000.00
02844              12.00    -6800.00
02845              18.00    -6800.00
02846              14.00    -6600.00
02847              20.00    -6400.00
02848              14.00    -6200.00
02849              14.00    -6000.00
02850              12.00    -6000.00
02851              12.00    -5600.00
02852              14.00    -5600.00
02853              18.00    -5200.00
02854              12.00    -5200.00
02855              10.00    -5200.00
02856               8.00    -4800.00
02857              12.00    -4600.00
02858              14.00    -4600.00
02859              12.00    -4200.00
02860              10.00    -4200.00
02861               6.00    -4000.00
02862              10.00    -3600.00
02863              12.00    -3600.00
02864               6.00    -3400.00
02865               6.00    -3200.00
02866               6.00    -3200.00
02867              10.00    -2800.00
02868              10.00    -2800.00
02869               4.00    -2400.00
02870               4.00    -2400.00
02871               4.00    -2000.00
02872               6.00    -2000.00
02873               6.00    -1600.00
02874               4.00    -1600.00
02875               4.00    -1400.00
02876               4.00    -1200.00
02877               2.00    -1000.00
02878               2.00     -800.00
02879               2.00     -600.00
02880               4.00     -200.00
02881               4.00        0.00
02882               4.00        0.00
02883               4.00        0.00
02884              18.00      400.00
02885              36.00      400.00
02886               6.00      600.00
02887             -24.00      800.00
02888              -6.00     1200.00
02889              24.00     1200.00
02890              30.00     1400.00
02891              76.00     1800.00
02892             250.00     2000.00
02893              54.00     2400.00
02894            -250.00     2200.00
02895            -250.00     2600.00
02896             238.00     2400.00
02897             250.00     2800.00
02898             250.00     3200.00
02899             -72.00     3200.00
02900            -250.00     3200.00
02901             196.00     3800.00
02902             250.00     3600.00
02903            -240.00     4000.00
02904            -250.00     4200.00
02905             -18.00     4000.00
02906             228.00     4600.00
02907             250.00     4400.00
02908            -236.00     4800.00
02909            -250.00     5000.00
02910              76.00     4800.00
02911             250.00     5800.00
02912              58.00     5400.00
02913            -250.00     5800.00
02914            -158.00     6000.00
02915             130.00     6000.00
02916             186.00     6600.00
02917             -90.00     6400.00
02918            -236.00     6800.00
02919              36.00     6800.00
02920             202.00     6800.00
02921             -22.00     7200.00
02922            -180.00     7000.00
02923            -118.00     7600.00
02924             100.00     7600.00
02925             170.00     7800.00
02926             -92.00     8000.00
02927            -180.00     8000.00
02928              -4.00     8200.00
02929              90.00     8200.00
02930              28.00     8400.00
02931             -98.00     8800.00
02932             -98.00     8600.00
02933              44.00     8800.00
02934              74.00     9000.00
02935             -60.00     9200.00
02936            -106.00     9200.00
02937             -22.00     9200.00
02938              44.00     9200.00
02939              20.00     9600.00
02940             -60.00     9600.00
02941             -78.00     9600.00
02942             -10.00    10000.00
02943              22.00    10000.00
02944             -26.00    10000.00
02945             -46.00    10200.00
02946             -30.00    10400.00
02947              -4.00    10400.00
02948              -6.00    10600.00
02949             -44.00    10400.00
02950             -44.00    10800.00
02951             -14.00    10800.00
02952              -6.00    10800.00
02953             -18.00    10800.00
02954             -38.00    11200.00
02955             -42.00    11200.00
02956             -22.00    11200.00
02957             -14.00    11400.00
02958             -24.00    11200.00
02959             -26.00    11400.00
02960             -22.00    11600.00
02961             -28.00    11600.00
02962             -34.00    11400.00
02963             -34.00    11600.00
02964             -28.00    11600.00
02965             -20.00    11800.00
02966             -18.00    11800.00
02967             -32.00    11800.00
02968             -34.00    11800.00
02969             -32.00    11800.00
02970             -28.00    12000.00
02971             -22.00    11800.00
02972             -28.00    11800.00
02973             -30.00    12000.00
02974             -24.00    12000.00
02975             -28.00    12000.00
02976             -34.00    12000.00
02977             -34.00    12000.00
02978             -28.00    11800.00
02979             -20.00    12000.00
02980             -22.00    12000.00
02981             -34.00    12000.00
02982             -38.00    11800.00
02983             -36.00    11800.00
02984             -28.00    11800.00
02985             -22.00    11800.00
02986             -28.00    11800.00
02987             -32.00    11800.00
02988             -34.00    11800.00
02989             -34.00    11800.00
02990             -34.00    11600.00
02991             -30.00    11800.00
02992             -28.00    11600.00
02993             -28.00    11400.00
02994             -28.00    11400.00
02995             -34.00    11400.00
02996             -38.00    11200.00
02997             -36.00    11200.00
02998             -28.00    11200.00
02999             -20.00    11200.00
03000             -30.00    11200.00
03001             -36.00    11000.00
03002             -36.00    11000.00
03003             -34.00    10800.00
03004             -28.00    10800.00
03005             -30.00    10800.00
03006             -30.00    10800.00
03007             -26.00    10600.00
03008             -28.00    10400.00
03009             -36.00    10400.00
03010             -38.00    10200.00
03011             -30.00    10200.00
03012             -22.00    10000.00
03013             -22.00    10000.00
03014             -28.00    10000.00
03015             -36.00     9800.00
03016             -30.00     9600.00
03017             -32.00     9600.00
03018             -26.00     9400.00
03019             -22.00     9200.00
03020             -22.00     9200.00
03021             -28.00     9200.00
03022             -34.00     8800.00
03023             -30.00     8800.00
03024             -22.00     8600.00
03025             -18.00     8600.00
03026             -22.00     8400.00
03027             -28.00     8400.00
03028             -28.00     8000.00
03029             -28.00     8000.00
03030             -26.00     7800.00
03031             -22.00     7600.00
03032             -22.00     7600.00
03033             -20.00     7200.00
03034             -24.00     7200.00
03035             -22.00     7000.00
03036             -22.00     6800.00
03037             -22.00     6600.00
03038             -22.00     6400.00
03039             -22.00     6400.00
03040             -22.00     6400.00
03041             -18.00     6200.00
03042             -10.00     6000.00
03043             -12.00     5600.00
03044             -28.00     5600.00
03045             -36.00     5400.00
03046             -28.00     5200.00
03047              -2.00     5200.00
03048               4.00     4800.00
03049             -20.00     4600.00
03050             -42.00     4600.00
03051             -36.00     4200.00
03052             -12.00     4000.00
03053               0.00     4000.00
03054              -8.00     4000.00
03055             -22.00     3600.00
03056             -20.00     3400.00
03057             -14.00     3200.00
03058             -18.00     3000.00
03059             -24.00     3000.00
03060             -18.00     2800.00
03061               4.00     2400.00
03062              10.00     2400.00
03063             -12.00     2000.00
03064             -42.00     2000.00
03065             -36.00     1800.00
03066               0.00     1600.00
03067              20.00     1400.00
03068               4.00     1200.00
03069             -24.00      800.00
03070             -28.00      800.00
03071             -12.00      400.00
03072              -2.00      400.00
03073               2.00        0.00
03074               0.00     -200.00
03075               0.00     -200.00
03076              16.00     -400.00
03077              22.00     -800.00
03078             -18.00     -800.00
03079             -34.00     -800.00
03080               2.00    -1000.00
03081              34.00    -1400.00
03082              52.00    -1400.00
03083             250.00    -1800.00
03084             164.00    -2200.00
03085            -250.00    -2400.00
03086            -250.00    -2400.00
03087             106.00    -2800.00
03088             250.00    -2200.00
03089             250.00    -2800.00
03090            -250.00    -3400.00
03091            -250.00    -2600.00
03092             250.00    -4000.00
03093             250.00    -3600.00
03094            -250.00    -3200.00
03095            -250.00    -4800.00
03096            -250.00    -3600.00
03097             250.00    -4400.00
03098             250.00    -5200.00
03099            -250.00    -4000.00
03100            -134.00    -5800.00
03101             -46.00    -4600.00
03102             250.00    -4800.00
03103             142.00    -6200.00
03104            -250.00    -4800.00
03105             -28.00    -6400.00
03106             128.00    -5800.00
03107             250.00    -5800.00
03108            -132.00    -6800.00
03109            -250.00    -5600.00
03110             180.00    -7200.00
03111             162.00    -6400.00
03112              28.00    -7200.00
03113            -178.00    -7400.00
03114            -122.00    -6800.00
03115             218.00    -7800.00
03116             164.00    -7400.00
03117             -98.00    -8000.00
03118            -130.00    -8200.00
03119               0.00    -8000.00
03120             162.00    -8400.00
03121              58.00    -8200.00
03122             -92.00    -8400.00
03123             -52.00    -8800.00
03124              70.00    -8800.00
03125             120.00    -9000.00
03126             -34.00    -9200.00
03127             -66.00    -9200.00
03128               6.00    -9400.00
03129              84.00    -9400.00
03130              62.00    -9200.00
03131             -30.00    -9600.00
03132             -38.00    -9800.00
03133              30.00    -9800.00
03134              58.00   -10000.00
03135              20.00   -10000.00
03136               4.00   -10200.00
03137              -6.00   -10000.00
03138              38.00   -10400.00
03139              34.00   -10400.00
03140               2.00   -10800.00
03141               4.00   -10600.00
03142              20.00   -10600.00
03143              36.00   -10800.00
03144              30.00   -10800.00
03145              10.00   -10800.00
03146              10.00   -11200.00
03147              26.00   -11000.00
03148              26.00   -11200.00
03149              24.00   -11200.00
03150              18.00   -11200.00
03151              26.00   -11200.00
03152              26.00   -11400.00
03153              20.00   -11600.00
03154              18.00   -11600.00
03155              12.00   -11600.00
03156              28.00   -11600.00
03157              34.00   -11800.00
03158              26.00   -11800.00
03159              20.00   -11800.00
03160              14.00   -12000.00
03161              26.00   -11800.00
03162              30.00   -11800.00
03163              26.00   -11800.00
03164              26.00   -11800.00
03165              22.00   -12000.00
03166              26.00   -12000.00
03167              22.00   -12000.00
03168              22.00   -12000.00
03169              24.00   -12000.00
03170              28.00   -12000.00
03171              34.00   -12000.00
03172              26.00   -12000.00
03173              20.00   -12000.00
03174              18.00   -12000.00
03175              26.00   -11800.00
03176              34.00   -12000.00
03177              28.00   -12000.00
03178              26.00   -11800.00
03179              24.00   -11800.00
03180              20.00   -11800.00
03181              20.00   -11600.00
03182              28.00   -11600.00
03183              28.00   -11600.00
03184              26.00   -11400.00
03185              24.00   -11600.00
03186              22.00   -11600.00
03187              20.00   -11400.00
03188              22.00   -11400.00
03189              28.00   -11200.00
03190              26.00   -11000.00
03191              26.00   -11200.00
03192              22.00   -11000.00
03193              20.00   -11000.00
03194              22.00   -11000.00
03195              22.00   -10800.00
03196              26.00   -10800.00
03197              26.00   -10800.00
03198              22.00   -10800.00
03199              20.00   -10600.00
03200              18.00   -10600.00
03201              20.00   -10400.00
03202              22.00   -10400.00
03203              26.00   -10000.00
03204              22.00   -10000.00
03205              20.00   -10000.00
03206              20.00   -10000.00
03207              26.00    -9800.00
03208              22.00    -9600.00
03209              22.00    -9600.00
03210              18.00    -9200.00
03211              22.00    -9200.00
03212              22.00    -9200.00
03213              18.00    -9200.00
03214              18.00    -8800.00
03215              18.00    -8800.00
03216              20.00    -8600.00
03217              22.00    -8400.00
03218              20.00    -8200.00
03219              20.00    -8200.00
03220              18.00    -8200.00
03221              20.00    -7800.00
03222              20.00    -7600.00
03223              18.00    -7600.00
03224              18.00    -7400.00
03225              20.00    -7200.00
03226              20.00    -7200.00
03227              14.00    -7000.00
03228              14.00    -6800.00
03229              14.00    -6800.00
03230              18.00    -6600.00
03231              20.00    -6400.00
03232              10.00    -6200.00
03233              14.00    -6000.00
03234              14.00    -5800.00
03235              14.00    -5800.00
03236              14.00    -5600.00
03237              12.00    -5200.00
03238              16.00    -5200.00
03239              14.00    -5000.00
03240              12.00    -4600.00
03241              14.00    -4600.00
03242               6.00    -4400.00
03243              12.00    -4200.00
03244              14.00    -4000.00
03245              12.00    -4000.00
03246              10.00    -3800.00
03247               4.00    -3600.00
03248               2.00    -3400.00
03249              10.00    -3200.00
03250              14.00    -2800.00
03251              10.00    -2600.00
03252               6.00    -2600.00
03253               4.00    -2400.00
03254               4.00    -2400.00
03255               4.00    -2000.00
03256               6.00    -2000.00
03257               4.00    -1600.00
03258               4.00    -1600.00
03259               6.00    -1200.00
03260               2.00    -1000.00
03261              -6.00    -1000.00
03262              -2.00     -600.00
03263               4.00     -400.00
03264              10.00     -400.00
03265              10.00        0.00
03266               0.00        0.00
03267              -2.00        0.00
03268              28.00      400.00
03269              26.00      800.00
03270             -14.00      800.00
03271             -20.00     1000.00
03272              12.00     1200.00
03273              28.00     1400.00
03274              38.00     1600.00
03275             178.00     2000.00
03276             246.00     2200.00
03277            -250.00     2400.00
03278            -250.00     2400.00
03279             -36.00     2400.00
03280             250.00     2600.00
03281             228.00     3000.00
03282             198.00     3200.00
03283            -250.00     3000.00
03284            -250.00     3600.00
03285             250.00     3600.00
03286             164.00     3600.00
03287            -250.00     4400.00
03288            -152.00     4000.00
03289             124.00     4400.00
03290             250.00     4600.00
03291              28.00     4600.00
03292            -250.00     5200.00
03293            -158.00     4800.00
03294             250.00     5400.00
03295             242.00     5600.00
03296            -156.00     5400.00
03297            -250.00     6200.00
03298               4.00     5800.00
03299             202.00     6200.00
03300              60.00     6400.00
03301            -220.00     6400.00
03302            -110.00     6800.00
03303             180.00     6800.00
03304             106.00     7000.00
03305            -140.00     7200.00
03306            -166.00     7200.00
03307             -12.00     7600.00
03308             186.00     7600.00
03309              50.00     7800.00
03310            -190.00     7800.00
03311             -94.00     8200.00
03312              60.00     8400.00
03313              74.00     8400.00
03314             -40.00     8600.00
03315            -118.00     8600.00
03316             -30.00     8800.00
03317              86.00     8800.00
03318               6.00     8800.00
03319            -106.00     9200.00
03320             -70.00     9400.00
03321              22.00     9400.00
03322              46.00     9400.00
03323             -22.00     9600.00
03324             -86.00     9800.00
03325             -50.00    10000.00
03326              20.00    10000.00
03327               2.00    10000.00
03328             -44.00    10000.00
03329             -44.00    10400.00
03330             -18.00    10200.00
03331               2.00    10400.00
03332             -30.00    10800.00
03333             -54.00    10600.00
03334             -28.00    10800.00
03335              -6.00    10800.00
03336             -10.00    10800.00
03337             -30.00    11000.00
03338             -46.00    11000.00
03339             -30.00    11000.00
03340             -14.00    11200.00
03341             -26.00    11000.00
03342             -30.00    11200.00
03343             -24.00    11400.00
03344             -22.00    11400.00
03345             -30.00    11600.00
03346             -38.00    11800.00
03347             -34.00    11600.00
03348             -22.00    11600.00
03349             -14.00    11800.00
03350             -24.00    11800.00
03351             -36.00    11800.00
03352             -36.00    11800.00
03353             -30.00    11800.00
03354             -26.00    12000.00
03355             -22.00    12000.00
03356             -26.00    12000.00
03357             -28.00    12000.00
03358             -30.00    11800.00
03359             -34.00    12000.00
03360             -34.00    12000.00
03361             -28.00    11800.00
03362             -22.00    12000.00
03363             -22.00    12000.00
03364             -28.00    11800.00
03365             -36.00    12000.00
03366             -38.00    11800.00
03367             -34.00    12000.00
03368             -22.00    11800.00
03369             -24.00    11800.00
03370             -28.00    11800.00
03371             -30.00    11800.00
03372             -34.00    11800.00
03373             -36.00    11800.00
03374             -30.00    11600.00
03375             -28.00    11600.00
03376             -26.00    11600.00
03377             -28.00    11600.00
03378             -34.00    11400.00
03379             -38.00    11600.00
03380             -34.00    11200.00
03381             -28.00    11200.00
03382             -22.00    11200.00
03383             -28.00    11200.00
03384             -30.00    11000.00
03385             -36.00    11000.00
03386             -36.00    11000.00
03387             -32.00    10800.00
03388             -24.00    10800.00
03389             -28.00    10800.00
03390             -28.00    10600.00
03391             -30.00    10600.00
03392             -34.00    10400.00
03393             -30.00    10200.00
03394             -28.00    10200.00
03395             -26.00    10000.00
03396             -26.00    10000.00
03397             -28.00     9800.00
03398             -34.00     9600.00
03399             -32.00     9600.00
03400             -30.00     9600.00
03401             -28.00     9400.00
03402             -26.00     9400.00
03403             -20.00     9200.00
03404             -28.00     9200.00
03405             -30.00     8800.00
03406             -30.00     8800.00
03407             -28.00     8800.00
03408             -22.00     8600.00
03409             -22.00     8400.00
03410             -22.00     8400.00
03411             -24.00     8200.00
03412             -28.00     8000.00
03413             -28.00     7800.00
03414             -22.00     7600.00
03415             -20.00     7600.00
03416             -20.00     7400.00
03417             -22.00     7200.00
03418             -22.00     7000.00
03419             -26.00     7000.00
03420             -22.00     6800.00
03421             -20.00     6800.00
03422             -20.00     6400.00
03423             -18.00     6200.00
03424             -20.00     6200.00
03425             -22.00     6000.00
03426             -22.00     5800.00
03427             -22.00     5800.00
03428             -16.00     5400.00
03429             -14.00     5400.00
03430             -14.00     5200.00
03431             -20.00     5000.00
03432             -20.00     4800.00
03433             -22.00     4600.00
03434             -18.00     4400.00
03435             -12.00     4200.00
03436             -14.00     4000.00
03437             -14.00     3800.00
03438             -20.00     3600.00
03439             -20.00     3600.00
03440             -18.00     3200.00
03441             -14.00     3000.00
03442             -12.00     2800.00
03443             -10.00     2800.00
03444             -12.00     2400.00
03445             -14.00     2400.00
03446             -14.00     2200.00
03447             -12.00     2000.00
03448             -12.00     1800.00
03449             -10.00     1600.00
03450             -10.00     1400.00
03451             -12.00     1200.00
03452             -12.00      800.00
03453             -12.00      800.00
03454             -10.00      600.00
03455              -6.00      400.00
03456              -6.00      400.00
03457              -4.00        0.00
03458              -4.00     -200.00
03459              -2.00     -200.00
03460              24.00     -400.00
03461              12.00     -800.00
03462             -26.00    -1000.00
03463             -26.00    -1000.00
03464              14.00    -1400.00
03465              26.00    -1200.00
03466             150.00    -1600.00
03467             250.00    -2000.00
03468            -196.00    -2400.00
03469            -250.00    -2400.00
03470            -180.00    -2600.00
03471             250.00    -2400.00
03472             250.00    -2400.00
03473             222.00    -3400.00
03474            -250.00    -3000.00
03475             -32.00    -3200.00
03476             250.00    -4400.00
03477             -84.00    -3000.00
03478            -244.00    -4200.00
03479            -250.00    -4200.00
03480             156.00    -3200.00
03481             250.00    -5200.00
03482            -250.00    -4000.00
03483            -250.00    -4800.00
03484             -92.00    -5800.00
03485             194.00    -4000.00
03486             250.00    -6000.00
03487            -250.00    -5200.00
03488            -234.00    -5400.00
03489              86.00    -6600.00
03490             220.00    -5200.00
03491             134.00    -6800.00
03492            -250.00    -6000.00
03493             -18.00    -6400.00
03494             222.00    -7000.00
03495              68.00    -6400.00
03496             -94.00    -7600.00
03497            -196.00    -6800.00
03498              78.00    -7400.00
03499             250.00    -7800.00
03500              46.00    -7400.00
03501            -186.00    -8200.00
03502             -82.00    -7800.00
03503              90.00    -8200.00
03504             174.00    -8400.00
03505             -76.00    -8400.00
03506            -124.00    -8600.00
03507              22.00    -8800.00
03508             130.00    -8800.00
03509              76.00    -9000.00
03510             -58.00    -9000.00
03511             -18.00    -9200.00
03512              36.00    -9400.00
03513              42.00    -9400.00
03514             -12.00    -9600.00
03515             -18.00    -9800.00
03516               6.00    -9800.00
03517              54.00    -9800.00
03518              32.00    -9800.00
03519              18.00   -10000.00
03520              10.00   -10000.00
03521              18.00   -10400.00
03522              44.00   -10400.00
03523               2.00   -10600.00
03524              -8.00   -10600.00
03525              -6.00   -10600.00
03526              50.00   -10800.00
03527              44.00   -10800.00
03528              20.00   -10800.00
03529              -6.00   -10800.00
03530               4.00   -11200.00
03531              44.00   -11200.00
03532              40.00   -11200.00
03533              18.00   -11400.00
03534               2.00   -11400.00
03535              18.00   -11400.00
03536              20.00   -11400.00
03537              42.00   -11400.00
03538              26.00   -11400.00
03539              10.00   -11400.00
03540              20.00   -11600.00
03541              28.00   -11600.00
03542              32.00   -11800.00
03543              20.00   -11600.00
03544              18.00   -11800.00
03545              20.00   -11800.00
03546              26.00   -12000.00
03547              26.00   -11800.00
03548              30.00   -12000.00
03549              26.00   -12000.00
03550              14.00   -12000.00
03551              14.00   -12000.00
03552              28.00   -11800.00
03553              36.00   -12000.00
03554              36.00   -11800.00
03555              26.00   -11800.00
03556              14.00   -11800.00
03557              18.00   -12000.00
03558              22.00   -12000.00
03559              28.00   -12000.00
03560              30.00   -11800.00
03561              26.00   -12000.00
03562              20.00   -11600.00
03563              26.00   -11600.00
03564              30.00   -11600.00
03565              26.00   -11600.00
03566              26.00   -11600.00
03567              22.00   -11400.00
03568              22.00   -11600.00
03569              26.00   -11400.00
03570              20.00   -11400.00
03571              18.00   -11600.00
03572              26.00   -11400.00
03573              30.00   -11400.00
03574              30.00   -11000.00
03575              22.00   -10800.00
03576              18.00   -11000.00
03577              18.00   -11000.00
03578              20.00   -10800.00
03579              26.00   -10800.00
03580              24.00   -10800.00
03581              22.00   -10600.00
03582              22.00   -10400.00
03583              26.00   -10600.00
03584              20.00   -10400.00
03585              20.00   -10400.00
03586              22.00   -10200.00
03587              26.00   -10000.00
03588              22.00   -10000.00
03589              20.00    -9800.00
03590              18.00    -9800.00
03591              20.00    -9600.00
03592              20.00    -9600.00
03593              22.00    -9200.00
03594              20.00    -9200.00
03595              20.00    -9200.00
03596              20.00    -9200.00
03597              20.00    -9000.00
03598              20.00    -8800.00
03599              20.00    -8600.00
03600              20.00    -8600.00
03601              20.00    -8400.00
03602              14.00    -8200.00
03603              18.00    -8200.00
03604              16.00    -8000.00
03605              18.00    -8000.00
03606              20.00    -7600.00
03607              18.00    -7400.00
03608              18.00    -7200.00
03609              20.00    -7200.00
03610              18.00    -7000.00
03611              12.00    -6800.00
03612              12.00    -6800.00
03613              18.00    -6600.00
03614              18.00    -6400.00
03615              18.00    -6200.00
03616              12.00    -6000.00
03617              14.00    -5800.00
03618              14.00    -5800.00
03619              12.00    -5600.00
03620              14.00    -5400.00
03621              14.00    -5200.00
03622              14.00    -5000.00
03623              12.00    -4600.00
03624              10.00    -4800.00
03625              10.00    -4400.00
03626              12.00    -4200.00
03627              12.00    -4000.00
03628              12.00    -4000.00
03629              12.00    -3800.00
03630               6.00    -3600.00
03631               6.00    -3400.00
03632              10.00    -3400.00
03633               8.00    -3000.00
03634              10.00    -2800.00
03635              10.00    -2600.00
03636               6.00    -2600.00
03637               6.00    -2400.00
03638               4.00    -2200.00
03639               2.00    -2000.00
03640               4.00    -1800.00
03641               6.00    -1600.00
03642               4.00    -1400.00
03643               4.00    -1200.00
03644               0.00    -1000.00
03645               2.00     -800.00
03646               2.00     -600.00
03647               4.00     -400.00
03648               4.00     -400.00
03649               2.00        0.00
03650               4.00        0.00
03651              18.00      400.00
03652              34.00      600.00
03653               2.00      800.00
03654             -26.00      800.00
03655              -4.00     1200.00
03656              26.00     1400.00
03657              28.00     1400.00
03658              86.00     1800.00
03659             250.00     2000.00
03660              14.00     2200.00
03661            -250.00     2400.00
03662            -250.00     2400.00
03663             250.00     2400.00
03664             250.00     2800.00
03665             250.00     3200.00
03666            -126.00     3200.00
03667            -250.00     3200.00
03668             250.00     3800.00
03669             250.00     3600.00
03670            -250.00     4000.00
03671            -250.00     4000.00
03672              10.00     4000.00
03673             250.00     4600.00
03674             246.00     4400.00
03675            -250.00     5000.00
03676            -250.00     5000.00
03677             114.00     5000.00
03678             250.00     5800.00
03679              28.00     5200.00
03680            -250.00     6000.00
03681            -138.00     6000.00
03682             140.00     6000.00
03683             170.00     6600.00
03684            -110.00     6200.00
03685            -220.00     6600.00
03686              64.00     7000.00
03687             194.00     6800.00
03688             -44.00     7200.00
03689            -180.00     7200.00
03690            -108.00     7600.00
03691             118.00     7400.00
03692             162.00     7800.00
03693            -110.00     8000.00
03694            -172.00     7800.00
03695               2.00     8200.00
03696              88.00     8400.00
03697              22.00     8400.00
03698            -100.00     8600.00
03699             -92.00     8600.00
03700              50.00     8800.00
03701              66.00     9000.00
03702             -70.00     9200.00
03703            -102.00     9200.00
03704             -18.00     9400.00
03705              50.00     9400.00
03706              20.00     9600.00
03707             -68.00     9600.00
03708             -82.00     9600.00
03709              -4.00    10000.00
03710              20.00    10200.00
03711             -28.00    10000.00
03712             -46.00    10200.00
03713             -32.00    10200.00
03714              -2.00    10400.00
03715             -12.00    10400.00
03716             -52.00    10800.00
03717             -46.00    10600.00
03718             -12.00    10800.00
03719              -6.00    10800.00
03720             -20.00    10800.00
03721             -44.00    11000.00
03722             -44.00    11000.00
03723             -20.00    11000.00
03724             -14.00    11200.00
03725             -30.00    11200.00
03726             -26.00    11200.00
03727             -22.00    11400.00
03728             -28.00    11600.00
03729             -36.00    11600.00
03730             -38.00    11600.00
03731             -28.00    11600.00
03732             -18.00    11600.00
03733             -20.00    11800.00
03734             -32.00    11800.00
03735             -38.00    11800.00
03736             -34.00    11800.00
03737             -30.00    11800.00
03738             -22.00    12000.00
03739             -22.00    12000.00
03740             -28.00    12000.00
03741             -30.00    12000.00
03742             -34.00    12000.00
03743             -36.00    12000.00
03744             -30.00    12000.00
03745             -26.00    12000.00
03746             -22.00    12000.00
03747             -28.00    12000.00
03748             -34.00    12000.00
03749             -36.00    11800.00
03750             -30.00    11800.00
03751             -30.00    11800.00
03752             -22.00    11800.00
03753             -28.00    11800.00
03754             -28.00    11800.00
03755             -34.00    11800.00
03756             -34.00    11800.00
03757             -32.00    11600.00
03758             -26.00    11600.00
03759             -24.00    11600.00
03760             -26.00    11600.00
03761             -30.00    11600.00
03762             -34.00    11400.00
03763             -36.00    11200.00
03764             -28.00    11200.00
03765             -26.00    11200.00
03766             -28.00    11200.00
03767             -28.00    11000.00
03768             -30.00    11000.00
03769             -34.00    11000.00
03770             -34.00    10800.00
03771             -30.00    10800.00
03772             -28.00    10800.00
03773             -28.00    10600.00
03774             -28.00    10600.00
03775             -34.00    10400.00
03776             -32.00    10200.00
03777             -30.00    10200.00
03778             -28.00    10200.00
03779             -22.00    10000.00
03780             -26.00    10000.00
03781             -28.00     9800.00
03782             -32.00     9800.00
03783             -30.00     9400.00
03784             -28.00     9400.00
03785             -26.00     9400.00
03786             -24.00     9200.00
03787             -22.00     9200.00
03788             -28.00     9200.00
03789             -32.00     8800.00
03790             -30.00     8800.00
03791             -26.00     8600.00
03792             -22.00     8600.00
03793             -22.00     8400.00
03794             -24.00     8200.00
03795             -26.00     8200.00
03796             -28.00     8000.00
03797             -26.00     7800.00
03798             -22.00     7800.00
03799             -20.00     7400.00
03800             -22.00     7400.00
03801             -22.00     7000.00
03802             -24.00     7200.00
03803             -26.00     6800.00
03804             -22.00     6800.00
03805             -20.00     6400.00
03806             -18.00     6400.00
03807             -18.00     6000.00
03808             -20.00     6000.00
03809             -22.00     6000.00
03810             -22.00     5600.00
03811             -18.00     5600.00
03812             -14.00     5400.00
03813             -14.00     5200.00
03814             -18.00     5000.00
03815             -20.00     4800.00
03816             -20.00     4600.00
03817             -20.00     4400.00
03818             -14.00     4200.00
03819             -14.00     4200.00
03820             -14.00     4000.00
03821             -16.00     3600.00
03822             -16.00     3600.00
03823             -16.00     3600.00
03824             -14.00     3200.00
03825             -12.00     3000.00
03826             -10.00     2800.00
03827             -10.00     2800.00
03828             -12.00     2400.00
03829             -14.00     2200.00
03830             -14.00     2000.00
03831             -12.00     1800.00
03832             -10.00     1800.00
03833             -10.00     1400.00
03834             -12.00     1200.00
03835             -12.00     1200.00
03836             -14.00      800.00
03837             -12.00      800.00
03838             -10.00      400.00
03839              -6.00      400.00
03840              -6.00      200.00
03841              -6.00        0.00
03842              -6.00     -400.00
03843              14.00     -400.00
03844              26.00     -400.00
03845             -10.00     -800.00
03846             -34.00    -1000.00
03847              -4.00    -1000.00
03848              22.00    -1400.00
03849              58.00    -1600.00
03850             250.00    -1600.00
03851             130.00    -2200.00
03852            -250.00    -2600.00
03853            -250.00    -2400.00
03854             136.00    -2800.00
03855             250.00    -2400.00
03856             250.00    -2800.00
03857            -250.00    -3400.00
03858            -250.00    -2600.00
03859             250.00    -4000.00
03860             250.00    -3600.00
03861            -250.00    -3200.00
03862            -250.00    -4800.00
03863            -250.00    -3400.00
03864             250.00    -4600.00
03865             208.00    -5000.00
03866            -250.00    -4000.00
03867            -126.00    -5800.00
03868             -30.00    -4600.00
03869             250.00    -5000.00
03870              76.00    -6000.00
03871            -250.00    -4600.00
03872              -2.00    -6600.00
03873             136.00    -5600.00
03874             250.00    -6000.00
03875            -172.00    -6800.00
03876            -234.00    -5800.00
03877             196.00    -7200.00
03878             152.00    -6400.00
03879              16.00    -7200.00
03880            -194.00    -7400.00
03881            -100.00    -6800.00
03882             230.00    -7800.00
03883             146.00    -7200.00
03884            -106.00    -8000.00
03885            -126.00    -8000.00
03886              12.00    -8000.00
03887             168.00    -8400.00
03888              44.00    -8200.00
03889             -92.00    -8400.00
03890             -44.00    -8600.00
03891              78.00    -8800.00
03892             114.00    -9000.00
03893             -40.00    -9000.00
03894             -60.00    -9200.00
03895              14.00    -9200.00
03896              84.00    -9200.00
03897              54.00    -9400.00
03898             -32.00    -9600.00
03899             -36.00    -9600.00
03900              36.00   -10000.00
03901              56.00   -10000.00
03902              18.00   -10000.00
03903              -2.00   -10000.00
03904              -2.00   -10400.00
03905              42.00   -10400.00
03906              34.00   -10400.00
03907               2.00   -10600.00
03908               2.00   -10600.00
03909              20.00   -10800.00
03910              38.00   -10800.00
03911              26.00   -10800.00
03912               6.00   -10800.00
03913              10.00   -11000.00
03914              24.00   -11200.00
03915              26.00   -11200.00
03916              20.00   -11200.00
03917              18.00   -11000.00
03918              26.00   -11400.00
03919              22.00   -11400.00
03920              20.00   -11400.00
03921              20.00   -11600.00
03922              14.00   -11600.00
03923              30.00   -11600.00
03924              32.00   -11600.00
03925              22.00   -11600.00
03926              18.00   -11600.00
03927              14.00   -11800.00
03928              26.00   -12000.00
03929              28.00   -12000.00
03930              22.00   -11800.00
03931              22.00   -12000.00
03932              26.00   -12000.00
03933              26.00   -12000.00
03934              22.00   -12000.00
03935              22.00   -12000.00
03936              26.00   -12000.00
03937              28.00   -12000.00
03938              30.00   -12000.00
03939              26.00   -12000.00
03940              18.00   -12000.00
03941              22.00   -12000.00
03942              26.00   -11800.00
03943              28.00   -11800.00
03944              28.00   -11600.00
03945              24.00   -11600.00
03946              26.00   -11600.00
03947              24.00   -11600.00
03948              24.00   -11600.00
03949              26.00   -11600.00
03950              28.00   -11600.00
03951              28.00   -11600.00
03952              26.00   -11600.00
03953              22.00   -11400.00
03954              22.00   -11400.00
03955              22.00   -11400.00
03956              26.00   -11200.00
03957              28.00   -11000.00
03958              26.00   -11000.00
03959              22.00   -11000.00
03960              20.00   -11000.00
03961              20.00   -11000.00
03962              22.00   -11000.00
03963              26.00   -10800.00
03964              26.00   -10600.00
03965              24.00   -10600.00
03966              20.00   -10400.00
03967              22.00   -10400.00
03968              20.00   -10400.00
03969              22.00   -10400.00
03970              24.00   -10000.00
03971              22.00   -10000.00
03972              22.00    -9800.00
03973              20.00    -9800.00
03974              18.00    -9800.00
03975              20.00    -9600.00
03976              20.00    -9600.00
03977              22.00    -9600.00
03978              22.00    -9200.00
03979              20.00    -9200.00
03980              18.00    -8800.00
03981              18.00    -8800.00
03982              20.00    -8800.00
03983              20.00    -8800.00
03984              20.00    -8400.00
03985              20.00    -8400.00
03986              20.00    -8200.00
03987              14.00    -8000.00
03988              18.00    -8000.00
03989              18.00    -7800.00
03990              20.00    -7600.00
03991              18.00    -7400.00
03992              20.00    -7200.00
03993              14.00    -7200.00
03994              14.00    -6800.00
03995              12.00    -6800.00
03996              16.00    -6600.00
03997              18.00    -6600.00
03998              18.00    -6400.00
03999              14.00    -6200.00
04000              14.00    -6000.00
04001              14.00    -5800.00
04002              12.00    -5800.00
04003              14.00    -5600.00
04004              12.00    -5200.00
04005              14.00    -5000.00
04006              12.00    -5000.00
04007              10.00    -4600.00
04008              10.00    -4600.00
04009              12.00    -4400.00
04010              14.00    -4200.00
04011              12.00    -4000.00
04012              10.00    -4000.00
04013              10.00    -3600.00
04014               6.00    -3600.00
04015              10.00    -3200.00
04016              10.00    -3200.00
04017               6.00    -2800.00
04018              12.00    -2800.00
04019               6.00    -2600.00
04020               6.00    -2400.00
04021               4.00    -2200.00
04022               4.00    -2000.00
04023               6.00    -1600.00
04024              10.00    -1800.00
04025               6.00    -1400.00
04026               4.00    -1200.00
04027               2.00    -1000.00
04028               2.00    -1000.00
04029               2.00     -800.00
04030               4.00     -400.00
04031               2.00     -400.00
04032               4.00        0.00
04033               4.00        0.00
04034              10.00      200.00
04035              30.00      400.00
04036              20.00      600.00
04037             -20.00      600.00
04038             -20.00     1200.00
04039              14.00     1200.00
04040              28.00     1400.00
04041              38.00     1400.00
04042             194.00     2000.00
04043             228.00     2400.00
04044            -250.00     2200.00
04045            -250.00     2400.00
04046              12.00     2600.00
04047             250.00     2600.00
04048             234.00     3000.00
04049             166.00     3200.00
04050            -250.00     3000.00
04051            -232.00     3600.00
04052             250.00     3600.00
04053              94.00     3600.00
04054            -250.00     4200.00
04055            -132.00     4000.00
04056             146.00     4600.00
04057             250.00     4600.00
04058             -16.00     4600.00
04059            -250.00     5400.00
04060            -122.00     4800.00
04061             250.00     5600.00
04062             218.00     5600.00
04063            -180.00     5400.00
04064            -242.00     6200.00
04065              26.00     5800.00
04066             204.00     6200.00
04067              36.00     6400.00
04068            -228.00     6400.00
04069             -90.00     6800.00
04070             188.00     6800.00
04071              86.00     7200.00
04072            -148.00     7000.00
04073            -162.00     7400.00
04074               6.00     7600.00
04075             192.00     7600.00
04076              26.00     7800.00
04077            -192.00     8200.00
04078             -80.00     8000.00
04079              68.00     8400.00
04080              70.00     8400.00
04081             -48.00     8600.00
04082            -118.00     8600.00
04083             -20.00     8800.00
04084              90.00     8800.00
04085              -6.00     9000.00
04086            -108.00     9200.00
04087             -60.00     9200.00
04088              26.00     9400.00
04089              50.00     9600.00
04090             -28.00     9600.00
04091             -90.00     9600.00
04092             -40.00     9800.00
04093              26.00    10000.00
04094              -2.00    10000.00
04095             -44.00    10000.00
04096             -44.00    10200.00
04097             -14.00    10400.00
04098               2.00    10400.00
04099             -36.00    10600.00
04100             -54.00    10400.00
04101             -28.00    10800.00
04102              -6.00    10800.00
04103             -10.00    10800.00
04104             -32.00    11000.00
04105             -46.00    11200.00
04106             -30.00    11000.00
04107             -14.00    11200.00
04108             -22.00    11200.00
04109             -28.00    11200.00
04110             -26.00    11200.00
04111             -26.00    11600.00
04112             -34.00    11600.00
04113             -36.00    11600.00
04114             -34.00    11600.00
04115             -26.00    11600.00
04116             -14.00    11800.00
04117             -26.00    11800.00
04118             -36.00    11800.00
04119             -34.00    12000.00
04120             -30.00    11800.00
04121             -26.00    11800.00
04122             -22.00    11800.00
04123             -26.00    12000.00
04124             -30.00    11800.00
04125             -32.00    11800.00
04126             -36.00    12000.00
04127             -32.00    12000.00
04128             -26.00    12000.00
04129             -22.00    12000.00
04130             -22.00    11800.00
04131             -28.00    12000.00
04132             -36.00    11800.00
04133             -38.00    11800.00
04134             -32.00    11800.00
04135             -22.00    11800.00
04136             -24.00    11800.00
04137             -28.00    11800.00
04138             -32.00    11600.00
04139             -34.00    11800.00
04140             -34.00    11800.00
04141             -30.00    11600.00
04142             -26.00    11600.00
04143             -26.00    11400.00
04144             -26.00    11600.00
04145             -32.00    11600.00
04146             -36.00    11400.00
04147             -34.00    11200.00
04148             -24.00    11200.00
04149             -22.00    11200.00
04150             -26.00    11200.00
04151             -28.00    11000.00
04152             -30.00    11000.00
04153             -32.00    11000.00
04154             -30.00    10800.00
04155             -28.00    10800.00
04156             -26.00    10800.00
04157             -26.00    10800.00
04158             -30.00    10400.00
04159             -36.00    10400.00
04160             -34.00    10400.00
04161             -28.00    10200.00
04162             -24.00    10000.00
04163             -28.00    10000.00
04164             -28.00    10000.00
04165             -32.00    10000.00
04166             -30.00     9600.00
04167             -28.00     9400.00
04168             -28.00     9400.00
04169             -24.00     9200.00
04170             -24.00     9200.00
04171             -26.00     9200.00
04172             -30.00     9000.00
04173             -30.00     8600.00
04174             -28.00     8600.00
04175             -22.00     8400.00
04176             -22.00     8400.00
04177             -22.00     8400.00
04178             -28.00     8200.00
04179             -28.00     8000.00
04180             -26.00     7800.00
04181             -22.00     7800.00
04182             -22.00     7600.00
04183             -20.00     7200.00
04184             -22.00     7200.00
04185             -24.00     7000.00
04186             -26.00     7000.00
04187             -26.00     6800.00
04188             -22.00     6800.00
04189             -18.00     6400.00
04190             -18.00     6400.00
04191             -22.00     6000.00
04192             -22.00     6000.00
04193             -22.00     6000.00
04194             -20.00     5600.00
04195             -18.00     5600.00
04196             -12.00     5400.00
04197             -18.00     5200.00
04198             -20.00     4800.00
04199             -20.00     4800.00
04200             -20.00     4600.00
04201             -16.00     4400.00
04202             -14.00     4200.00
04203             -12.00     3800.00
04204             -14.00     3800.00
04205             -18.00     3600.00
04206             -18.00     3400.00
04207             -18.00     3200.00
04208             -14.00     3000.00
04209             -12.00     2800.00
04210             -10.00     2800.00
04211             -12.00     2400.00
04212             -14.00     2400.00
04213             -18.00     2200.00
04214             -12.00     2000.00
04215             -10.00     1800.00
04216              -6.00     1600.00
04217              -8.00     1400.00
04218             -10.00     1200.00
04219             -12.00      800.00
04220             -12.00      800.00
04221             -12.00      600.00
04222              -6.00      400.00
04223              -6.00      200.00
04224              -6.00        0.00
04225              -2.00     -200.00
04226               2.00     -400.00
04227              28.00     -400.00
04228               6.00     -800.00
04229             -28.00     -800.00
04230             -20.00    -1000.00
04231              14.00    -1200.00
04232              28.00    -1600.00
04233             170.00    -1600.00
04234             250.00    -2000.00
04235            -250.00    -2400.00
04236            -250.00    -2400.00
04237            -132.00    -2600.00
04238             250.00    -2400.00
04239             250.00    -2600.00
04240             124.00    -3400.00
04241            -250.00    -2800.00
04242              92.00    -3200.00
04243             250.00    -4400.00
04244            -142.00    -2800.00
04245            -238.00    -4400.00
04246            -250.00    -4200.00
04247             234.00    -3400.00
04248             250.00    -5600.00
04249            -250.00    -4000.00
04250            -250.00    -4800.00
04251             -92.00    -5600.00
04252             234.00    -4200.00
04253             250.00    -6200.00
04254            -250.00    -5000.00
04255            -202.00    -5600.00
04256              90.00    -6600.00
04257             228.00    -5200.00
04258              90.00    -7000.00
04259            -250.00    -6000.00
04260              34.00    -6600.00
04261             214.00    -7000.00
04262              78.00    -6400.00
04263             -94.00    -7800.00
04264            -210.00    -6800.00
04265             102.00    -7800.00
04266             242.00    -7600.00
04267             -12.00    -7400.00
04268            -146.00    -8000.00
04269             -68.00    -7800.00
04270             116.00    -8200.00
04271             134.00    -8200.00
04272             -58.00    -8400.00
04273             -82.00    -8400.00
04274              14.00    -8800.00
04275             126.00    -8800.00
04276              36.00    -9000.00
04277             -72.00    -8800.00
04278             -18.00    -9200.00
04279              52.00    -9200.00
04280              90.00    -9400.00
04281               4.00    -9600.00
04282             -44.00    -9800.00
04283               4.00    -9800.00
04284              62.00    -9800.00
04285              34.00   -10000.00
04286               8.00   -10000.00
04287              -6.00   -10000.00
04288              20.00   -10200.00
04289              46.00   -10400.00
04290              14.00   -10400.00
04291               2.00   -10600.00
04292              10.00   -10600.00
04293              34.00   -10600.00
04294              36.00   -10800.00
04295              16.00   -10800.00
04296               4.00   -11200.00
04297              18.00   -11200.00
04298              28.00   -11000.00
04299              26.00   -11200.00
04300              18.00   -11200.00
04301              22.00   -11400.00
04302              26.00   -11400.00
04303              20.00   -11600.00
04304              22.00   -11400.00
04305              14.00   -11600.00
04306              22.00   -11600.00
04307              34.00   -11600.00
04308              26.00   -11800.00
04309              22.00   -11800.00
04310              14.00   -11800.00
04311              20.00   -11800.00
04312              28.00   -12000.00
04313              26.00   -12000.00
04314              24.00   -12000.00
04315              26.00   -11800.00
04316              26.00   -12000.00
04317              22.00   -12000.00
04318              20.00   -12000.00
04319              26.00   -12000.00
04320              26.00   -12000.00
04321              30.00   -12000.00
04322              28.00   -12000.00
04323              18.00   -12000.00
04324              20.00   -12000.00
04325              24.00   -11800.00
04326              30.00   -11600.00
04327              30.00   -11600.00
04328              22.00   -11800.00
04329              26.00   -12000.00
04330              24.00   -11800.00
04331              22.00   -11600.00
04332              26.00   -11600.00
04333              26.00   -11600.00
04334              26.00   -11600.00
04335              28.00   -11600.00
04336              24.00   -11600.00
04337              22.00   -11400.00
04338              24.00   -11400.00
04339              26.00   -11000.00
04340              28.00   -11400.00
04341              26.00   -11000.00
04342              26.00   -11200.00
04343              22.00   -11000.00
04344              26.00   -10800.00
04345              22.00   -10800.00
04346              26.00   -10800.00
04347              30.00   -10600.00
04348              22.00   -10600.00
04349              22.00   -10400.00
04350              22.00   -10600.00
04351              20.00   -10400.00
04352              22.00   -10400.00
04353              22.00   -10000.00
04354              22.00   -10000.00
04355              22.00   -10000.00
04356              20.00    -9800.00
04357              20.00    -9800.00
04358              22.00    -9600.00
04359              20.00    -9600.00
04360              22.00    -9400.00
04361              22.00    -9400.00
04362              20.00    -9000.00
04363              18.00    -9200.00
04364              18.00    -8800.00
04365              20.00    -8800.00
04366              18.00    -8600.00
04367              22.00    -8400.00
04368              20.00    -8400.00
04369              18.00    -8200.00
04370              18.00    -8200.00
04371              16.00    -8000.00
04372              18.00    -7800.00
04373              16.00    -7600.00
04374              14.00    -7600.00
04375              20.00    -7400.00
04376              18.00    -7200.00
04377              12.00    -7000.00
04378              10.00    -6800.00
04379              18.00    -6600.00
04380              18.00    -6600.00
04381              20.00    -6400.00
04382              14.00    -6400.00
04383              12.00    -6000.00
04384              14.00    -5800.00
04385              12.00    -5800.00
04386              12.00    -5600.00
04387              12.00    -5600.00
04388              14.00    -5200.00
04389              12.00    -5000.00
04390              10.00    -5000.00
04391              10.00    -4600.00
04392              10.00    -4400.00
04393              12.00    -4200.00
04394              14.00    -4200.00
04395              10.00    -4000.00
04396              10.00    -3600.00
04397              10.00    -3600.00
04398               6.00    -3400.00
04399              10.00    -3200.00
04400               6.00    -3200.00
04401              10.00    -2800.00
04402              12.00    -2600.00
04403               6.00    -2400.00
04404               4.00    -2400.00
04405               4.00    -2000.00
04406               4.00    -2000.00
04407               8.00    -1600.00
04408               6.00    -1600.00
04409               6.00    -1400.00
04410               4.00    -1200.00
04411               2.00    -1000.00
04412               2.00     -800.00
04413               4.00     -400.00
04414               4.00     -200.00
04415               4.00        0.00
04416               6.00        0.00
04417               4.00      400.00
04418              20.00      200.00
04419              32.00      600.00
04420              -4.00      800.00
04421             -22.00      800.00
04422              -2.00     1200.00
04423              26.00     1200.00
04424              28.00     1800.00
04425             100.00     1800.00
04426             250.00     2000.00
04427             -28.00     2200.00
04428            -250.00     2400.00
04429            -250.00     2400.00
04430             250.00     2600.00
04431             250.00     2800.00
04432             250.00     3200.00
04433            -190.00     3200.00
04434            -250.00     3200.00
04435             250.00     3800.00
04436             250.00     3400.00
04437            -250.00     4000.00
04438            -250.00     4000.00
04439              26.00     4200.00
04440             250.00     4800.00
04441             222.00     4400.00
04442            -250.00     5000.00
04443            -250.00     5000.00
04444             146.00     5200.00
04445             250.00     5800.00
04446              -4.00     5400.00
04447            -250.00     6000.00
04448            -116.00     6000.00
04449             156.00     6000.00
04450             156.00     6400.00
04451            -134.00     6400.00
04452            -212.00     6800.00
04453              84.00     6800.00
04454             186.00     6800.00
04455             -66.00     7200.00
04456            -180.00     7200.00
04457             -92.00     7600.00
04458             132.00     7400.00
04459             150.00     7800.00
04460            -126.00     8000.00
04461            -162.00     8000.00
04462              18.00     8400.00
04463              90.00     8400.00
04464              12.00     8600.00
04465            -102.00     8600.00
04466             -82.00     8800.00
04467              58.00     8800.00
04468              60.00     9200.00
04469             -76.00     9200.00
04470             -98.00     9200.00
04471             -10.00     9400.00
04472              52.00     9400.00
04473              14.00     9600.00
04474             -70.00     9800.00
04475             -74.00     9800.00
04476               4.00    10000.00
04477              22.00    10000.00
04478             -28.00    10200.00
04479             -46.00    10400.00
04480             -28.00    10200.00
04481               2.00    10400.00
04482             -12.00    10400.00
04483             -54.00    10600.00
04484             -44.00    10600.00
04485             -10.00    10800.00
04486              -6.00    10800.00
04487             -22.00    11000.00
04488             -42.00    11000.00
04489             -38.00    11200.00
04490             -20.00    11200.00
04491             -20.00    11200.00
04492             -30.00    11200.00
04493             -26.00    11400.00
04494             -20.00    11400.00
04495             -28.00    11600.00
04496             -38.00    11600.00
04497             -42.00    11600.00
04498             -28.00    11600.00
04499             -12.00    11600.00
04500             -18.00    11800.00
04501             -36.00    11800.00
04502             -38.00    11800.00
04503             -34.00    11800.00
04504             -28.00    11800.00
04505             -20.00    11800.00
04506             -26.00    12000.00
04507             -30.00    11800.00
04508             -30.00    12000.00
04509             -36.00    12000.00
04510             -30.00    12000.00
04511             -28.00    12000.00
04512             -28.00    12000.00
04513             -22.00    12000.00
04514             -28.00    12000.00
04515             -36.00    11800.00
04516             -36.00    12000.00
04517             -34.00    11800.00
04518             -30.00    11800.00
04519             -22.00    11800.00
04520             -26.00    11800.00
04521             -28.00    11800.00
04522             -30.00    11800.00
04523             -36.00    11800.00
04524             -30.00    11800.00
04525             -28.00    11600.00
04526             -26.00    11600.00
04527             -22.00    11400.00
04528             -26.00    11600.00
04529             -36.00    11400.00
04530             -38.00    11400.00
04531             -34.00    11200.00
04532             -22.00    11200.00
04533             -20.00    11200.00
04534             -28.00    11200.00
04535             -36.00    11000.00
04536             -34.00    11000.00
04537             -30.00    11000.00
04538             -26.00    10800.00
04539             -22.00    10800.00
04540             -26.00    10800.00
04541             -28.00    10600.00
04542             -30.00    10400.00
04543             -34.00    10400.00
04544             -30.00    10400.00
04545             -22.00    10200.00
04546             -22.00    10000.00
04547             -26.00    10000.00
04548             -30.00     9800.00
04549             -36.00     9600.00
04550             -30.00     9600.00
04551             -28.00     9400.00
04552             -26.00     9400.00
04553             -22.00     9200.00
04554             -26.00     9200.00
04555             -28.00     9000.00
04556             -30.00     8800.00
04557             -30.00     8800.00
04558             -26.00     8400.00
04559             -22.00     8400.00
04560             -22.00     8400.00
04561             -24.00     8200.00
04562             -30.00     8000.00
04563             -30.00     7800.00
04564             -28.00     7800.00
04565             -20.00     7600.00
04566             -18.00     7600.00
04567             -22.00     7200.00
04568             -26.00     7200.00
04569             -28.00     7000.00
04570             -26.00     6800.00
04571             -22.00     6800.00
04572             -20.00     6400.00
04573             -20.00     6400.00
04574             -22.00     6200.00
04575             -24.00     6000.00
04576             -24.00     6000.00
04577             -22.00     5800.00
04578             -20.00     5400.00
04579             -14.00     5400.00
04580             -18.00     5200.00
04581             -18.00     5000.00
04582             -22.00     4800.00
04583             -20.00     4600.00
04584             -20.00     4400.00
04585             -12.00     4400.00
04586             -10.00     4000.00
04587             -14.00     4000.00
04588             -20.00     3800.00
04589             -20.00     3600.00
04590             -18.00     3400.00
04591             -12.00     3200.00
04592             -12.00     3000.00
04593             -12.00     2800.00
04594             -12.00     2600.00
04595             -14.00     2400.00
04596             -14.00     2000.00
04597             -12.00     2200.00
04598             -12.00     1800.00
04599              -8.00     1800.00
04600              -6.00     1400.00
04601             -10.00     1200.00
04602             -12.00     1200.00
04603             -12.00      800.00
04604             -12.00      600.00
04605              -6.00      600.00
04606              -6.00      200.00
04607              -6.00        0.00
04608              -4.00        0.00
04609              -4.00     -200.00
04610              18.00     -400.00
04611              22.00     -600.00
04612             -12.00     -800.00
04613             -32.00    -1000.00
04614              -2.00    -1000.00
04615              22.00    -1200.00
04616              68.00    -1600.00
04617             250.00    -1800.00
04618              86.00    -2400.00
04619            -250.00    -2600.00
04620            -250.00    -2400.00
04621             168.00    -2800.00
04622             250.00    -2400.00
04623             250.00    -3200.00
04624            -250.00    -3400.00
04625            -250.00    -2800.00
04626             250.00    -4200.00
04627             250.00    -3400.00
04628            -250.00    -3400.00
04629            -250.00    -4800.00
04630            -214.00    -3400.00
04631             250.00    -4600.00
04632             126.00    -4800.00
04633            -250.00    -4000.00
04634            -116.00    -6000.00
04635             -12.00    -4400.00
04636             250.00    -5400.00
04637              10.00    -6000.00
04638            -250.00    -4800.00
04639              14.00    -6600.00
04640             146.00    -5400.00
04641             250.00    -6400.00
04642            -210.00    -6800.00
04643            -200.00    -5800.00
04644             212.00    -7200.00
04645             140.00    -6400.00
04646               4.00    -7200.00
04647            -206.00    -7200.00
04648             -76.00    -7200.00
04649             246.00    -7800.00
04650             126.00    -7200.00
04651            -118.00    -8000.00
04652            -122.00    -8000.00
04653              26.00    -8000.00
04654             170.00    -8400.00
04655              28.00    -8200.00
04656             -94.00    -8600.00
04657             -38.00    -8400.00
04658              86.00    -8800.00
04659             106.00    -9000.00
04660             -50.00    -9000.00
04661             -48.00    -9000.00
04662              18.00    -9200.00
04663              86.00    -9400.00
04664              52.00    -9400.00
04665             -36.00    -9600.00
04666             -28.00    -9600.00
04667              44.00    -9800.00
04668              54.00    -9800.00
04669              14.00   -10000.00
04670               2.00   -10000.00
04671               4.00   -10200.00
04672              46.00   -10400.00
04673              30.00   -10400.00
04674               4.00   -10600.00
04675               4.00   -10600.00
04676              24.00   -10600.00
04677              40.00   -10800.00
04678              26.00   -10800.00
04679               6.00   -11000.00
04680              14.00   -11000.00
04681              28.00   -11000.00
04682              26.00   -11000.00
04683              20.00   -11200.00
04684              18.00   -11200.00
04685              26.00   -11400.00
04686              22.00   -11400.00
04687              22.00   -11600.00
04688              12.00   -11600.00
04689              14.00   -11600.00
04690              34.00   -11600.00
04691              36.00   -11600.00
04692              22.00   -11600.00
04693              12.00   -11800.00
04694              14.00   -12000.00
04695              26.00   -12000.00
04696              28.00   -12000.00
04697              26.00   -12000.00
04698              22.00   -11800.00
04699              24.00   -12000.00
04700              22.00   -12000.00
04701              20.00   -12000.00
04702              22.00   -12000.00
04703              26.00   -12000.00
04704              28.00   -12000.00
04705              26.00   -12000.00
04706              22.00   -12000.00
04707              18.00   -12000.00
04708              26.00   -12000.00
04709              26.00   -12000.00
04710              26.00   -12000.00
04711              28.00   -11800.00
04712              26.00   -11800.00
04713              26.00   -11800.00
04714              26.00   -11800.00
04715              22.00   -11600.00
04716              24.00   -11600.00
04717              28.00   -11600.00
04718              28.00   -11400.00
04719              26.00   -11600.00
04720              22.00   -11600.00
04721              24.00   -11400.00
04722              24.00   -11200.00
04723              28.00   -11400.00
04724              28.00   -11200.00
04725              26.00   -11000.00
04726              26.00   -11000.00
04727              20.00   -10800.00
04728              22.00   -10800.00
04729              26.00   -10800.00
04730              26.00   -10600.00
04731              26.00   -10600.00
04732              22.00   -10600.00
04733              22.00   -10600.00
04734              20.00   -10400.00
04735              22.00   -10400.00
04736              26.00   -10000.00
04737              22.00   -10000.00
04738              26.00   -10000.00
04739              26.00   -10000.00
04740              20.00    -9800.00
04741              20.00    -9600.00
04742              18.00    -9600.00
04743              22.00    -9600.00
04744              22.00    -9400.00
04745              20.00    -9200.00
04746              18.00    -9200.00
04747              14.00    -8800.00
04748              18.00    -8800.00
04749              22.00    -8800.00
04750              20.00    -8400.00
04751              12.00    -8400.00
04752              14.00    -8400.00
04753              22.00    -8200.00
04754              20.00    -8000.00
04755              18.00    -8000.00
04756              12.00    -7600.00
04757              12.00    -7600.00
04758              22.00    -7400.00
04759              26.00    -7200.00
04760              12.00    -7200.00
04761              10.00    -7000.00
04762              12.00    -6800.00
04763              14.00    -6600.00
04764              18.00    -6600.00
04765              16.00    -6400.00
04766              10.00    -6200.00
04767              18.00    -6000.00
04768              18.00    -5800.00
04769              12.00    -5600.00
04770               8.00    -5600.00
04771              10.00    -5200.00
04772              20.00    -5000.00
04773              20.00    -5000.00
04774               6.00    -4600.00
04775               2.00    -4600.00
04776               6.00    -4400.00
04777              12.00    -4200.00
04778              18.00    -4000.00
04779              10.00    -3800.00
04780               6.00    -3600.00
04781               8.00    -3400.00
04782               6.00    -3200.00
04783              10.00    -3200.00
04784               6.00    -2800.00
04785              12.00    -2600.00
04786              10.00    -2600.00
04787               6.00    -2400.00
04788               2.00    -2200.00
04789               4.00    -2000.00
04790               6.00    -1800.00
04791              10.00    -1600.00
04792               6.00    -1600.00
04793               4.00    -1200.00
04794               0.00    -1000.00
04795               2.00     -800.00
04796               2.00     -600.00
04797               4.00     -400.00
04798               6.00     -200.00
04799               4.00        0.00
04800               4.00      200.00
04801              10.00      400.00
04802              34.00      400.00
04803              18.00      800.00
04804             -20.00      800.00
04805             -12.00     1200.00
04806              20.00     1200.00
04807              28.00     1400.00
04808              42.00     1600.00
04809             202.00     2000.00
04810             204.00     2200.00
04811            -250.00     2400.00
04812            -250.00     2400.00
04813              58.00     2400.00
04814             250.00     2600.00
04815             240.00     3000.00
04816             134.00     3400.00
04817            -250.00     3200.00
04818            -158.00     3600.00
04819             250.00     3600.00
04820              26.00     3600.00
04821            -250.00     4400.00
04822            -114.00     4000.00
04823             154.00     4600.00
04824             250.00     4600.00
04825             -62.00     4800.00
04826            -250.00     5200.00
04827             -84.00     4800.00
04828             250.00     5600.00
04829             186.00     5400.00
04830            -204.00     5400.00
04831            -230.00     6200.00
04832              50.00     5800.00
04833             204.00     6200.00
04834              12.00     6400.00
04835            -236.00     6400.00
04836             -68.00     7000.00
04837             192.00     6800.00
04838              68.00     7200.00
04839            -156.00     7000.00
04840            -154.00     7600.00
04841              24.00     7600.00
04842             186.00     7600.00
04843               2.00     7800.00
04844            -190.00     8000.00
04845             -64.00     8200.00
04846              76.00     8200.00
04847              64.00     8400.00
04848             -58.00     8600.00
04849            -116.00     8600.00
04850              -8.00     8800.00
04851              86.00     9000.00
04852             -10.00     8800.00
04853            -106.00     9200.00
04854             -58.00     9200.00
04855              30.00     9400.00
04856              42.00     9600.00
04857             -34.00     9600.00
04858             -86.00    10000.00
04859             -36.00    10000.00
04860              28.00    10000.00
04861              -2.00    10000.00
04862             -44.00    10200.00
04863             -42.00    10400.00
04864             -12.00    10400.00
04865               4.00    10400.00
04866             -34.00    10600.00
04867             -52.00    10800.00
04868             -22.00    10800.00
04869              -4.00    10800.00
04870             -14.00    10800.00
04871             -34.00    11000.00
04872             -44.00    11000.00
04873             -26.00    11000.00
04874             -18.00    11000.00
04875             -30.00    11200.00
04876             -30.00    11200.00
04877             -22.00    11200.00
04878             -22.00    11400.00
04879             -30.00    11600.00
04880             -38.00    11600.00
04881             -36.00    11600.00
04882             -20.00    11800.00
04883             -14.00    11600.00
04884             -28.00    11800.00
04885             -38.00    11800.00
04886             -36.00    11800.00
04887             -34.00    11800.00
04888             -24.00    11800.00
04889             -20.00    11800.00
04890             -26.00    12000.00
04891             -32.00    12000.00
04892             -34.00    12000.00
04893             -34.00    11800.00
04894             -28.00    12000.00
04895             -26.00    11800.00
04896             -26.00    12000.00
04897             -28.00    12000.00
04898             -34.00    11800.00
04899             -34.00    12000.00
04900             -36.00    12000.00
04901             -30.00    11800.00
04902             -26.00    11800.00
04903             -26.00    11800.00
04904             -28.00    11800.00
04905             -36.00    11800.00
04906             -36.00    11800.00
04907             -32.00    11600.00
04908             -28.00    11600.00
04909             -28.00    11400.00
04910             -28.00    11600.00
04911             -30.00    11600.00
04912             -34.00    11400.00
04913             -34.00    11400.00
04914             -28.00    11200.00
04915             -26.00    11400.00
04916             -26.00    11200.00
04917             -30.00    11200.00
04918             -30.00    11200.00
04919             -28.00    11000.00
04920             -30.00    11000.00
04921             -32.00    10800.00
04922             -28.00    10800.00
04923             -26.00    10800.00
04924             -22.00    10600.00
04925             -28.00    10600.00
04926             -34.00    10400.00
04927             -32.00    10400.00
04928             -30.00    10200.00
04929             -22.00    10200.00
04930             -22.00    10000.00
04931             -26.00    10000.00
04932             -30.00     9600.00
04933             -34.00     9600.00
04934             -34.00     9600.00
04935             -28.00     9400.00
04936             -16.00     9400.00
04937             -12.00     9200.00
04938             -22.00     9200.00
04939             -42.00     8800.00
04940             -52.00     8800.00
04941             -30.00     8600.00
04942               0.00     8600.00
04943              -2.00     8400.00
04944             -28.00     8200.00
04945             -48.00     8200.00
04946             -44.00     8200.00
04947             -20.00     7800.00
04948              -8.00     7800.00
04949             -18.00     7600.00
04950             -26.00     7200.00
04951             -28.00     7200.00
04952             -22.00     7000.00
04953             -32.00     7000.00
04954             -38.00     6800.00
04955             -22.00     6600.00
04956               4.00     6400.00
04957               4.00     6400.00
04958             -28.00     6000.00
04959             -58.00     6000.00
04960             -42.00     5800.00
04961              -4.00     5600.00
04962              10.00     5600.00
04963             -12.00     5400.00
04964             -36.00     5200.00
04965             -36.00     4800.00
04966             -22.00     4600.00
04967             -14.00     4600.00
04968             -12.00     4400.00
04969             -10.00     4400.00
04970             -10.00     4000.00
04971             -14.00     3800.00
04972             -24.00     3600.00
04973             -30.00     3400.00
04974             -14.00     3200.00
04975              -2.00     3000.00
04976              -6.00     2800.00
04977             -16.00     2800.00
04978             -22.00     2400.00
04979             -20.00     2200.00
04980             -10.00     2200.00
04981              -6.00     2000.00
04982             -10.00     1600.00
04983             -10.00     1600.00
04984              -8.00     1400.00
04985             -12.00     1200.00
04986             -12.00     1000.00
04987             -12.00      800.00
04988              -6.00      400.00
04989              -2.00      400.00
04990              -6.00      200.00
04991              -6.00        0.00
04992              -6.00     -200.00
04993               4.00     -400.00
04994              30.00     -400.00
04995              10.00     -600.00
04996             -28.00     -800.00
04997             -20.00    -1000.00
04998              14.00    -1400.00
04999              34.00    -1200.00
05000             190.00    -1600.00
