Unit:(mV)
                     CH1         CH2
Frequency              ? 260.636 kHz
00001             -12.00      400.00
00002              -6.00      200.00
00003              -4.00      200.00
00004              -2.00     -200.00
00005              -6.00     -200.00
00006              20.00     -600.00
00007              24.00     -600.00
00008             -18.00     -800.00
00009             -30.00    -1000.00
00010               4.00    -1200.00
00011              26.00    -1400.00
00012             110.00    -1400.00
00013             250.00    -1800.00
00014             -56.00    -2400.00
00015            -250.00    -2400.00
00016            -250.00    -2600.00
00017             250.00    -2800.00
00018             250.00    -2400.00
00019             250.00    -3200.00
00020            -250.00    -2800.00
00021            -250.00    -2800.00
00022             250.00    -4400.00
00023              74.00    -3000.00
00024            -250.00    -4000.00
00025            -250.00    -4400.00
00026              20.00    -3200.00
00027             250.00    -5200.00
00028            -148.00    -4200.00
00029            -250.00    -4400.00
00030            -108.00    -6000.00
00031             130.00    -4000.00
00032             250.00    -5800.00
00033            -218.00    -5600.00
00034            -250.00    -5000.00
00035              84.00    -6800.00
00036             228.00    -5200.00
00037             222.00    -6600.00
00038            -250.00    -6200.00
00039             -74.00    -6000.00
00040             250.00    -7200.00
00041             126.00    -6000.00
00042             -20.00    -7400.00
00043            -216.00    -7000.00
00044              28.00    -7200.00
00045             250.00    -7600.00
00046              84.00    -7200.00
00047            -130.00    -8000.00
00048             -74.00    -7600.00
00049             110.00    -8000.00
00050             188.00    -8200.00
00051              10.00    -8000.00
00052             -66.00    -8400.00
00053              14.00    -8400.00
00054             150.00    -8800.00
00055             108.00    -9000.00
00056             -42.00    -9000.00
00057               2.00    -9000.00
00058              72.00    -9200.00
00059             132.00    -9200.00
00060              68.00    -9200.00
00061              -6.00    -9600.00
00062              32.00    -9600.00
00063             100.00    -9600.00
00064              84.00    -9800.00
00065              60.00    -9800.00
00066              50.00   -10000.00
00067              58.00   -10000.00
00068             102.00   -10400.00
00069              76.00   -10400.00
00070              58.00   -10600.00
00071              66.00   -10400.00
00072              86.00   -10600.00
00073             100.00   -10800.00
00074              90.00   -10800.00
00075              72.00   -10800.00
00076              82.00   -10800.00
00077             100.00   -11000.00
00078             100.00   -11000.00
00079              96.00   -11200.00
00080              98.00   -11000.00
00081             102.00   -11400.00
00082             106.00   -11200.00
00083             108.00   -11400.00
00084             100.00   -11400.00
00085             106.00   -11400.00
00086             126.00   -11400.00
00087             124.00   -11600.00
00088             124.00   -11600.00
00089             116.00   -11600.00
00090             122.00   -11600.00
00091             138.00   -11600.00
00092             134.00   -11600.00
00093             140.00   -11600.00
00094             146.00   -11600.00
00095             146.00   -12000.00
00096             150.00   -11800.00
00097             148.00   -11800.00
00098             152.00   -11600.00
00099             162.00   -11800.00
00100             170.00   -11600.00
00101             170.00   -11800.00
00102             166.00   -11600.00
00103             166.00   -12000.00
00104             170.00   -12000.00
00105             182.00   -11600.00
00106             186.00   -11600.00
00107             188.00   -11600.00
00108             186.00   -11600.00
00109             180.00   -11600.00
00110             178.00   -11600.00
00111             182.00   -11400.00
00112             180.00   -11400.00
00113             182.00   -11400.00
00114             178.00   -11400.00
00115             172.00   -11400.00
00116             164.00   -11400.00
00117             162.00   -11200.00
00118             164.00   -11000.00
00119             164.00   -11000.00
00120             158.00   -10800.00
00121             148.00   -11000.00
00122             140.00   -11000.00
00123             138.00   -10800.00
00124             140.00   -10800.00
00125             134.00   -10800.00
00126             130.00   -10600.00
00127             128.00   -10600.00
00128             122.00   -10600.00
00129             118.00   -10400.00
00130             108.00   -10200.00
00131             108.00   -10000.00
00132             110.00   -10000.00
00133             102.00   -10000.00
00134             100.00    -9800.00
00135              94.00    -9600.00
00136              90.00    -9600.00
00137              90.00    -9400.00
00138              82.00    -9600.00
00139              82.00    -9600.00
00140              84.00    -9200.00
00141              84.00    -9200.00
00142              72.00    -9000.00
00143              70.00    -8800.00
00144              68.00    -8800.00
00145              68.00    -8600.00
00146              66.00    -8400.00
00147              60.00    -8400.00
00148              60.00    -8200.00
00149              60.00    -8200.00
00150              58.00    -7800.00
00151              52.00    -8000.00
00152              50.00    -7600.00
00153              50.00    -7400.00
00154              54.00    -7200.00
00155              52.00    -7200.00
00156              42.00    -7000.00
00157              38.00    -6800.00
00158              38.00    -6800.00
00159              42.00    -6600.00
00160              42.00    -6200.00
00161              42.00    -6200.00
00162              36.00    -6200.00
00163              32.00    -5800.00
00164              30.00    -5800.00
00165              34.00    -5600.00
00166              34.00    -5600.00
00167              30.00    -5200.00
00168              28.00    -5000.00
00169              26.00    -5000.00
00170              26.00    -4600.00
00171              26.00    -4400.00
00172              26.00    -4200.00
00173              26.00    -4200.00
00174              26.00    -4000.00
00175              20.00    -4000.00
00176              18.00    -3600.00
00177              20.00    -3400.00
00178              18.00    -3400.00
00179              18.00    -3000.00
00180              18.00    -3000.00
00181              18.00    -2600.00
00182              14.00    -2600.00
00183              12.00    -2400.00
00184              10.00    -2200.00
00185              10.00    -2000.00
00186              10.00    -1800.00
00187              10.00    -1600.00
00188              10.00    -1400.00
00189               8.00    -1200.00
00190               4.00    -1000.00
00191               4.00     -800.00
00192               4.00     -600.00
00193               4.00     -400.00
00194               4.00     -400.00
00195               4.00        0.00
00196               4.00        0.00
00197              10.00      400.00
00198              34.00      400.00
00199              14.00      600.00
00200             -22.00      800.00
00201             -18.00     1000.00
00202              14.00     1200.00
00203              28.00     1200.00
00204              54.00     1800.00
00205             228.00     2000.00
00206             154.00     2000.00
00207            -250.00     2200.00
00208            -250.00     2400.00
00209             116.00     2400.00
00210             250.00     2600.00
00211             250.00     3200.00
00212              -4.00     3200.00
00213            -250.00     3000.00
00214              42.00     3600.00
00215             250.00     3400.00
00216            -126.00     3800.00
00217            -250.00     4000.00
00218            -104.00     4000.00
00219             234.00     4600.00
00220             250.00     4200.00
00221            -210.00     4800.00
00222            -250.00     5000.00
00223             -14.00     4800.00
00224             250.00     5600.00
00225             148.00     5200.00
00226            -250.00     5600.00
00227            -250.00     6000.00
00228             116.00     5600.00
00229             220.00     6400.00
00230             -86.00     6200.00
00231            -250.00     6400.00
00232             -18.00     6800.00
00233             202.00     6800.00
00234              10.00     7000.00
00235            -206.00     7000.00
00236            -182.00     7200.00
00237              56.00     7600.00
00238             188.00     7600.00
00239             -84.00     7800.00
00240            -236.00     8000.00
00241             -58.00     8200.00
00242              68.00     8200.00
00243              30.00     8400.00
00244            -118.00     8400.00
00245            -156.00     8600.00
00246              -4.00     8800.00
00247              62.00     8800.00
00248             -74.00     8800.00
00249            -150.00     9200.00
00250             -76.00     9200.00
00251               4.00     9200.00
00252              -4.00     9200.00
00253             -94.00     9400.00
00254            -132.00     9600.00
00255             -58.00     9800.00
00256             -14.00    10000.00
00257             -68.00    10000.00
00258            -102.00    10000.00
00259             -86.00    10200.00
00260             -54.00    10200.00
00261             -50.00    10400.00
00262            -102.00    10400.00
00263            -116.00    10600.00
00264             -76.00    10800.00
00265             -60.00    10800.00
00266             -76.00    10800.00
00267            -106.00    10800.00
00268            -118.00    11000.00
00269             -94.00    11000.00
00270             -90.00    11000.00
00271            -106.00    11000.00
00272            -106.00    11200.00
00273            -102.00    11200.00
00274            -108.00    11200.00
00275            -118.00    11200.00
00276            -126.00    11400.00
00277            -124.00    11200.00
00278            -110.00    11400.00
00279            -112.00    11600.00
00280            -130.00    11600.00
00281            -140.00    11600.00
00282            -144.00    11600.00
00283            -140.00    11800.00
00284            -138.00    11800.00
00285            -140.00    11800.00
00286            -148.00    11800.00
00287            -150.00    11800.00
00288            -158.00    11600.00
00289            -164.00    11800.00
00290            -164.00    11800.00
00291            -164.00    11600.00
00292            -162.00    11800.00
00293            -164.00    11800.00
00294            -174.00    11800.00
00295            -188.00    11800.00
00296            -192.00    11600.00
00297            -186.00    11600.00
00298            -176.00    11600.00
00299            -178.00    11600.00
00300            -190.00    11600.00
00301            -194.00    11600.00
00302            -190.00    11800.00
00303            -188.00    11400.00
00304            -182.00    11600.00
00305            -182.00    11400.00
00306            -176.00    11200.00
00307            -166.00    11400.00
00308            -172.00    11200.00
00309            -174.00    11200.00
00310            -172.00    11200.00
00311            -158.00    11200.00
00312            -146.00    11200.00
00313            -142.00    11000.00
00314            -152.00    11000.00
00315            -150.00    10800.00
00316            -146.00    10800.00
00317            -136.00    10800.00
00318            -124.00    10600.00
00319            -120.00    10400.00
00320            -124.00    10400.00
00321            -122.00    10400.00
00322            -124.00    10200.00
00323            -116.00    10200.00
00324            -104.00    10000.00
00325            -102.00    10000.00
00326             -94.00    10000.00
00327             -98.00     9600.00
00328            -100.00     9600.00
00329            -100.00     9600.00
00330             -98.00     9400.00
00331             -86.00     9200.00
00332             -78.00     9200.00
00333             -78.00     9000.00
00334             -84.00     9000.00
00335             -86.00     8800.00
00336             -82.00     8600.00
00337             -70.00     8600.00
00338             -66.00     8400.00
00339             -64.00     8400.00
00340             -68.00     8000.00
00341             -70.00     8200.00
00342             -68.00     8000.00
00343             -62.00     7800.00
00344             -60.00     7600.00
00345             -54.00     7600.00
00346             -52.00     7400.00
00347             -54.00     7200.00
00348             -58.00     7000.00
00349             -56.00     6800.00
00350             -52.00     6600.00
00351             -46.00     6400.00
00352             -42.00     6400.00
00353             -44.00     6200.00
00354             -44.00     6000.00
00355             -46.00     6000.00
00356             -44.00     5600.00
00357             -42.00     5600.00
00358             -38.00     5400.00
00359             -34.00     5200.00
00360             -30.00     4800.00
00361             -34.00     4800.00
00362             -38.00     4600.00
00363             -40.00     4400.00
00364             -32.00     4200.00
00365             -22.00     4200.00
00366             -24.00     3800.00
00367             -28.00     3800.00
00368             -32.00     3600.00
00369             -26.00     3400.00
00370             -22.00     3200.00
00371             -22.00     3000.00
00372             -22.00     2800.00
00373             -14.00     2600.00
00374             -14.00     2400.00
00375             -22.00     2400.00
00376             -26.00     2200.00
00377             -22.00     2000.00
00378             -14.00     1600.00
00379             -10.00     1800.00
00380             -12.00     1400.00
00381             -18.00     1000.00
00382             -18.00     1000.00
00383             -12.00      600.00
00384             -10.00      600.00
00385              -6.00      400.00
00386              -6.00      400.00
00387              -4.00        0.00
00388              -4.00     -200.00
00389               4.00     -400.00
00390              26.00     -400.00
00391              10.00     -800.00
00392             -26.00     -800.00
00393             -16.00    -1000.00
00394              18.00    -1200.00
00395              36.00    -1200.00
00396             194.00    -1600.00
00397             250.00    -2000.00
00398            -250.00    -2400.00
00399            -250.00    -2400.00
00400            -108.00    -2800.00
00401             250.00    -2400.00
00402             250.00    -2400.00
00403             -50.00    -3400.00
00404            -250.00    -2800.00
00405             250.00    -3400.00
00406             250.00    -4200.00
00407            -204.00    -2800.00
00408            -250.00    -4600.00
00409            -250.00    -4000.00
00410             250.00    -3600.00
00411             250.00    -5600.00
00412            -250.00    -3600.00
00413            -236.00    -5200.00
00414             -90.00    -5200.00
00415             250.00    -4200.00
00416             250.00    -6200.00
00417            -250.00    -4800.00
00418            -148.00    -5800.00
00419             122.00    -6200.00
00420             250.00    -5200.00
00421              52.00    -7000.00
00422            -250.00    -5800.00
00423             108.00    -6600.00
00424             234.00    -6800.00
00425              84.00    -6400.00
00426             -92.00    -7600.00
00427            -186.00    -6600.00
00428             162.00    -7600.00
00429             250.00    -7400.00
00430             -20.00    -7400.00
00431            -134.00    -8000.00
00432             -18.00    -7600.00
00433             166.00    -8400.00
00434             146.00    -8000.00
00435             -44.00    -8400.00
00436             -52.00    -8400.00
00437              58.00    -8400.00
00438             170.00    -8800.00
00439              50.00    -8800.00
00440             -38.00    -9000.00
00441              28.00    -9000.00
00442              94.00    -9200.00
00443             122.00    -9200.00
00444              30.00    -9400.00
00445              -2.00    -9600.00
00446              66.00    -9600.00
00447             108.00    -9800.00
00448              70.00    -9800.00
00449              54.00   -10000.00
00450              42.00   -10000.00
00451              80.00   -10200.00
00452             102.00   -10000.00
00453              66.00   -10400.00
00454              58.00   -10600.00
00455              68.00   -10600.00
00456              98.00   -10600.00
00457             102.00   -10800.00
00458              82.00   -10800.00
00459              70.00   -10800.00
00460              90.00   -11000.00
00461             100.00   -10800.00
00462              98.00   -11200.00
00463              90.00   -11200.00
00464             100.00   -11200.00
00465             110.00   -11400.00
00466             106.00   -11400.00
00467             106.00   -11400.00
00468              98.00   -11400.00
00469             116.00   -11600.00
00470             130.00   -11400.00
00471             126.00   -11400.00
00472             122.00   -11600.00
00473             116.00   -11600.00
00474             130.00   -11600.00
00475             140.00   -11600.00
00476             138.00   -11600.00
00477             138.00   -11800.00
00478             142.00   -11600.00
00479             148.00   -11800.00
00480             148.00   -11800.00
00481             148.00   -11800.00
00482             154.00   -11800.00
00483             162.00   -12000.00
00484             170.00   -11800.00
00485             170.00   -12000.00
00486             164.00   -11800.00
00487             168.00   -11800.00
00488             178.00   -11800.00
00489             186.00   -11600.00
00490             188.00   -11600.00
00491             180.00   -11800.00
00492             186.00   -11600.00
00493             186.00   -11600.00
00494             182.00   -11600.00
00495             180.00   -11600.00
00496             174.00   -11400.00
00497             178.00   -11400.00
00498             182.00   -11400.00
00499             174.00   -11400.00
00500             164.00   -11400.00
00501             158.00   -11000.00
00502             162.00   -11200.00
00503             164.00   -11000.00
00504             154.00   -11000.00
00505             144.00   -10800.00
00506             140.00   -10800.00
00507             142.00   -10800.00
00508             138.00   -10800.00
00509             130.00   -10600.00
00510             126.00   -10600.00
00511             122.00   -10400.00
00512             122.00   -10400.00
00513             116.00   -10400.00
00514             108.00   -10200.00
00515             106.00   -10000.00
00516             102.00   -10000.00
00517             102.00   -10000.00
00518             100.00    -9800.00
00519              94.00    -9800.00
00520              90.00    -9600.00
00521              84.00    -9600.00
00522              82.00    -9400.00
00523              86.00    -9200.00
00524              86.00    -9200.00
00525              78.00    -9000.00
00526              70.00    -9000.00
00527              68.00    -8600.00
00528              68.00    -8800.00
00529              68.00    -8400.00
00530              68.00    -8400.00
00531              62.00    -8400.00
00532              60.00    -8200.00
00533              54.00    -8000.00
00534              54.00    -7800.00
00535              58.00    -7600.00
00536              54.00    -7600.00
00537              50.00    -7400.00
00538              46.00    -7200.00
00539              46.00    -7200.00
00540              46.00    -7000.00
00541              44.00    -6800.00
00542              42.00    -6800.00
00543              38.00    -6400.00
00544              42.00    -6400.00
00545              38.00    -6000.00
00546              38.00    -6000.00
00547              34.00    -5800.00
00548              30.00    -5600.00
00549              30.00    -5600.00
00550              30.00    -5200.00
00551              32.00    -5200.00
00552              28.00    -5000.00
00553              26.00    -4800.00
00554              26.00    -4600.00
00555              26.00    -4400.00
00556              22.00    -4200.00
00557              26.00    -4200.00
00558              20.00    -3800.00
00559              22.00    -3600.00
00560              24.00    -3600.00
00561              18.00    -3400.00
00562              14.00    -3200.00
00563              12.00    -3000.00
00564              18.00    -2800.00
00565              20.00    -2600.00
00566              16.00    -2400.00
00567              10.00    -2400.00
00568              12.00    -2000.00
00569              14.00    -1800.00
00570              12.00    -1600.00
00571               8.00    -1600.00
00572               8.00    -1200.00
00573              12.00    -1200.00
00574              12.00     -800.00
00575               2.00     -800.00
00576               2.00     -600.00
00577               6.00     -400.00
00578               6.00     -200.00
00579               4.00        0.00
00580               2.00      200.00
00581              18.00      400.00
00582              36.00      600.00
00583               4.00      600.00
00584             -28.00      800.00
00585              -6.00     1000.00
00586              26.00     1400.00
00587              34.00     1400.00
00588             100.00     1800.00
00589             250.00     2000.00
00590             -24.00     2200.00
00591            -250.00     2200.00
00592            -250.00     2400.00
00593             250.00     2600.00
00594             250.00     2800.00
00595             250.00     3200.00
00596            -250.00     3000.00
00597            -250.00     3200.00
00598             250.00     3600.00
00599             250.00     3200.00
00600            -250.00     4000.00
00601            -250.00     4000.00
00602               6.00     4000.00
00603             250.00     4600.00
00604             210.00     4400.00
00605            -250.00     4800.00
00606            -250.00     4800.00
00607             146.00     5000.00
00608             250.00     5600.00
00609             -14.00     5000.00
00610            -250.00     6000.00
00611            -146.00     6000.00
00612             202.00     5800.00
00613             156.00     6400.00
00614            -198.00     6200.00
00615            -238.00     6400.00
00616              90.00     6800.00
00617             180.00     6800.00
00618             -82.00     7000.00
00619            -222.00     7000.00
00620            -126.00     7200.00
00621             138.00     7200.00
00622             136.00     7600.00
00623            -178.00     7800.00
00624            -198.00     7800.00
00625              -2.00     8200.00
00626              78.00     8200.00
00627             -12.00     8400.00
00628            -156.00     8600.00
00629            -124.00     8400.00
00630              42.00     8800.00
00631              36.00     8800.00
00632            -116.00     9000.00
00633            -138.00     9200.00
00634             -46.00     9200.00
00635              18.00     9200.00
00636             -24.00     9400.00
00637            -122.00     9600.00
00638            -122.00     9600.00
00639             -34.00     9800.00
00640             -22.00    10000.00
00641             -82.00    10000.00
00642            -102.00    10200.00
00643             -84.00    10000.00
00644             -46.00    10400.00
00645             -66.00    10200.00
00646            -110.00    10400.00
00647            -102.00    10400.00
00648             -68.00    10800.00
00649             -68.00    10600.00
00650             -86.00    11000.00
00651            -108.00    10800.00
00652            -106.00    11000.00
00653             -86.00    11000.00
00654             -94.00    11000.00
00655            -110.00    11200.00
00656            -102.00    11200.00
00657            -102.00    11200.00
00658            -114.00    11400.00
00659            -122.00    11200.00
00660            -126.00    11600.00
00661            -118.00    11400.00
00662            -110.00    11400.00
00663            -122.00    11600.00
00664            -134.00    11600.00
00665            -138.00    11600.00
00666            -140.00    11800.00
00667            -140.00    11800.00
00668            -140.00    11600.00
00669            -140.00    11600.00
00670            -148.00    11600.00
00671            -154.00    11600.00
00672            -164.00    11600.00
00673            -162.00    11600.00
00674            -164.00    11800.00
00675            -164.00    11800.00
00676            -164.00    11600.00
00677            -172.00    11800.00
00678            -180.00    11800.00
00679            -184.00    11800.00
00680            -188.00    11800.00
00681            -186.00    11600.00
00682            -180.00    11800.00
00683            -188.00    11600.00
00684            -190.00    11600.00
00685            -192.00    11600.00
00686            -194.00    11600.00
00687            -190.00    11600.00
00688            -178.00    11400.00
00689            -178.00    11600.00
00690            -178.00    11400.00
00691            -174.00    11200.00
00692            -174.00    11200.00
00693            -170.00    11200.00
00694            -164.00    11200.00
00695            -156.00    11000.00
00696            -152.00    11000.00
00697            -150.00    11000.00
00698            -148.00    10800.00
00699            -144.00    10800.00
00700            -142.00    10800.00
00701            -134.00    10600.00
00702            -126.00    10600.00
00703            -122.00    10600.00
00704            -124.00    10400.00
00705            -124.00    10200.00
00706            -118.00    10200.00
00707            -110.00    10000.00
00708            -102.00    10000.00
00709            -106.00    10000.00
00710            -102.00     9800.00
00711            -100.00     9800.00
00712             -96.00     9600.00
00713             -92.00     9400.00
00714             -92.00     9400.00
00715             -86.00     9200.00
00716             -82.00     9200.00
00717             -78.00     8800.00
00718             -82.00     9000.00
00719             -82.00     8800.00
00720             -78.00     8600.00
00721             -70.00     8400.00
00722             -66.00     8400.00
00723             -68.00     8400.00
00724             -66.00     8000.00
00725             -66.00     8000.00
00726             -68.00     7600.00
00727             -62.00     7600.00
00728             -58.00     7600.00
00729             -54.00     7600.00
00730             -52.00     7200.00
00731             -54.00     7000.00
00732             -58.00     7000.00
00733             -54.00     6800.00
00734             -50.00     6800.00
00735             -44.00     6400.00
00736             -44.00     6400.00
00737             -44.00     6000.00
00738             -44.00     6000.00
00739             -46.00     5800.00
00740             -42.00     5600.00
00741             -42.00     5600.00
00742             -36.00     5200.00
00743             -30.00     5200.00
00744             -30.00     5000.00
00745             -36.00     4600.00
00746             -42.00     4400.00
00747             -36.00     4400.00
00748             -26.00     4200.00
00749             -22.00     4000.00
00750             -26.00     4000.00
00751             -30.00     3600.00
00752             -30.00     3400.00
00753             -26.00     3400.00
00754             -22.00     3200.00
00755             -22.00     3000.00
00756             -22.00     2800.00
00757             -20.00     2600.00
00758             -22.00     2400.00
00759             -22.00     2200.00
00760             -20.00     2000.00
00761             -14.00     1800.00
00762             -14.00     1600.00
00763             -18.00     1400.00
00764             -14.00     1400.00
00765             -12.00     1000.00
00766             -12.00      800.00
00767             -14.00      600.00
00768             -10.00      600.00
00769              -6.00      400.00
00770              -6.00        0.00
00771              -6.00     -200.00
00772              -6.00     -200.00
00773              18.00     -400.00
00774              28.00     -400.00
00775              -6.00     -800.00
00776             -32.00    -1000.00
00777              -6.00    -1000.00
00778              26.00    -1200.00
00779              58.00    -1400.00
00780             250.00    -1600.00
00781             176.00    -2200.00
00782            -250.00    -2400.00
00783            -250.00    -2600.00
00784              90.00    -2600.00
00785             250.00    -2400.00
00786             250.00    -2800.00
00787            -250.00    -3400.00
00788            -250.00    -2600.00
00789             250.00    -4000.00
00790             250.00    -3600.00
00791            -250.00    -3200.00
00792            -250.00    -4800.00
00793            -250.00    -3400.00
00794             250.00    -4400.00
00795             250.00    -5200.00
00796            -250.00    -3800.00
00797            -138.00    -5800.00
00798             -30.00    -4400.00
00799             250.00    -4800.00
00800             110.00    -6000.00
00801            -250.00    -4600.00
00802               2.00    -6400.00
00803             164.00    -5600.00
00804             250.00    -5800.00
00805            -158.00    -6600.00
00806            -250.00    -5600.00
00807             228.00    -7200.00
00808             174.00    -6400.00
00809              42.00    -7000.00
00810            -168.00    -7400.00
00811            -102.00    -6800.00
00812             250.00    -8000.00
00813             182.00    -7200.00
00814             -92.00    -8000.00
00815            -108.00    -8000.00
00816              44.00    -7800.00
00817             198.00    -8200.00
00818              74.00    -8000.00
00819             -68.00    -8400.00
00820             -22.00    -8400.00
00821             108.00    -8600.00
00822             156.00    -8800.00
00823              -6.00    -9000.00
00824             -28.00    -9000.00
00825              46.00    -9200.00
00826             122.00    -9200.00
00827             106.00    -9200.00
00828               8.00    -9600.00
00829               6.00    -9600.00
00830              84.00    -9800.00
00831             106.00    -9800.00
00832              68.00   -10000.00
00833              52.00   -10000.00
00834              46.00   -10000.00
00835              98.00   -10400.00
00836              94.00   -10200.00
00837              58.00   -10600.00
00838              58.00   -10400.00
00839              82.00   -10600.00
00840             106.00   -10600.00
00841              92.00   -10800.00
00842              74.00   -10800.00
00843              74.00   -10800.00
00844             100.00   -10800.00
00845             106.00   -11000.00
00846              94.00   -11000.00
00847              94.00   -11000.00
00848             108.00   -11200.00
00849             108.00   -11200.00
00850             108.00   -11400.00
00851             102.00   -11400.00
00852             102.00   -11400.00
00853             124.00   -11400.00
00854             126.00   -11400.00
00855             122.00   -11600.00
00856             118.00   -11600.00
00857             124.00   -11600.00
00858             134.00   -11600.00
00859             138.00   -11800.00
00860             132.00   -11600.00
00861             140.00   -11600.00
00862             148.00   -11600.00
00863             152.00   -11800.00
00864             148.00   -11600.00
00865             150.00   -11800.00
00866             154.00   -11600.00
00867             166.00   -11800.00
00868             170.00   -11800.00
00869             166.00   -11600.00
00870             164.00   -11600.00
00871             170.00   -11800.00
00872             180.00   -11600.00
00873             186.00   -11600.00
00874             180.00   -11600.00
00875             180.00   -11600.00
00876             188.00   -11600.00
00877             186.00   -11600.00
00878             180.00   -11400.00
00879             178.00   -11400.00
00880             178.00   -11400.00
00881             182.00   -11400.00
00882             182.00   -11400.00
00883             168.00   -11400.00
00884             158.00   -11000.00
00885             158.00   -11200.00
00886             158.00   -11000.00
00887             156.00   -11000.00
00888             154.00   -11000.00
00889             146.00   -10800.00
00890             140.00   -10800.00
00891             132.00   -10800.00
00892             132.00   -10600.00
00893             132.00   -10600.00
00894             132.00   -10600.00
00895             122.00   -10400.00
00896             116.00   -10400.00
00897             110.00   -10400.00
00898             108.00   -10200.00
00899             106.00   -10000.00
00900             102.00   -10000.00
00901             100.00    -9800.00
00902              98.00    -9800.00
00903              92.00    -9600.00
00904              86.00    -9600.00
00905              82.00    -9200.00
00906              88.00    -9400.00
00907              86.00    -9200.00
00908              82.00    -9000.00
00909              74.00    -9000.00
00910              74.00    -8800.00
00911              70.00    -8800.00
00912              68.00    -8600.00
00913              66.00    -8400.00
00914              66.00    -8400.00
00915              66.00    -8200.00
00916              62.00    -8200.00
00917              52.00    -8000.00
00918              50.00    -7800.00
00919              52.00    -7600.00
00920              54.00    -7600.00
00921              54.00    -7400.00
00922              50.00    -7200.00
00923              44.00    -7000.00
00924              38.00    -6800.00
00925              42.00    -6800.00
00926              42.00    -6600.00
00927              44.00    -6400.00
00928              38.00    -6200.00
00929              34.00    -6000.00
00930              30.00    -6000.00
00931              36.00    -5800.00
00932              34.00    -5800.00
00933              30.00    -5600.00
00934              26.00    -5200.00
00935              26.00    -5000.00
00936              26.00    -4800.00
00937              26.00    -4600.00
00938              26.00    -4600.00
00939              22.00    -4200.00
00940              26.00    -4200.00
00941              22.00    -4200.00
00942              22.00    -4000.00
00943              20.00    -3800.00
00944              20.00    -3600.00
00945              18.00    -3400.00
00946              12.00    -3200.00
00947              14.00    -2800.00
00948              20.00    -2800.00
00949              20.00    -2600.00
00950              12.00    -2400.00
00951              10.00    -2200.00
00952              10.00    -2000.00
00953              12.00    -1800.00
00954              16.00    -1600.00
00955              10.00    -1600.00
00956               8.00    -1200.00
00957               4.00    -1000.00
00958               4.00    -1000.00
00959               4.00     -800.00
00960               6.00     -400.00
00961               6.00     -200.00
00962               4.00     -200.00
00963               2.00        0.00
00964               4.00      200.00
00965              30.00      400.00
00966              28.00      600.00
00967             -10.00      800.00
00968             -26.00      800.00
00969               6.00     1200.00
00970              30.00     1400.00
00971              34.00     1600.00
00972             156.00     2000.00
00973             250.00     2200.00
00974            -230.00     2200.00
00975            -250.00     2400.00
00976            -116.00     2600.00
00977             250.00     2400.00
00978             250.00     2800.00
00979             220.00     3200.00
00980            -250.00     3000.00
00981            -250.00     3400.00
00982             250.00     3600.00
00983             212.00     3400.00
00984            -250.00     4200.00
00985            -230.00     4000.00
00986             122.00     4400.00
00987             250.00     4400.00
00988              14.00     4400.00
00989            -250.00     5200.00
00990            -190.00     4600.00
00991             250.00     5400.00
00992             250.00     5600.00
00993            -164.00     5200.00
00994            -250.00     6000.00
00995             -14.00     5600.00
00996             234.00     6000.00
00997              44.00     6400.00
00998            -250.00     6200.00
00999            -142.00     6600.00
01000             166.00     6800.00
01001             106.00     7000.00
01002            -158.00     7200.00
01003            -212.00     7200.00
01004             -44.00     7400.00
01005             188.00     7200.00
01006              36.00     7800.00
01007            -236.00     7800.00
01008            -134.00     8000.00
01009              46.00     8200.00
01010              66.00     8200.00
01011             -68.00     8600.00
01012            -166.00     8600.00
01013             -70.00     8800.00
01014              68.00     8800.00
01015             -14.00     8800.00
01016            -146.00     9000.00
01017            -114.00     9200.00
01018             -20.00     9200.00
01019              14.00     9200.00
01020             -58.00     9600.00
01021            -134.00     9600.00
01022             -94.00     9600.00
01023             -14.00     9800.00
01024             -46.00    10000.00
01025             -94.00    10000.00
01026             -94.00    10200.00
01027             -68.00    10200.00
01028             -44.00    10400.00
01029             -86.00    10400.00
01030            -118.00    10400.00
01031             -86.00    10600.00
01032             -62.00    10600.00
01033             -72.00    10800.00
01034             -94.00    10800.00
01035            -114.00    11000.00
01036            -100.00    11000.00
01037             -86.00    11200.00
01038            -104.00    11000.00
01039            -106.00    11200.00
01040             -98.00    11200.00
01041            -104.00    11200.00
01042            -118.00    11200.00
01043            -126.00    11600.00
01044            -124.00    11400.00
01045            -114.00    11600.00
01046            -114.00    11600.00
01047            -124.00    11600.00
01048            -134.00    11600.00
01049            -140.00    11600.00
01050            -142.00    11600.00
01051            -140.00    11600.00
01052            -140.00    11800.00
01053            -142.00    11600.00
01054            -146.00    11800.00
01055            -156.00    11800.00
01056            -166.00    11800.00
01057            -166.00    11800.00
01058            -164.00    11800.00
01059            -160.00    11800.00
01060            -162.00    11800.00
01061            -174.00    11600.00
01062            -186.00    11800.00
01063            -190.00    11800.00
01064            -188.00    11800.00
01065            -178.00    11600.00
01066            -178.00    11800.00
01067            -188.00    11600.00
01068            -194.00    11800.00
01069            -196.00    11600.00
01070            -188.00    11600.00
01071            -186.00    11600.00
01072            -180.00    11600.00
01073            -178.00    11400.00
01074            -178.00    11400.00
01075            -176.00    11200.00
01076            -174.00    11200.00
01077            -168.00    11200.00
01078            -158.00    11200.00
01079            -154.00    11000.00
01080            -150.00    11000.00
01081            -150.00    11000.00
01082            -146.00    10800.00
01083            -146.00    10800.00
01084            -140.00    10800.00
01085            -132.00    10800.00
01086            -122.00    10400.00
01087            -124.00    10400.00
01088            -122.00    10400.00
01089            -122.00    10400.00
01090            -118.00    10200.00
01091            -112.00    10200.00
01092            -102.00    10000.00
01093             -98.00     9800.00
01094             -98.00     9600.00
01095            -100.00     9600.00
01096            -102.00     9600.00
01097             -94.00     9400.00
01098             -84.00     9200.00
01099             -82.00     9200.00
01100             -82.00     9200.00
01101             -80.00     9000.00
01102             -80.00     8800.00
01103             -78.00     8600.00
01104             -76.00     8600.00
01105             -74.00     8400.00
01106             -62.00     8400.00
01107             -62.00     8200.00
01108             -68.00     8000.00
01109             -68.00     8000.00
01110             -66.00     7800.00
01111             -60.00     7600.00
01112             -54.00     7600.00
01113             -56.00     7400.00
01114             -54.00     7200.00
01115             -50.00     7000.00
01116             -54.00     6800.00
01117             -54.00     6800.00
01118             -52.00     6600.00
01119             -44.00     6400.00
01120             -38.00     6200.00
01121             -42.00     6000.00
01122             -46.00     6000.00
01123             -44.00     6000.00
01124             -42.00     5600.00
01125             -38.00     5400.00
01126             -34.00     5400.00
01127             -34.00     5000.00
01128             -36.00     4800.00
01129             -36.00     4600.00
01130             -38.00     4400.00
01131             -32.00     4400.00
01132             -30.00     4000.00
01133             -26.00     4000.00
01134             -26.00     4000.00
01135             -26.00     3600.00
01136             -30.00     3600.00
01137             -30.00     3200.00
01138             -28.00     3200.00
01139             -20.00     2800.00
01140             -14.00     2800.00
01141             -20.00     2600.00
01142             -24.00     2400.00
01143             -20.00     2200.00
01144             -16.00     2000.00
01145             -18.00     2000.00
01146             -20.00     1600.00
01147             -14.00     1400.00
01148             -10.00     1400.00
01149             -10.00      800.00
01150             -18.00      800.00
01151             -18.00      600.00
01152             -10.00      400.00
01153              -2.00      200.00
01154              -2.00        0.00
01155              -6.00     -200.00
01156              -4.00     -200.00
01157              20.00     -400.00
01158              20.00     -600.00
01159             -12.00     -800.00
01160             -26.00    -1000.00
01161               6.00    -1200.00
01162              28.00    -1400.00
01163             104.00    -1600.00
01164             250.00    -1800.00
01165             -38.00    -2200.00
01166            -250.00    -2400.00
01167            -250.00    -2600.00
01168             250.00    -2600.00
01169             250.00    -2200.00
01170             250.00    -3400.00
01171            -250.00    -2800.00
01172            -250.00    -2600.00
01173             250.00    -4200.00
01174              94.00    -3000.00
01175            -250.00    -4000.00
01176            -250.00    -4400.00
01177               4.00    -3200.00
01178             250.00    -5200.00
01179            -132.00    -4200.00
01180            -250.00    -4400.00
01181            -102.00    -5800.00
01182             130.00    -4000.00
01183             250.00    -5800.00
01184            -208.00    -5600.00
01185            -250.00    -5000.00
01186              84.00    -6800.00
01187             226.00    -5200.00
01188             226.00    -6400.00
01189            -250.00    -6200.00
01190             -82.00    -6000.00
01191             250.00    -7200.00
01192             128.00    -6400.00
01193             -14.00    -7400.00
01194            -214.00    -6800.00
01195              24.00    -7200.00
01196             250.00    -7800.00
01197              84.00    -7200.00
01198            -130.00    -8000.00
01199             -78.00    -7600.00
01200             108.00    -8200.00
01201             196.00    -8400.00
01202              12.00    -8200.00
01203             -74.00    -8400.00
01204               6.00    -8400.00
01205             148.00    -8800.00
01206             116.00    -8800.00
01207             -36.00    -9000.00
01208              -6.00    -9000.00
01209              68.00    -9200.00
01210             132.00    -9200.00
01211              70.00    -9200.00
01212              -6.00    -9600.00
01213              26.00    -9600.00
01214             102.00    -9800.00
01215              94.00    -9800.00
01216              58.00   -10000.00
01217              44.00   -10000.00
01218              58.00   -10200.00
01219             104.00   -10400.00
01220              82.00   -10200.00
01221              58.00   -10400.00
01222              62.00   -10400.00
01223              86.00   -10600.00
01224             100.00   -10600.00
01225              86.00   -10800.00
01226              74.00   -10800.00
01227              86.00   -11000.00
01228             100.00   -10800.00
01229              98.00   -11000.00
01230              94.00   -11200.00
01231             100.00   -11000.00
01232             108.00   -11000.00
01233             106.00   -11200.00
01234             108.00   -11200.00
01235             104.00   -11400.00
01236             108.00   -11400.00
01237             126.00   -11200.00
01238             122.00   -11400.00
01239             124.00   -11600.00
01240             122.00   -11600.00
01241             124.00   -11600.00
01242             132.00   -11800.00
01243             134.00   -11600.00
01244             138.00   -11600.00
01245             146.00   -11600.00
01246             148.00   -11800.00
01247             148.00   -11800.00
01248             146.00   -11800.00
01249             150.00   -11600.00
01250             158.00   -11600.00
01251             170.00   -11800.00
01252             172.00   -11600.00
01253             164.00   -11600.00
01254             164.00   -12000.00
01255             170.00   -11600.00
01256             184.00   -11600.00
01257             188.00   -11600.00
01258             182.00   -11600.00
01259             180.00   -11800.00
01260             180.00   -11600.00
01261             182.00   -11400.00
01262             182.00   -11600.00
01263             180.00   -11600.00
01264             180.00   -11400.00
01265             178.00   -11400.00
01266             172.00   -11400.00
01267             164.00   -11400.00
01268             162.00   -11400.00
01269             162.00   -11000.00
01270             158.00   -11200.00
01271             152.00   -11000.00
01272             148.00   -11000.00
01273             146.00   -10800.00
01274             138.00   -10800.00
01275             132.00   -10800.00
01276             132.00   -10600.00
01277             130.00   -10600.00
01278             124.00   -10600.00
01279             116.00   -10600.00
01280             110.00   -10200.00
01281             114.00   -10400.00
01282             112.00   -10200.00
01283             106.00   -10000.00
01284             100.00   -10000.00
01285              98.00    -9800.00
01286              96.00    -9800.00
01287              94.00    -9600.00
01288              88.00    -9600.00
01289              84.00    -9400.00
01290              84.00    -9400.00
01291              82.00    -9200.00
01292              82.00    -9000.00
01293              78.00    -9000.00
01294              70.00    -8800.00
01295              68.00    -8800.00
01296              64.00    -8400.00
01297              66.00    -8400.00
01298              68.00    -8200.00
01299              62.00    -8200.00
01300              58.00    -8000.00
01301              58.00    -8000.00
01302              58.00    -7800.00
01303              54.00    -7800.00
01304              48.00    -7400.00
01305              50.00    -7400.00
01306              54.00    -7200.00
01307              46.00    -7200.00
01308              40.00    -6800.00
01309              42.00    -6800.00
01310              42.00    -6400.00
01311              44.00    -6600.00
01312              36.00    -6400.00
01313              34.00    -6200.00
01314              36.00    -6000.00
01315              36.00    -5800.00
01316              34.00    -5600.00
01317              28.00    -5600.00
01318              28.00    -5200.00
01319              28.00    -5000.00
01320              30.00    -5000.00
01321              26.00    -4600.00
01322              22.00    -4400.00
01323              22.00    -4400.00
01324              24.00    -4200.00
01325              22.00    -4000.00
01326              24.00    -4000.00
01327              20.00    -3600.00
01328              18.00    -3400.00
01329              12.00    -3400.00
01330              14.00    -3000.00
01331              20.00    -2800.00
01332              18.00    -2600.00
01333              14.00    -2600.00
01334              10.00    -2400.00
01335              12.00    -2200.00
01336              12.00    -2000.00
01337              10.00    -1800.00
01338               6.00    -1600.00
01339              14.00    -1400.00
01340              12.00    -1200.00
01341               4.00    -1000.00
01342               2.00     -800.00
01343               4.00     -600.00
01344               6.00     -400.00
01345               6.00     -200.00
01346               4.00        0.00
01347               2.00        0.00
01348              14.00      400.00
01349              36.00      400.00
01350              16.00      600.00
01351             -22.00      800.00
01352             -18.00     1000.00
01353              18.00     1200.00
01354              34.00     1400.00
01355              54.00     1800.00
01356             226.00     2000.00
01357             158.00     2200.00
01358            -250.00     2200.00
01359            -250.00     2400.00
01360             108.00     2400.00
01361             250.00     2600.00
01362             250.00     3200.00
01363               8.00     3200.00
01364            -250.00     3200.00
01365              26.00     3600.00
01366             250.00     3400.00
01367            -110.00     3800.00
01368            -250.00     4000.00
01369            -110.00     4000.00
01370             228.00     4600.00
01371             250.00     4400.00
01372            -194.00     4800.00
01373            -250.00     5000.00
01374             -22.00     4800.00
01375             250.00     5800.00
01376             152.00     5200.00
01377            -250.00     5400.00
01378            -250.00     6000.00
01379             110.00     5600.00
01380             220.00     6200.00
01381             -78.00     6200.00
01382            -250.00     6400.00
01383             -30.00     6800.00
01384             206.00     6600.00
01385              18.00     7000.00
01386            -202.00     7000.00
01387            -188.00     7200.00
01388              46.00     7600.00
01389             190.00     7600.00
01390             -76.00     7800.00
01391            -238.00     7800.00
01392             -66.00     8000.00
01393              68.00     8200.00
01394              30.00     8400.00
01395            -118.00     8400.00
01396            -162.00     8400.00
01397             -10.00     8600.00
01398              70.00     8800.00
01399             -74.00     8800.00
01400            -158.00     9200.00
01401             -82.00     9400.00
01402               6.00     9200.00
01403               4.00     9400.00
01404             -94.00     9600.00
01405            -140.00     9600.00
01406             -60.00     9800.00
01407             -14.00     9800.00
01408             -68.00     9800.00
01409            -102.00    10000.00
01410             -90.00    10200.00
01411             -54.00    10200.00
01412             -52.00    10400.00
01413            -108.00    10400.00
01414            -114.00    10400.00
01415             -70.00    10600.00
01416             -62.00    10600.00
01417             -82.00    10800.00
01418            -108.00    10800.00
01419            -114.00    11000.00
01420             -90.00    11000.00
01421             -86.00    11000.00
01422            -106.00    11200.00
01423            -108.00    11200.00
01424            -102.00    11200.00
01425            -108.00    11200.00
01426            -116.00    11400.00
01427            -124.00    11400.00
01428            -124.00    11600.00
01429            -116.00    11600.00
01430            -114.00    11600.00
01431            -124.00    11600.00
01432            -138.00    11800.00
01433            -142.00    11600.00
01434            -140.00    11800.00
01435            -134.00    11800.00
01436            -138.00    11800.00
01437            -146.00    11800.00
01438            -154.00    11800.00
01439            -158.00    11800.00
01440            -158.00    11800.00
01441            -164.00    11600.00
01442            -166.00    11800.00
01443            -166.00    11600.00
01444            -166.00    11800.00
01445            -174.00    11800.00
01446            -184.00    11800.00
01447            -190.00    11600.00
01448            -188.00    11600.00
01449            -182.00    11600.00
01450            -182.00    11600.00
01451            -188.00    11600.00
01452            -190.00    11600.00
01453            -194.00    11600.00
01454            -194.00    11400.00
01455            -186.00    11600.00
01456            -178.00    11600.00
01457            -178.00    11200.00
01458            -174.00    11200.00
01459            -178.00    11200.00
01460            -174.00    11200.00
01461            -170.00    11200.00
01462            -162.00    11000.00
01463            -154.00    11000.00
01464            -146.00    11000.00
01465            -148.00    11000.00
01466            -150.00    10800.00
01467            -148.00    10800.00
01468            -136.00    10800.00
01469            -126.00    10800.00
01470            -122.00    10600.00
01471            -126.00    10400.00
01472            -124.00    10400.00
01473            -118.00    10200.00
01474            -118.00    10000.00
01475            -110.00    10200.00
01476            -102.00    10000.00
01477             -98.00     9800.00
01478             -94.00     9800.00
01479            -102.00     9600.00
01480            -100.00     9600.00
01481             -92.00     9400.00
01482             -84.00     9400.00
01483             -82.00     9200.00
01484             -82.00     9200.00
01485             -84.00     9000.00
01486             -78.00     8800.00
01487             -74.00     8800.00
01488             -74.00     8600.00
01489             -68.00     8400.00
01490             -68.00     8200.00
01491             -66.00     8200.00
01492             -66.00     8000.00
01493             -62.00     8000.00
01494             -62.00     7800.00
01495             -60.00     7600.00
01496             -54.00     7600.00
01497             -52.00     7200.00
01498             -50.00     7200.00
01499             -52.00     7000.00
01500             -54.00     6800.00
01501             -48.00     6800.00
01502             -44.00     6400.00
01503             -44.00     6200.00
01504             -46.00     6200.00
01505             -46.00     6000.00
01506             -40.00     5800.00
01507             -42.00     5800.00
01508             -42.00     5400.00
01509             -36.00     5400.00
01510             -34.00     5200.00
01511             -30.00     5000.00
01512             -36.00     4800.00
01513             -38.00     4600.00
01514             -34.00     4400.00
01515             -28.00     4200.00
01516             -28.00     4000.00
01517             -30.00     4000.00
01518             -30.00     3800.00
01519             -28.00     3600.00
01520             -26.00     3400.00
01521             -26.00     3200.00
01522             -22.00     3000.00
01523             -22.00     2800.00
01524             -22.00     2800.00
01525             -20.00     2400.00
01526             -20.00     2200.00
01527             -20.00     2200.00
01528             -20.00     2000.00
01529             -18.00     1600.00
01530             -12.00     1400.00
01531              -8.00     1200.00
01532             -12.00     1200.00
01533             -10.00     1200.00
01534             -18.00      600.00
01535             -26.00      400.00
01536              -8.00      400.00
01537             -26.00      200.00
01538             -28.00        0.00
01539              24.00     -200.00
01540             -10.00     -200.00
01541              68.00     -400.00
01542              62.00     -800.00
01543             -62.00     -800.00
01544             -30.00    -1200.00
01545             -10.00    -1000.00
01546              52.00    -1400.00
01547             180.00    -1600.00
01548             250.00    -2000.00
01549            -250.00    -2600.00
01550            -250.00    -2400.00
01551             -94.00    -2800.00
01552             250.00    -2400.00
01553             250.00    -2400.00
01554             -22.00    -3600.00
01555            -250.00    -2600.00
01556             248.00    -3600.00
01557             250.00    -4200.00
01558            -198.00    -2800.00
01559            -250.00    -4400.00
01560            -250.00    -3800.00
01561             250.00    -3600.00
01562             250.00    -5600.00
01563            -250.00    -3600.00
01564            -250.00    -5200.00
01565             -90.00    -5200.00
01566             250.00    -4200.00
01567             250.00    -6400.00
01568            -250.00    -4600.00
01569            -148.00    -5800.00
01570             116.00    -6400.00
01571             250.00    -5200.00
01572              68.00    -7000.00
01573            -250.00    -5800.00
01574             100.00    -6600.00
01575             218.00    -6800.00
01576              74.00    -6400.00
01577             -90.00    -7800.00
01578            -188.00    -6600.00
01579             156.00    -7400.00
01580             250.00    -7400.00
01581             -18.00    -7400.00
01582            -138.00    -8000.00
01583             -18.00    -7600.00
01584             166.00    -8200.00
01585             142.00    -8000.00
01586             -46.00    -8200.00
01587             -54.00    -8400.00
01588              62.00    -8400.00
01589             170.00    -8800.00
01590              52.00    -8800.00
01591             -46.00    -9000.00
01592              20.00    -9000.00
01593              94.00    -9200.00
01594             126.00    -9400.00
01595              34.00    -9600.00
01596              -4.00    -9400.00
01597              56.00    -9600.00
01598             106.00    -9800.00
01599              76.00   -10000.00
01600              58.00   -10000.00
01601              42.00    -9800.00
01602              68.00   -10000.00
01603             100.00   -10200.00
01604              68.00   -10400.00
01605              62.00   -10400.00
01606              74.00   -10400.00
01607              92.00   -10600.00
01608              98.00   -10600.00
01609              82.00   -10800.00
01610              74.00   -10800.00
01611              90.00   -10800.00
01612              96.00   -11000.00
01613              98.00   -11200.00
01614             100.00   -11200.00
01615             104.00   -11200.00
01616             106.00   -11400.00
01617             108.00   -11000.00
01618             112.00   -11200.00
01619             102.00   -11400.00
01620             112.00   -11400.00
01621             122.00   -11600.00
01622             124.00   -11400.00
01623             126.00   -11600.00
01624             120.00   -11600.00
01625             128.00   -11800.00
01626             142.00   -11600.00
01627             138.00   -11600.00
01628             140.00   -12000.00
01629             140.00   -11600.00
01630             146.00   -11800.00
01631             154.00   -11800.00
01632             152.00   -11800.00
01633             148.00   -11800.00
01634             158.00   -12000.00
01635             172.00   -11800.00
01636             172.00   -11600.00
01637             164.00   -11800.00
01638             162.00   -11800.00
01639             176.00   -11800.00
01640             188.00   -11600.00
01641             186.00   -11600.00
01642             178.00   -11600.00
01643             178.00   -11600.00
01644             180.00   -11600.00
01645             186.00   -11600.00
01646             182.00   -11600.00
01647             180.00   -11400.00
01648             178.00   -11400.00
01649             172.00   -11400.00
01650             172.00   -11600.00
01651             166.00   -11200.00
01652             160.00   -11400.00
01653             154.00   -11000.00
01654             154.00   -11200.00
01655             154.00   -11000.00
01656             150.00   -11000.00
01657             142.00   -11000.00
01658             134.00   -10800.00
01659             130.00   -10800.00
01660             130.00   -10600.00
01661             130.00   -10400.00
01662             126.00   -10400.00
01663             118.00   -10400.00
01664             114.00   -10400.00
01665             108.00   -10400.00
01666             106.00   -10000.00
01667             102.00   -10000.00
01668              98.00    -9800.00
01669             100.00    -9800.00
01670              92.00    -9800.00
01671              88.00    -9600.00
01672              88.00    -9400.00
01673              84.00    -9400.00
01674              84.00    -9200.00
01675              84.00    -9200.00
01676              78.00    -9000.00
01677              74.00    -9000.00
01678              68.00    -8800.00
01679              68.00    -8800.00
01680              68.00    -8400.00
01681              68.00    -8400.00
01682              62.00    -8200.00
01683              60.00    -8200.00
01684              60.00    -8000.00
01685              60.00    -8000.00
01686              54.00    -7600.00
01687              52.00    -7400.00
01688              50.00    -7400.00
01689              56.00    -7200.00
01690              52.00    -7200.00
01691              42.00    -7000.00
01692              42.00    -6800.00
01693              46.00    -6600.00
01694              44.00    -6600.00
01695              42.00    -6400.00
01696              36.00    -6200.00
01697              36.00    -6000.00
01698              42.00    -5800.00
01699              34.00    -5600.00
01700              30.00    -5600.00
01701              30.00    -5200.00
01702              34.00    -5000.00
01703              32.00    -5000.00
01704              22.00    -4800.00
01705              20.00    -4600.00
01706              26.00    -4400.00
01707              26.00    -4200.00
01708              24.00    -4200.00
01709              22.00    -4000.00
01710              22.00    -3600.00
01711              20.00    -3400.00
01712              18.00    -3400.00
01713              12.00    -3200.00
01714              18.00    -3200.00
01715              22.00    -2800.00
01716              16.00    -2600.00
01717              12.00    -2600.00
01718               6.00    -2400.00
01719              10.00    -2000.00
01720              12.00    -1800.00
01721              12.00    -1600.00
01722              10.00    -1600.00
01723               6.00    -1200.00
01724               4.00    -1000.00
01725               4.00    -1000.00
01726               6.00     -800.00
01727               4.00     -600.00
01728               2.00     -400.00
01729               4.00     -200.00
01730               4.00        0.00
01731              10.00      200.00
01732              20.00      400.00
01733              34.00      600.00
01734               0.00      800.00
01735             -28.00      800.00
01736              -6.00     1200.00
01737              26.00     1200.00
01738              28.00     1400.00
01739              94.00     1800.00
01740             250.00     2000.00
01741             -14.00     2200.00
01742            -250.00     2200.00
01743            -250.00     2400.00
01744             250.00     2400.00
01745             250.00     2800.00
01746             250.00     3200.00
01747            -250.00     3000.00
01748            -250.00     3200.00
01749             250.00     3600.00
01750             250.00     3400.00
01751            -250.00     4000.00
01752            -250.00     4000.00
01753               4.00     4400.00
01754             250.00     4600.00
01755             214.00     4400.00
01756            -250.00     4800.00
01757            -250.00     4800.00
01758             134.00     5200.00
01759             250.00     5800.00
01760              -2.00     5000.00
01761            -250.00     6000.00
01762            -150.00     5800.00
01763             194.00     5600.00
01764             162.00     6400.00
01765            -190.00     6400.00
01766            -244.00     6400.00
01767              80.00     6800.00
01768             182.00     6800.00
01769             -76.00     7000.00
01770            -222.00     7200.00
01771            -134.00     7200.00
01772             132.00     7600.00
01773             142.00     7600.00
01774            -174.00     7800.00
01775            -202.00     7800.00
01776              -4.00     8200.00
01777              76.00     8200.00
01778             -12.00     8400.00
01779            -156.00     8400.00
01780            -126.00     8600.00
01781              42.00     8800.00
01782              36.00     8800.00
01783            -122.00     8800.00
01784            -142.00     9200.00
01785             -50.00     9200.00
01786              18.00     9400.00
01787             -22.00     9400.00
01788            -122.00     9600.00
01789            -122.00     9600.00
01790             -38.00     9800.00
01791             -26.00     9800.00
01792             -82.00    10000.00
01793             -98.00    10000.00
01794             -82.00    10400.00
01795             -52.00    10200.00
01796             -72.00    10400.00
01797            -116.00    10400.00
01798            -100.00    10600.00
01799             -68.00    10600.00
01800             -70.00    10800.00
01801             -88.00    11000.00
01802            -110.00    11000.00
01803            -108.00    11000.00
01804             -86.00    11000.00
01805             -94.00    11200.00
01806            -110.00    11200.00
01807            -102.00    11200.00
01808            -102.00    11200.00
01809            -114.00    11400.00
01810            -122.00    11400.00
01811            -126.00    11600.00
01812            -118.00    11600.00
01813            -108.00    11600.00
01814            -118.00    11600.00
01815            -134.00    11800.00
01816            -140.00    11600.00
01817            -138.00    11600.00
01818            -134.00    11600.00
01819            -136.00    11800.00
01820            -144.00    11600.00
01821            -148.00    11800.00
01822            -150.00    11800.00
01823            -156.00    11800.00
01824            -164.00    11800.00
01825            -166.00    11800.00
01826            -162.00    11800.00
01827            -158.00    11800.00
01828            -172.00    11800.00
01829            -186.00    11800.00
01830            -188.00    11800.00
01831            -182.00    11800.00
01832            -182.00    11800.00
01833            -182.00    11800.00
01834            -188.00    11600.00
01835            -190.00    11600.00
01836            -190.00    11600.00
01837            -194.00    11600.00
01838            -194.00    11600.00
01839            -180.00    11400.00
01840            -178.00    11400.00
01841            -178.00    11600.00
01842            -178.00    11600.00
01843            -174.00    11200.00
01844            -172.00    11200.00
01845            -166.00    11200.00
01846            -158.00    11000.00
01847            -150.00    11200.00
01848            -148.00    10800.00
01849            -150.00    11000.00
01850            -148.00    11000.00
01851            -146.00    10800.00
01852            -134.00    10800.00
01853            -124.00    10600.00
01854            -124.00    10400.00
01855            -124.00    10400.00
01856            -124.00    10400.00
01857            -124.00    10400.00
01858            -116.00    10200.00
01859            -102.00    10000.00
01860            -100.00    10000.00
01861             -98.00    10000.00
01862            -102.00     9800.00
01863            -100.00     9600.00
01864             -92.00     9400.00
01865             -90.00     9200.00
01866             -84.00     9200.00
01867             -84.00     9200.00
01868             -82.00     9000.00
01869             -78.00     9000.00
01870             -78.00     8800.00
01871             -76.00     8800.00
01872             -70.00     8600.00
01873             -66.00     8400.00
01874             -62.00     8400.00
01875             -64.00     8200.00
01876             -64.00     8000.00
01877             -64.00     8000.00
01878             -60.00     7800.00
01879             -54.00     7600.00
01880             -52.00     7200.00
01881             -54.00     7200.00
01882             -54.00     7000.00
01883             -52.00     7000.00
01884             -50.00     6800.00
01885             -46.00     6800.00
01886             -44.00     6400.00
01887             -44.00     6400.00
01888             -44.00     6200.00
01889             -38.00     6000.00
01890             -42.00     6000.00
01891             -44.00     5600.00
01892             -38.00     5600.00
01893             -34.00     5200.00
01894             -30.00     5200.00
01895             -38.00     4800.00
01896             -40.00     4800.00
01897             -36.00     4600.00
01898             -28.00     4400.00
01899             -30.00     4200.00
01900             -30.00     4000.00
01901             -28.00     3800.00
01902             -28.00     3800.00
01903             -28.00     3600.00
01904             -30.00     3400.00
01905             -28.00     3200.00
01906             -20.00     3000.00
01907             -18.00     2800.00
01908             -20.00     2600.00
01909             -26.00     2400.00
01910             -22.00     2200.00
01911             -20.00     2000.00
01912             -14.00     1800.00
01913             -16.00     1600.00
01914             -18.00     1400.00
01915             -14.00     1200.00
01916             -14.00     1200.00
01917             -14.00      800.00
01918             -14.00      600.00
01919             -12.00      400.00
01920              -6.00      200.00
01921              -4.00        0.00
01922              -4.00     -200.00
01923              -6.00     -200.00
01924              10.00     -400.00
01925              28.00     -400.00
01926               2.00     -800.00
01927             -30.00    -1000.00
01928             -12.00    -1000.00
01929              20.00    -1200.00
01930              58.00    -1200.00
01931             250.00    -1600.00
01932             184.00    -2200.00
01933            -250.00    -2400.00
01934            -250.00    -2400.00
01935              84.00    -2800.00
01936             250.00    -2400.00
01937             250.00    -2600.00
01938            -250.00    -3400.00
01939            -250.00    -2600.00
01940             250.00    -4000.00
01941             250.00    -3600.00
01942            -250.00    -3200.00
01943            -250.00    -4800.00
01944            -250.00    -3400.00
01945             250.00    -4400.00
01946             250.00    -5000.00
01947            -250.00    -3600.00
01948            -142.00    -5800.00
01949             -32.00    -4400.00
01950             250.00    -4800.00
01951             130.00    -6000.00
01952            -250.00    -4600.00
01953              -6.00    -6400.00
01954             156.00    -5800.00
01955             250.00    -5800.00
01956            -142.00    -6800.00
01957            -250.00    -5600.00
01958             224.00    -7000.00
01959             180.00    -6400.00
01960              48.00    -6800.00
01961            -170.00    -7400.00
01962            -110.00    -6800.00
01963             250.00    -7800.00
01964             196.00    -7000.00
01965             -86.00    -7800.00
01966            -118.00    -8000.00
01967              36.00    -8000.00
01968             196.00    -8400.00
01969              82.00    -8000.00
01970             -68.00    -8400.00
01971             -30.00    -8400.00
01972             106.00    -8800.00
01973             158.00    -8800.00
01974              -6.00    -9000.00
01975             -30.00    -8800.00
01976              44.00    -9200.00
01977             118.00    -9200.00
01978             106.00    -9200.00
01979               4.00    -9600.00
01980               4.00    -9600.00
01981              82.00    -9800.00
01982             106.00    -9800.00
01983              62.00   -10000.00
01984              46.00   -10000.00
01985              44.00   -10000.00
01986              96.00   -10400.00
01987              92.00   -10400.00
01988              58.00   -10400.00
01989              60.00   -10600.00
01990              76.00   -10600.00
01991             100.00   -10600.00
01992              98.00   -10600.00
01993              78.00   -10800.00
01994              76.00   -11000.00
01995              92.00   -10800.00
01996              98.00   -11000.00
01997             100.00   -11000.00
01998             100.00   -11200.00
01999             106.00   -11000.00
02000             102.00   -11200.00
02001             106.00   -11200.00
02002             106.00   -11400.00
02003             106.00   -11400.00
02004             126.00   -11600.00
02005             126.00   -11400.00
02006             124.00   -11600.00
02007             118.00   -11600.00
02008             118.00   -11600.00
02009             132.00   -11600.00
02010             138.00   -11600.00
02011             140.00   -11600.00
02012             146.00   -11600.00
02013             146.00   -11800.00
02014             148.00   -11600.00
02015             150.00   -11600.00
02016             150.00   -11800.00
02017             162.00   -11800.00
02018             170.00   -11800.00
02019             172.00   -11600.00
02020             166.00   -11800.00
02021             164.00   -11800.00
02022             172.00   -11800.00
02023             182.00   -11600.00
02024             182.00   -11600.00
02025             180.00   -11600.00
02026             182.00   -11600.00
02027             186.00   -11600.00
02028             180.00   -11600.00
02029             178.00   -11600.00
02030             182.00   -11400.00
02031             186.00   -11400.00
02032             178.00   -11400.00
02033             172.00   -11600.00
02034             166.00   -11200.00
02035             166.00   -11000.00
02036             162.00   -11200.00
02037             156.00   -11000.00
02038             154.00   -11000.00
02039             152.00   -10800.00
02040             146.00   -11000.00
02041             138.00   -10800.00
02042             134.00   -10800.00
02043             132.00   -10800.00
02044             132.00   -10600.00
02045             126.00   -10600.00
02046             118.00   -10400.00
02047             116.00   -10400.00
02048             116.00   -10400.00
02049             108.00   -10200.00
02050             104.00   -10000.00
02051             100.00   -10000.00
02052             100.00    -9800.00
02053             100.00    -9800.00
02054              92.00    -9600.00
02055              88.00    -9600.00
02056              84.00    -9400.00
02057              84.00    -9400.00
02058              82.00    -9200.00
02059              82.00    -9000.00
02060              74.00    -9000.00
02061              74.00    -9000.00
02062              70.00    -8800.00
02063              68.00    -8800.00
02064              66.00    -8400.00
02065              66.00    -8400.00
02066              60.00    -8200.00
02067              62.00    -8200.00
02068              60.00    -8000.00
02069              58.00    -8000.00
02070              52.00    -7800.00
02071              48.00    -7600.00
02072              56.00    -7400.00
02073              58.00    -7200.00
02074              46.00    -7000.00
02075              38.00    -6800.00
02076              42.00    -6800.00
02077              42.00    -6600.00
02078              44.00    -6400.00
02079              44.00    -6200.00
02080              36.00    -6200.00
02081              36.00    -6000.00
02082              34.00    -5800.00
02083              32.00    -5600.00
02084              34.00    -5400.00
02085              34.00    -5200.00
02086              30.00    -5000.00
02087              26.00    -5000.00
02088              24.00    -4600.00
02089              28.00    -4400.00
02090              28.00    -4400.00
02091              22.00    -4200.00
02092              22.00    -4000.00
02093              22.00    -4000.00
02094              22.00    -3600.00
02095              18.00    -3600.00
02096              14.00    -3200.00
02097              18.00    -3200.00
02098              18.00    -3000.00
02099              18.00    -2800.00
02100              12.00    -2600.00
02101              12.00    -2400.00
02102              12.00    -2200.00
02103              10.00    -2000.00
02104               6.00    -1800.00
02105              12.00    -1600.00
02106              12.00    -1600.00
02107              10.00    -1200.00
02108               4.00    -1000.00
02109              -2.00    -1000.00
02110               4.00     -800.00
02111               6.00     -400.00
02112               6.00     -400.00
02113               4.00     -200.00
02114               2.00        0.00
02115               2.00      200.00
02116              26.00      400.00
02117              28.00      600.00
02118             -10.00      800.00
02119             -26.00      800.00
02120               2.00     1200.00
02121              26.00     1400.00
02122              38.00     1400.00
02123             158.00     1800.00
02124             250.00     2000.00
02125            -228.00     2200.00
02126            -250.00     2400.00
02127            -126.00     2400.00
02128             250.00     2400.00
02129             250.00     2800.00
02130             224.00     3200.00
02131            -250.00     3000.00
02132            -250.00     3600.00
02133             250.00     3600.00
02134             236.00     3400.00
02135            -250.00     4000.00
02136            -236.00     4000.00
02137             110.00     4600.00
02138             250.00     4600.00
02139              34.00     4600.00
02140            -250.00     5200.00
02141            -198.00     4800.00
02142             250.00     5400.00
02143             250.00     5600.00
02144            -154.00     5200.00
02145            -250.00     6200.00
02146             -18.00     5800.00
02147             236.00     6200.00
02148              52.00     6400.00
02149            -250.00     6200.00
02150            -150.00     6800.00
02151             170.00     6800.00
02152             118.00     7000.00
02153            -156.00     7000.00
02154            -220.00     7200.00
02155             -50.00     7400.00
02156             190.00     7400.00
02157              42.00     7600.00
02158            -236.00     7600.00
02159            -134.00     8000.00
02160              42.00     8200.00
02161              60.00     8200.00
02162             -70.00     8600.00
02163            -170.00     8400.00
02164             -68.00     8400.00
02165              68.00     8600.00
02166             -20.00     8800.00
02167            -150.00     9000.00
02168            -110.00     9200.00
02169             -18.00     9200.00
02170              14.00     9400.00
02171             -62.00     9400.00
02172            -132.00     9600.00
02173             -92.00     9800.00
02174             -18.00    10000.00
02175             -46.00     9800.00
02176            -100.00    10000.00
02177             -94.00    10000.00
02178             -68.00    10200.00
02179             -46.00    10400.00
02180             -90.00    10400.00
02181            -122.00    10400.00
02182             -92.00    10600.00
02183             -62.00    10600.00
02184             -70.00    10800.00
02185             -94.00    10800.00
02186            -116.00    11000.00
02187            -106.00    11000.00
02188             -88.00    11000.00
02189             -98.00    11200.00
02190            -104.00    11000.00
02191            -106.00    11200.00
02192            -108.00    11200.00
02193            -116.00    11600.00
02194            -122.00    11200.00
02195            -124.00    11600.00
02196            -116.00    11400.00
02197            -108.00    11600.00
02198            -122.00    11600.00
02199            -138.00    11800.00
02200            -140.00    11800.00
02201            -138.00    11600.00
02202            -136.00    11800.00
02203            -140.00    11600.00
02204            -146.00    11600.00
02205            -148.00    11800.00
02206            -152.00    11800.00
02207            -158.00    11800.00
02208            -164.00    11800.00
02209            -164.00    11800.00
02210            -162.00    11800.00
02211            -158.00    11800.00
02212            -172.00    11800.00
02213            -182.00    11800.00
02214            -186.00    11800.00
02215            -188.00    11800.00
02216            -180.00    11800.00
02217            -178.00    11600.00
02218            -184.00    11600.00
02219            -190.00    11600.00
02220            -194.00    11600.00
02221            -194.00    11600.00
02222            -182.00    11400.00
02223            -178.00    11400.00
02224            -178.00    11400.00
02225            -174.00    11400.00
02226            -172.00    11200.00
02227            -174.00    11200.00
02228            -172.00    11200.00
02229            -166.00    11000.00
02230            -150.00    11000.00
02231            -142.00    11000.00
02232            -154.00    11000.00
02233            -150.00    11000.00
02234            -148.00    10800.00
02235            -134.00    10800.00
02236            -132.00    10600.00
02237            -126.00    10400.00
02238            -124.00    10400.00
02239            -122.00    10400.00
02240            -118.00    10400.00
02241            -118.00    10200.00
02242            -118.00    10000.00
02243            -106.00    10000.00
02244             -98.00     9800.00
02245             -94.00     9800.00
02246            -102.00     9600.00
02247            -100.00     9400.00
02248             -94.00     9400.00
02249             -88.00     9400.00
02250             -82.00     9200.00
02251             -76.00     9200.00
02252             -80.00     8800.00
02253             -84.00     9000.00
02254             -84.00     8800.00
02255             -76.00     8600.00
02256             -66.00     8400.00
02257             -62.00     8400.00
02258             -66.00     8400.00
02259             -68.00     8000.00
02260             -68.00     8000.00
02261             -62.00     8200.00
02262             -58.00     7600.00
02263             -52.00     7600.00
02264             -52.00     7400.00
02265             -54.00     7200.00
02266             -54.00     7000.00
02267             -52.00     7000.00
02268             -50.00     6800.00
02269             -46.00     6800.00
02270             -46.00     6400.00
02271             -44.00     6200.00
02272             -40.00     6200.00
02273             -42.00     6000.00
02274             -44.00     5800.00
02275             -44.00     5600.00
02276             -38.00     5400.00
02277             -32.00     5400.00
02278             -30.00     5200.00
02279             -36.00     4800.00
02280             -36.00     4800.00
02281             -36.00     4600.00
02282             -34.00     4400.00
02283             -28.00     4400.00
02284             -26.00     4000.00
02285             -24.00     3800.00
02286             -28.00     3600.00
02287             -32.00     3600.00
02288             -30.00     3200.00
02289             -22.00     3200.00
02290             -22.00     2800.00
02291             -20.00     2800.00
02292             -22.00     2600.00
02293             -22.00     2200.00
02294             -22.00     2000.00
02295             -22.00     2000.00
02296             -20.00     1800.00
02297             -12.00     1600.00
02298             -10.00     1400.00
02299             -18.00     1200.00
02300             -20.00     1000.00
02301             -14.00      800.00
02302             -12.00      600.00
02303             -12.00      600.00
02304             -12.00      200.00
02305              -6.00        0.00
02306              -2.00     -200.00
02307              -4.00     -200.00
02308              18.00     -400.00
02309              18.00     -600.00
02310             -18.00     -800.00
02311             -24.00    -1000.00
02312               6.00    -1000.00
02313              26.00    -1200.00
02314             102.00    -1400.00
02315             250.00    -1800.00
02316             -28.00    -2400.00
02317            -250.00    -2200.00
02318            -250.00    -2600.00
02319             238.00    -2800.00
02320             250.00    -2400.00
02321             250.00    -3200.00
02322            -250.00    -3000.00
02323            -250.00    -2800.00
02324             250.00    -4200.00
02325             110.00    -3200.00
02326            -250.00    -3800.00
02327            -250.00    -4400.00
02328              -6.00    -3200.00
02329             250.00    -5200.00
02330            -112.00    -4400.00
02331            -250.00    -4200.00
02332            -106.00    -5800.00
02333             116.00    -4000.00
02334             250.00    -5800.00
02335            -190.00    -5400.00
02336            -250.00    -5000.00
02337              78.00    -6600.00
02338             218.00    -5200.00
02339             236.00    -6600.00
02340            -250.00    -6200.00
02341             -90.00    -6000.00
02342             250.00    -7200.00
02343             126.00    -6200.00
02344             -10.00    -7400.00
02345            -210.00    -7000.00
02346              18.00    -7000.00
02347             250.00    -7800.00
02348              90.00    -7200.00
02349            -130.00    -8000.00
02350             -76.00    -7600.00
02351             108.00    -8000.00
02352             194.00    -8200.00
02353               8.00    -8200.00
02354             -74.00    -8400.00
02355               6.00    -8400.00
02356             154.00    -8800.00
02357             114.00    -8800.00
02358             -42.00    -9000.00
02359              -4.00    -9000.00
02360              70.00    -9200.00
02361             130.00    -9200.00
02362              68.00    -9200.00
02363             -10.00    -9600.00
02364              34.00    -9600.00
02365             102.00    -9800.00
02366              84.00    -9800.00
02367              54.00   -10000.00
02368              50.00   -10000.00
02369              60.00   -10200.00
02370             102.00   -10400.00
02371              74.00   -10400.00
02372              54.00   -10400.00
02373              66.00   -10600.00
02374              90.00   -10600.00
02375             100.00   -10800.00
02376              86.00   -10800.00
02377              68.00   -10800.00
02378              84.00   -10800.00
02379              98.00   -11000.00
02380             100.00   -11000.00
02381             100.00   -11200.00
02382              98.00   -11000.00
02383             106.00   -11200.00
02384             106.00   -11400.00
02385             108.00   -11400.00
02386             102.00   -11400.00
02387             106.00   -11400.00
02388             128.00   -11400.00
02389             132.00   -11400.00
02390             124.00   -11600.00
02391             118.00   -11600.00
02392             120.00   -11600.00
02393             138.00   -11600.00
02394             142.00   -11600.00
02395             140.00   -11600.00
02396             142.00   -12000.00
02397             148.00   -11800.00
02398             148.00   -11600.00
02399             148.00   -11800.00
02400             156.00   -11600.00
02401             162.00   -11800.00
02402             170.00   -11800.00
02403             172.00   -11800.00
02404             164.00   -11600.00
02405             170.00   -11600.00
02406             178.00   -11800.00
02407             186.00   -11600.00
02408             186.00   -11600.00
02409             180.00   -11600.00
02410             184.00   -11600.00
02411             186.00   -11600.00
02412             182.00   -11600.00
02413             184.00   -11600.00
02414             182.00   -11600.00
02415             178.00   -11600.00
02416             178.00   -11400.00
02417             174.00   -11400.00
02418             168.00   -11400.00
02419             162.00   -11400.00
02420             156.00   -11000.00
02421             158.00   -11000.00
02422             158.00   -11000.00
02423             152.00   -10800.00
02424             140.00   -10800.00
02425             134.00   -10800.00
02426             138.00   -10800.00
02427             132.00   -10600.00
02428             130.00   -10600.00
02429             122.00   -10600.00
02430             122.00   -10400.00
02431             118.00   -10600.00
02432             110.00   -10200.00
02433             106.00   -10000.00
02434             102.00   -10000.00
02435             104.00   -10000.00
02436             100.00    -9800.00
02437              90.00    -9600.00
02438              86.00    -9800.00
02439              90.00    -9600.00
02440              90.00    -9600.00
02441              82.00    -9200.00
02442              78.00    -9400.00
02443              78.00    -9200.00
02444              78.00    -9000.00
02445              76.00    -9000.00
02446              68.00    -8800.00
02447              66.00    -8400.00
02448              66.00    -8400.00
02449              66.00    -8400.00
02450              60.00    -8200.00
02451              58.00    -8200.00
02452              54.00    -8000.00
02453              58.00    -7800.00
02454              54.00    -7600.00
02455              50.00    -7400.00
02456              52.00    -7400.00
02457              50.00    -7200.00
02458              46.00    -7000.00
02459              44.00    -6800.00
02460              42.00    -6800.00
02461              36.00    -6600.00
02462              42.00    -6400.00
02463              40.00    -6200.00
02464              40.00    -6000.00
02465              36.00    -6000.00
02466              34.00    -5600.00
02467              32.00    -5600.00
02468              34.00    -5200.00
02469              34.00    -5000.00
02470              26.00    -5000.00
02471              26.00    -4800.00
02472              28.00    -4600.00
02473              28.00    -4400.00
02474              26.00    -4400.00
02475              22.00    -4000.00
02476              22.00    -4000.00
02477              22.00    -3800.00
02478              24.00    -3600.00
02479              20.00    -3400.00
02480              14.00    -3200.00
02481              14.00    -3200.00
02482              14.00    -2800.00
02483              20.00    -2800.00
02484              18.00    -2600.00
02485              14.00    -2400.00
02486               8.00    -2200.00
02487               6.00    -2000.00
02488              10.00    -1800.00
02489              14.00    -1600.00
02490               8.00    -1600.00
02491               4.00    -1200.00
02492               6.00    -1000.00
02493               4.00     -800.00
02494               4.00     -600.00
02495               0.00     -400.00
02496               2.00     -200.00
02497              10.00     -200.00
02498               6.00      200.00
02499               4.00      200.00
02500              30.00      400.00
02501              18.00      600.00
02502             -20.00      800.00
02503             -18.00      800.00
02504              10.00     1200.00
02505              28.00     1400.00
02506              58.00     1800.00
02507             226.00     2000.00
02508             162.00     2000.00
02509            -250.00     2200.00
02510            -250.00     2400.00
02511             106.00     2400.00
02512             250.00     2800.00
02513             250.00     3000.00
02514              18.00     3200.00
02515            -250.00     3000.00
02516               6.00     3600.00
02517             250.00     3400.00
02518            -100.00     3800.00
02519            -250.00     4000.00
02520            -116.00     4000.00
02521             222.00     4600.00
02522             250.00     4400.00
02523            -184.00     4800.00
02524            -250.00     4800.00
02525             -30.00     4800.00
02526             250.00     5600.00
02527             158.00     5400.00
02528            -250.00     5600.00
02529            -250.00     6000.00
02530             108.00     5600.00
02531             228.00     6200.00
02532             -68.00     6200.00
02533            -250.00     6400.00
02534             -38.00     6800.00
02535             202.00     6800.00
02536              22.00     7000.00
02537            -198.00     7000.00
02538            -188.00     7200.00
02539              44.00     7600.00
02540             194.00     7600.00
02541             -70.00     7800.00
02542            -238.00     7800.00
02543             -66.00     8200.00
02544              70.00     8200.00
02545              30.00     8200.00
02546            -116.00     8400.00
02547            -158.00     8600.00
02548             -12.00     8600.00
02549              68.00     8800.00
02550             -70.00     9000.00
02551            -158.00     9000.00
02552             -82.00     9200.00
02553               6.00     9200.00
02554               4.00     9400.00
02555             -92.00     9600.00
02556            -140.00     9600.00
02557             -68.00     9600.00
02558             -12.00    10000.00
02559             -60.00    10000.00
02560            -102.00    10000.00
02561             -94.00    10200.00
02562             -62.00    10200.00
02563             -48.00    10400.00
02564             -98.00    10400.00
02565            -116.00    10400.00
02566             -78.00    10400.00
02567             -62.00    10800.00
02568             -76.00    10800.00
02569            -106.00    10800.00
02570            -122.00    11000.00
02571             -96.00    11000.00
02572             -84.00    11000.00
02573            -102.00    11200.00
02574            -110.00    11000.00
02575            -106.00    11400.00
02576            -108.00    11200.00
02577            -114.00    11400.00
02578            -126.00    11200.00
02579            -130.00    11600.00
02580            -114.00    11600.00
02581            -108.00    11600.00
02582            -126.00    11600.00
02583            -140.00    11600.00
02584            -146.00    11600.00
02585            -140.00    11800.00
02586            -132.00    11800.00
02587            -136.00    11800.00
02588            -148.00    11800.00
02589            -150.00    11800.00
02590            -158.00    11600.00
02591            -160.00    11800.00
02592            -164.00    11800.00
02593            -162.00    11800.00
02594            -162.00    12000.00
02595            -164.00    11800.00
02596            -174.00    11600.00
02597            -186.00    11800.00
02598            -190.00    11800.00
02599            -186.00    11800.00
02600            -172.00    11600.00
02601            -180.00    11800.00
02602            -190.00    11800.00
02603            -196.00    11600.00
02604            -194.00    11600.00
02605            -186.00    11600.00
02606            -178.00    11400.00
02607            -180.00    11400.00
02608            -178.00    11400.00
02609            -172.00    11200.00
02610            -172.00    11400.00
02611            -174.00    11200.00
02612            -172.00    11200.00
02613            -156.00    11200.00
02614            -142.00    11000.00
02615            -150.00    11000.00
02616            -156.00    11000.00
02617            -148.00    10800.00
02618            -144.00    10800.00
02619            -134.00    10800.00
02620            -132.00    10400.00
02621            -126.00    10400.00
02622            -122.00    10400.00
02623            -122.00    10400.00
02624            -124.00    10200.00
02625            -118.00    10200.00
02626            -108.00    10000.00
02627            -102.00    10000.00
02628            -100.00    10000.00
02629            -102.00     9600.00
02630            -100.00     9600.00
02631             -94.00     9600.00
02632             -94.00     9400.00
02633             -90.00     9200.00
02634             -86.00     9200.00
02635             -82.00     9200.00
02636             -78.00     8800.00
02637             -82.00     8800.00
02638             -84.00     8600.00
02639             -76.00     8600.00
02640             -60.00     8400.00
02641             -52.00     8400.00
02642             -68.00     8400.00
02643             -86.00     8200.00
02644             -84.00     8000.00
02645             -52.00     7800.00
02646             -30.00     7600.00
02647             -44.00     7600.00
02648             -70.00     7400.00
02649             -72.00     7200.00
02650             -54.00     7000.00
02651             -38.00     6800.00
02652             -42.00     6800.00
02653             -46.00     6600.00
02654             -46.00     6400.00
02655             -40.00     6200.00
02656             -42.00     6000.00
02657             -58.00     5800.00
02658             -54.00     5800.00
02659             -28.00     5600.00
02660              -6.00     5600.00
02661             -22.00     5200.00
02662             -60.00     4800.00
02663             -66.00     4800.00
02664             -34.00     4600.00
02665              -6.00     4400.00
02666             -12.00     4400.00
02667             -36.00     4000.00
02668             -44.00     3800.00
02669             -34.00     3800.00
02670             -22.00     3600.00
02671             -24.00     3200.00
02672             -22.00     3200.00
02673             -20.00     3000.00
02674             -18.00     2800.00
02675             -22.00     2800.00
02676             -30.00     2600.00
02677             -28.00     2200.00
02678             -14.00     2200.00
02679              -6.00     1800.00
02680             -14.00     1600.00
02681             -22.00     1400.00
02682             -22.00     1400.00
02683             -14.00     1200.00
02684             -10.00      800.00
02685             -12.00      600.00
02686             -14.00      600.00
02687             -12.00      400.00
02688              -8.00      200.00
02689              -6.00        0.00
02690              -6.00     -200.00
02691               4.00     -400.00
02692              30.00     -400.00
02693              14.00     -800.00
02694             -28.00    -1000.00
02695             -26.00    -1000.00
02696              14.00    -1200.00
02697              36.00    -1400.00
02698             188.00    -1600.00
02699             250.00    -2000.00
02700            -250.00    -2400.00
02701            -250.00    -2400.00
02702            -118.00    -2600.00
02703             250.00    -2400.00
02704             250.00    -2400.00
02705              -4.00    -3200.00
02706            -250.00    -2600.00
02707             250.00    -3400.00
02708             250.00    -4200.00
02709            -202.00    -2800.00
02710            -250.00    -4400.00
02711            -250.00    -4000.00
02712             250.00    -3600.00
02713             250.00    -5400.00
02714            -250.00    -3800.00
02715            -250.00    -5200.00
02716             -92.00    -5400.00
02717             250.00    -4000.00
02718             250.00    -6400.00
02719            -250.00    -4800.00
02720            -162.00    -5600.00
02721             116.00    -6400.00
02722             250.00    -5200.00
02723              74.00    -6800.00
02724            -250.00    -5800.00
02725              98.00    -6600.00
02726             238.00    -6800.00
02727              84.00    -6400.00
02728             -92.00    -7600.00
02729            -192.00    -6600.00
02730             154.00    -7600.00
02731             250.00    -7400.00
02732              -8.00    -7400.00
02733            -138.00    -8000.00
02734             -26.00    -7600.00
02735             166.00    -8200.00
02736             154.00    -8000.00
02737             -40.00    -8400.00
02738             -52.00    -8400.00
02739              58.00    -8400.00
02740             172.00    -8800.00
02741              54.00    -8800.00
02742             -50.00    -9000.00
02743              24.00    -9200.00
02744              98.00    -9200.00
02745             130.00    -9200.00
02746              36.00    -9600.00
02747             -12.00    -9600.00
02748              54.00    -9800.00
02749             108.00    -9800.00
02750              76.00    -9800.00
02751              54.00   -10000.00
02752              44.00   -10000.00
02753              74.00   -10200.00
02754              98.00   -10400.00
02755              66.00   -10400.00
02756              58.00   -10400.00
02757              74.00   -10600.00
02758              94.00   -10600.00
02759              94.00   -10600.00
02760              82.00   -10800.00
02761              72.00   -10800.00
02762              90.00   -11200.00
02763             100.00   -11000.00
02764              98.00   -11200.00
02765              92.00   -11000.00
02766             102.00   -11000.00
02767             104.00   -11200.00
02768             102.00   -11400.00
02769             108.00   -11400.00
02770             102.00   -11400.00
02771             116.00   -11400.00
02772             130.00   -11600.00
02773             124.00   -11400.00
02774             120.00   -11600.00
02775             118.00   -11600.00
02776             130.00   -11600.00
02777             142.00   -11800.00
02778             134.00   -11600.00
02779             134.00   -11600.00
02780             146.00   -11800.00
02781             150.00   -11600.00
02782             154.00   -12000.00
02783             148.00   -11800.00
02784             154.00   -11800.00
02785             162.00   -11800.00
02786             174.00   -11800.00
02787             170.00   -12000.00
02788             166.00   -11600.00
02789             170.00   -11800.00
02790             178.00   -11600.00
02791             182.00   -11600.00
02792             186.00   -11600.00
02793             182.00   -11600.00
02794             186.00   -11600.00
02795             186.00   -11600.00
02796             182.00   -11400.00
02797             180.00   -11400.00
02798             178.00   -11400.00
02799             180.00   -11400.00
02800             180.00   -11400.00
02801             172.00   -11200.00
02802             166.00   -11400.00
02803             158.00   -11000.00
02804             158.00   -11200.00
02805             156.00   -11000.00
02806             156.00   -11000.00
02807             150.00   -11000.00
02808             138.00   -11000.00
02809             132.00   -10800.00
02810             132.00   -10800.00
02811             132.00   -10600.00
02812             130.00   -10400.00
02813             124.00   -10600.00
02814             116.00   -10400.00
02815             110.00   -10400.00
02816             106.00   -10400.00
02817             106.00   -10000.00
02818             106.00   -10000.00
02819             100.00   -10000.00
02820             100.00    -9800.00
02821              90.00    -9800.00
02822              86.00    -9600.00
02823              84.00    -9600.00
02824              84.00    -9400.00
02825              84.00    -9400.00
02826              82.00    -9200.00
02827              78.00    -9200.00
02828              70.00    -9000.00
02829              68.00    -8800.00
02830              68.00    -8800.00
02831              66.00    -8400.00
02832              68.00    -8400.00
02833              62.00    -8200.00
02834              60.00    -8200.00
02835              58.00    -8000.00
02836              54.00    -8000.00
02837              54.00    -7800.00
02838              56.00    -7600.00
02839              50.00    -7400.00
02840              52.00    -7200.00
02841              44.00    -7200.00
02842              38.00    -6800.00
02843              44.00    -6800.00
02844              46.00    -6800.00
02845              42.00    -6600.00
02846              42.00    -6400.00
02847              34.00    -6400.00
02848              38.00    -6000.00
02849              42.00    -6000.00
02850              34.00    -5800.00
02851              28.00    -5600.00
02852              28.00    -5400.00
02853              34.00    -5200.00
02854              30.00    -4800.00
02855              26.00    -4600.00
02856              26.00    -4600.00
02857              22.00    -4400.00
02858              28.00    -4400.00
02859              26.00    -4000.00
02860              18.00    -4000.00
02861              16.00    -3800.00
02862              20.00    -3600.00
02863              26.00    -3400.00
02864              22.00    -3400.00
02865              10.00    -3000.00
02866              10.00    -2800.00
02867              18.00    -2600.00
02868              18.00    -2400.00
02869              14.00    -2200.00
02870              10.00    -2000.00
02871              10.00    -2000.00
02872              12.00    -1800.00
02873               8.00    -1600.00
02874               6.00    -1400.00
02875               6.00    -1000.00
02876               4.00    -1000.00
02877               6.00     -800.00
02878               4.00     -600.00
02879               2.00     -400.00
02880               2.00     -200.00
02881               6.00        0.00
02882               6.00      400.00
02883              14.00      400.00
02884              32.00      400.00
02885               0.00      600.00
02886             -26.00      800.00
02887              -6.00     1200.00
02888              22.00     1200.00
02889              28.00     1400.00
02890              92.00     1800.00
02891             250.00     2000.00
02892              -6.00     2200.00
02893            -250.00     2200.00
02894            -250.00     2400.00
02895             250.00     2600.00
02896             250.00     2800.00
02897             250.00     3200.00
02898            -250.00     3000.00
02899            -250.00     3200.00
02900             250.00     3600.00
02901             250.00     3400.00
02902            -250.00     4000.00
02903            -250.00     4000.00
02904               4.00     4200.00
02905             250.00     4600.00
02906             222.00     4400.00
02907            -250.00     5000.00
02908            -250.00     4800.00
02909             132.00     5200.00
02910             250.00     5600.00
02911              10.00     5200.00
02912            -250.00     5800.00
02913            -156.00     6000.00
02914             190.00     5800.00
02915             162.00     6600.00
02916            -188.00     6200.00
02917            -238.00     6600.00
02918              82.00     6800.00
02919             182.00     6800.00
02920             -78.00     7000.00
02921            -222.00     7000.00
02922            -130.00     7400.00
02923             132.00     7400.00
02924             146.00     7600.00
02925            -168.00     7800.00
02926            -204.00     7800.00
02927              -6.00     8200.00
02928              76.00     8200.00
02929             -10.00     8400.00
02930            -148.00     8400.00
02931            -122.00     8400.00
02932              38.00     8800.00
02933              34.00     8800.00
02934            -116.00     8800.00
02935            -142.00     9000.00
02936             -46.00     9200.00
02937              20.00     9200.00
02938             -26.00     9400.00
02939            -122.00     9600.00
02940            -124.00     9600.00
02941             -38.00     9800.00
02942             -26.00     9800.00
02943             -82.00    10000.00
02944            -102.00    10000.00
02945             -82.00    10200.00
02946             -50.00    10200.00
02947             -68.00    10400.00
02948            -116.00    10400.00
02949            -102.00    10400.00
02950             -70.00    10800.00
02951             -68.00    10600.00
02952             -86.00    10800.00
02953            -112.00    11000.00
02954            -110.00    11000.00
02955             -90.00    11000.00
02956             -94.00    11000.00
02957            -110.00    11200.00
02958            -106.00    11200.00
02959            -102.00    11200.00
02960            -114.00    11200.00
02961            -124.00    11200.00
02962            -128.00    11400.00
02963            -120.00    11600.00
02964            -110.00    11600.00
02965            -116.00    11600.00
02966            -134.00    11600.00
02967            -140.00    11600.00
02968            -140.00    11800.00
02969            -140.00    11600.00
02970            -138.00    11800.00
02971            -142.00    11800.00
02972            -150.00    11600.00
02973            -154.00    11800.00
02974            -162.00    11600.00
02975            -164.00    11800.00
02976            -164.00    11600.00
02977            -162.00    12000.00
02978            -162.00    11800.00
02979            -170.00    11800.00
02980            -180.00    11800.00
02981            -188.00    11800.00
02982            -190.00    11800.00
02983            -180.00    11800.00
02984            -176.00    11800.00
02985            -186.00    11600.00
02986            -190.00    11800.00
02987            -190.00    11600.00
02988            -194.00    11600.00
02989            -188.00    11400.00
02990            -180.00    11600.00
02991            -178.00    11600.00
02992            -174.00    11200.00
02993            -172.00    11400.00
02994            -178.00    11200.00
02995            -172.00    11200.00
02996            -166.00    11200.00
02997            -154.00    11200.00
02998            -148.00    11000.00
02999            -150.00    11000.00
03000            -150.00    11000.00
03001            -148.00    10800.00
03002            -140.00    10800.00
03003            -134.00    10800.00
03004            -126.00    10800.00
03005            -124.00    10400.00
03006            -124.00    10400.00
03007            -124.00    10400.00
03008            -120.00    10200.00
03009            -116.00    10000.00
03010            -108.00    10000.00
03011            -100.00     9800.00
03012             -98.00    10000.00
03013            -100.00     9600.00
03014            -102.00     9600.00
03015             -98.00     9400.00
03016             -92.00     9400.00
03017             -86.00     9400.00
03018             -82.00     9000.00
03019             -82.00     9200.00
03020             -82.00     9000.00
03021             -82.00     8600.00
03022             -78.00     8800.00
03023             -72.00     8600.00
03024             -68.00     8400.00
03025             -66.00     8400.00
03026             -66.00     8200.00
03027             -68.00     8000.00
03028             -68.00     7800.00
03029             -62.00     7600.00
03030             -54.00     7600.00
03031             -54.00     7600.00
03032             -52.00     7200.00
03033             -52.00     7200.00
03034             -54.00     7000.00
03035             -52.00     6800.00
03036             -50.00     6600.00
03037             -46.00     6400.00
03038             -44.00     6400.00
03039             -42.00     6200.00
03040             -42.00     6000.00
03041             -46.00     6000.00
03042             -44.00     5600.00
03043             -36.00     5600.00
03044             -34.00     5400.00
03045             -34.00     5200.00
03046             -34.00     4800.00
03047             -36.00     4800.00
03048             -36.00     4600.00
03049             -34.00     4400.00
03050             -30.00     4200.00
03051             -26.00     4000.00
03052             -28.00     4000.00
03053             -28.00     3600.00
03054             -30.00     3600.00
03055             -28.00     3400.00
03056             -26.00     3200.00
03057             -22.00     3000.00
03058             -20.00     2800.00
03059             -20.00     2600.00
03060             -20.00     2400.00
03061             -22.00     2200.00
03062             -20.00     2000.00
03063             -16.00     2000.00
03064             -16.00     1600.00
03065             -12.00     1400.00
03066             -12.00     1400.00
03067             -14.00     1000.00
03068             -14.00      800.00
03069             -14.00      800.00
03070             -12.00      600.00
03071             -10.00      400.00
03072              -6.00        0.00
03073              -6.00        0.00
03074              -6.00     -200.00
03075              10.00     -400.00
03076              28.00     -600.00
03077              -2.00     -800.00
03078             -34.00    -1000.00
03079             -10.00    -1000.00
03080              22.00    -1200.00
03081              52.00    -1400.00
03082             250.00    -1600.00
03083             188.00    -2000.00
03084            -250.00    -2400.00
03085            -250.00    -2600.00
03086              76.00    -2800.00
03087             250.00    -2400.00
03088             250.00    -2800.00
03089            -250.00    -3400.00
03090            -250.00    -2400.00
03091             250.00    -4000.00
03092             250.00    -3600.00
03093            -250.00    -3200.00
03094            -250.00    -4800.00
03095            -250.00    -3400.00
03096             250.00    -4400.00
03097             250.00    -5000.00
03098            -250.00    -3600.00
03099            -150.00    -5800.00
03100             -34.00    -4600.00
03101             250.00    -4800.00
03102             140.00    -6000.00
03103            -250.00    -4600.00
03104             -14.00    -6400.00
03105             158.00    -5600.00
03106             250.00    -5800.00
03107            -134.00    -6800.00
03108            -250.00    -5800.00
03109             224.00    -7000.00
03110             184.00    -6400.00
03111              44.00    -7000.00
03112            -170.00    -7400.00
03113            -110.00    -6800.00
03114             250.00    -7800.00
03115             198.00    -7200.00
03116             -86.00    -7800.00
03117            -118.00    -8000.00
03118              36.00    -7600.00
03119             196.00    -8400.00
03120              86.00    -8000.00
03121             -66.00    -8400.00
03122             -26.00    -8400.00
03123             106.00    -8600.00
03124             162.00    -8800.00
03125              -4.00    -9000.00
03126             -30.00    -9000.00
03127              46.00    -9000.00
03128             122.00    -9200.00
03129             108.00    -9200.00
03130               6.00    -9600.00
03131               4.00    -9600.00
03132              84.00    -9600.00
03133             104.00    -9800.00
03134              62.00   -10000.00
03135              50.00   -10000.00
03136              46.00   -10000.00
03137              92.00   -10400.00
03138              92.00   -10200.00
03139              58.00   -10400.00
03140              58.00   -10400.00
03141              82.00   -10600.00
03142              98.00   -10600.00
03143              92.00   -10800.00
03144              76.00   -10800.00
03145              74.00   -10800.00
03146              94.00   -11000.00
03147             100.00   -11000.00
03148              96.00   -11200.00
03149              94.00   -11000.00
03150             106.00   -11200.00
03151             104.00   -11400.00
03152             106.00   -11400.00
03153             104.00   -11400.00
03154             100.00   -11200.00
03155             124.00   -11400.00
03156             126.00   -11600.00
03157             122.00   -11600.00
03158             118.00   -11600.00
03159             116.00   -11600.00
03160             134.00   -11600.00
03161             138.00   -11600.00
03162             138.00   -11800.00
03163             140.00   -11800.00
03164             146.00   -11800.00
03165             150.00   -11800.00
03166             148.00   -11800.00
03167             154.00   -11600.00
03168             158.00   -11800.00
03169             166.00   -11800.00
03170             172.00   -11600.00
03171             166.00   -11800.00
03172             164.00   -11800.00
03173             170.00   -11600.00
03174             180.00   -11600.00
03175             186.00   -11600.00
03176             184.00   -11600.00
03177             180.00   -11600.00
03178             182.00   -11600.00
03179             182.00   -11600.00
03180             180.00   -11400.00
03181             180.00   -11400.00
03182             180.00   -11400.00
03183             180.00   -11400.00
03184             174.00   -11400.00
03185             170.00   -11200.00
03186             164.00   -11000.00
03187             158.00   -11200.00
03188             162.00   -11000.00
03189             158.00   -11200.00
03190             152.00   -11000.00
03191             146.00   -11000.00
03192             138.00   -11000.00
03193             136.00   -10800.00
03194             132.00   -10800.00
03195             132.00   -10600.00
03196             126.00   -10600.00
03197             120.00   -10400.00
03198             116.00   -10400.00
03199             110.00   -10400.00
03200             108.00   -10400.00
03201             104.00   -10200.00
03202             102.00   -10000.00
03203             100.00   -10000.00
03204              98.00    -9800.00
03205              92.00    -9800.00
03206              88.00    -9600.00
03207              84.00    -9600.00
03208              84.00    -9400.00
03209              82.00    -9200.00
03210              82.00    -9200.00
03211              74.00    -9000.00
03212              70.00    -8800.00
03213              68.00    -8800.00
03214              66.00    -8400.00
03215              66.00    -8600.00
03216              64.00    -8400.00
03217              60.00    -8200.00
03218              58.00    -8200.00
03219              58.00    -8000.00
03220              54.00    -7800.00
03221              54.00    -7600.00
03222              52.00    -7400.00
03223              50.00    -7400.00
03224              52.00    -7200.00
03225              48.00    -7000.00
03226              42.00    -7000.00
03227              42.00    -6800.00
03228              44.00    -6600.00
03229              42.00    -6400.00
03230              42.00    -6400.00
03231              36.00    -6000.00
03232              34.00    -6000.00
03233              36.00    -6000.00
03234              30.00    -5600.00
03235              34.00    -5600.00
03236              30.00    -5200.00
03237              34.00    -5000.00
03238              30.00    -5000.00
03239              26.00    -4600.00
03240              24.00    -4600.00
03241              26.00    -4400.00
03242              28.00    -4200.00
03243              28.00    -4000.00
03244              20.00    -3800.00
03245              20.00    -3600.00
03246              20.00    -3400.00
03247              18.00    -3400.00
03248              18.00    -3200.00
03249              20.00    -3000.00
03250              18.00    -2800.00
03251              16.00    -2600.00
03252              14.00    -2400.00
03253              12.00    -2200.00
03254              10.00    -2000.00
03255              10.00    -1800.00
03256              12.00    -1600.00
03257              12.00    -1600.00
03258              10.00    -1200.00
03259               6.00    -1000.00
03260               8.00    -1000.00
03261               4.00     -400.00
03262               6.00     -400.00
03263               6.00     -200.00
03264               4.00     -200.00
03265               6.00        0.00
03266               4.00      200.00
03267              26.00      400.00
03268              26.00      600.00
03269             -10.00      800.00
03270             -26.00      800.00
03271               4.00     1200.00
03272              28.00     1400.00
03273              36.00     1400.00
03274             154.00     1800.00
03275             250.00     2200.00
03276            -220.00     2000.00
03277            -250.00     2400.00
03278            -130.00     2400.00
03279             250.00     2400.00
03280             250.00     3000.00
03281             226.00     3200.00
03282            -250.00     3000.00
03283            -250.00     3400.00
03284             250.00     3600.00
03285             234.00     3600.00
03286            -250.00     4000.00
03287            -236.00     4000.00
03288             118.00     4400.00
03289             250.00     4400.00
03290              32.00     4400.00
03291            -250.00     5200.00
03292            -206.00     4600.00
03293             250.00     5400.00
03294             250.00     5600.00
03295            -150.00     5200.00
03296            -250.00     6000.00
03297             -22.00     5800.00
03298             234.00     6000.00
03299              54.00     6400.00
03300            -250.00     6400.00
03301            -150.00     6800.00
03302             166.00     6800.00
03303             116.00     6800.00
03304            -156.00     7000.00
03305            -220.00     7200.00
03306             -48.00     7600.00
03307             190.00     7600.00
03308              50.00     7600.00
03309            -234.00     7800.00
03310            -138.00     7800.00
03311              42.00     8200.00
03312              62.00     8200.00
03313             -62.00     8400.00
03314            -164.00     8600.00
03315             -70.00     8600.00
03316              68.00     8800.00
03317             -14.00     9000.00
03318            -150.00     8800.00
03319            -112.00     9400.00
03320             -14.00     9200.00
03321              20.00     9200.00
03322             -58.00     9400.00
03323            -138.00     9600.00
03324             -94.00     9600.00
03325             -18.00    10000.00
03326             -42.00    10000.00
03327             -92.00    10000.00
03328             -98.00    10200.00
03329             -70.00    10200.00
03330             -46.00    10400.00
03331             -86.00    10600.00
03332            -118.00    10400.00
03333             -90.00    10400.00
03334             -62.00    10800.00
03335             -74.00    10800.00
03336             -96.00    10800.00
03337            -114.00    10800.00
03338            -102.00    11000.00
03339             -86.00    11200.00
03340            -100.00    11200.00
03341            -108.00    11200.00
03342            -106.00    11200.00
03343            -108.00    11200.00
03344            -118.00    11600.00
03345            -124.00    11400.00
03346            -126.00    11400.00
03347            -118.00    11600.00
03348            -110.00    11600.00
03349            -124.00    11600.00
03350            -138.00    11600.00
03351            -142.00    11600.00
03352            -140.00    11800.00
03353            -138.00    11800.00
03354            -138.00    11800.00
03355            -140.00    11800.00
03356            -148.00    11800.00
03357            -158.00    11800.00
03358            -164.00    12000.00
03359            -164.00    11800.00
03360            -164.00    11800.00
03361            -162.00    11800.00
03362            -166.00    11800.00
03363            -172.00    11600.00
03364            -184.00    11800.00
03365            -190.00    11800.00
03366            -188.00    11600.00
03367            -180.00    11600.00
03368            -180.00    11600.00
03369            -186.00    11600.00
03370            -190.00    11800.00
03371            -194.00    11600.00
03372            -194.00    11600.00
03373            -186.00    11600.00
03374            -178.00    11400.00
03375            -178.00    11400.00
03376            -174.00    11400.00
03377            -174.00    11200.00
03378            -174.00    11200.00
03379            -172.00    11200.00
03380            -160.00    11200.00
03381            -150.00    11200.00
03382            -148.00    11000.00
03383            -150.00    11000.00
03384            -150.00    10800.00
03385            -146.00    11000.00
03386            -138.00    10800.00
03387            -132.00    10600.00
03388            -122.00    10800.00
03389            -124.00    10600.00
03390            -122.00    10400.00
03391            -122.00    10400.00
03392            -120.00    10200.00
03393            -114.00    10000.00
03394            -102.00    10000.00
03395            -100.00     9800.00
03396            -100.00     9600.00
03397            -102.00     9600.00
03398            -102.00     9600.00
03399             -94.00     9400.00
03400             -90.00     9400.00
03401             -84.00     9200.00
03402             -82.00     9000.00
03403             -78.00     9200.00
03404             -84.00     8800.00
03405             -78.00     8800.00
03406             -76.00     8600.00
03407             -70.00     8600.00
03408             -66.00     8400.00
03409             -66.00     8200.00
03410             -68.00     8000.00
03411             -68.00     8200.00
03412             -66.00     7800.00
03413             -60.00     7600.00
03414             -56.00     7600.00
03415             -54.00     7200.00
03416             -52.00     7200.00
03417             -54.00     7000.00
03418             -58.00     6800.00
03419             -54.00     6800.00
03420             -48.00     6600.00
03421             -44.00     6400.00
03422             -42.00     6200.00
03423             -44.00     6000.00
03424             -44.00     6000.00
03425             -44.00     5600.00
03426             -38.00     5600.00
03427             -36.00     5400.00
03428             -36.00     5200.00
03429             -34.00     5200.00
03430             -34.00     5000.00
03431             -36.00     4800.00
03432             -36.00     4600.00
03433             -30.00     4400.00
03434             -28.00     4400.00
03435             -26.00     4000.00
03436             -28.00     3800.00
03437             -26.00     3600.00
03438             -28.00     3600.00
03439             -28.00     3200.00
03440             -22.00     3200.00
03441             -20.00     3000.00
03442             -20.00     2800.00
03443             -20.00     2600.00
03444             -20.00     2400.00
03445             -22.00     2200.00
03446             -20.00     2000.00
03447             -18.00     1600.00
03448             -12.00     1600.00
03449             -12.00     1400.00
03450             -14.00     1200.00
03451             -14.00     1200.00
03452             -14.00      800.00
03453             -12.00      600.00
03454             -10.00      400.00
03455              -6.00      400.00
03456              -6.00        0.00
03457              -4.00     -200.00
03458              -4.00     -200.00
03459              20.00     -400.00
03460              22.00     -600.00
03461             -16.00     -800.00
03462             -30.00    -1000.00
03463               4.00    -1200.00
03464              28.00    -1200.00
03465             100.00    -1600.00
03466             250.00    -1800.00
03467             -22.00    -2400.00
03468            -250.00    -2400.00
03469            -250.00    -2600.00
03470             234.00    -2600.00
03471             250.00    -2200.00
03472             250.00    -3200.00
03473            -250.00    -3000.00
03474            -250.00    -2800.00
03475             250.00    -4400.00
03476             114.00    -3200.00
03477            -250.00    -3600.00
03478            -250.00    -4400.00
03479             -12.00    -3200.00
03480             250.00    -5000.00
03481            -108.00    -4400.00
03482            -250.00    -4200.00
03483            -112.00    -6000.00
03484             112.00    -4000.00
03485             250.00    -5600.00
03486            -182.00    -5600.00
03487            -250.00    -5000.00
03488              76.00    -6600.00
03489             214.00    -5200.00
03490             236.00    -6400.00
03491            -250.00    -6400.00
03492             -90.00    -6000.00
03493             250.00    -7200.00
03494             128.00    -6200.00
03495             -14.00    -7400.00
03496            -214.00    -6800.00
03497              18.00    -7200.00
03498             250.00    -7800.00
03499              98.00    -7200.00
03500            -132.00    -8000.00
03501             -84.00    -7600.00
03502             102.00    -8000.00
03503             196.00    -8200.00
03504              16.00    -8200.00
03505             -68.00    -8400.00
03506              10.00    -8400.00
03507             148.00    -8600.00
03508             116.00    -8800.00
03509             -42.00    -8800.00
03510              -4.00    -9000.00
03511              74.00    -9200.00
03512             134.00    -9200.00
03513              70.00    -9400.00
03514             -10.00    -9600.00
03515              26.00    -9600.00
03516             102.00    -9800.00
03517              92.00    -9800.00
03518              58.00   -10000.00
03519              46.00   -10000.00
03520              58.00   -10000.00
03521             102.00   -10200.00
03522              78.00   -10400.00
03523              54.00   -10600.00
03524              64.00   -10600.00
03525              88.00   -10600.00
03526             100.00   -10800.00
03527              84.00   -10800.00
03528              68.00   -10800.00
03529              82.00   -10800.00
03530             100.00   -10800.00
03531              98.00   -11000.00
03532              94.00   -11200.00
03533              96.00   -11200.00
03534             106.00   -11200.00
03535             102.00   -11400.00
03536             108.00   -11400.00
03537             102.00   -11400.00
03538             108.00   -11400.00
03539             130.00   -11600.00
03540             126.00   -11600.00
03541             122.00   -11400.00
03542             116.00   -11600.00
03543             122.00   -11800.00
03544             138.00   -11600.00
03545             138.00   -11600.00
03546             138.00   -11800.00
03547             140.00   -12000.00
03548             146.00   -11600.00
03549             150.00   -11600.00
03550             148.00   -11800.00
03551             154.00   -11800.00
03552             158.00   -11600.00
03553             166.00   -11800.00
03554             172.00   -11600.00
03555             170.00   -11600.00
03556             164.00   -11600.00
03557             172.00   -11800.00
03558             182.00   -11800.00
03559             186.00   -11600.00
03560             182.00   -11400.00
03561             182.00   -11600.00
03562             184.00   -11600.00
03563             180.00   -11600.00
03564             180.00   -11600.00
03565             182.00   -11400.00
03566             180.00   -11400.00
03567             180.00   -11400.00
03568             174.00   -11400.00
03569             166.00   -11400.00
03570             164.00   -11000.00
03571             162.00   -11200.00
03572             160.00   -11000.00
03573             158.00   -11000.00
03574             150.00   -11000.00
03575             142.00   -11000.00
03576             138.00   -10800.00
03577             134.00   -10800.00
03578             132.00   -10800.00
03579             132.00   -10600.00
03580             126.00   -10400.00
03581             120.00   -10400.00
03582             116.00   -10400.00
03583             110.00   -10400.00
03584             110.00   -10000.00
03585             106.00   -10000.00
03586             104.00    -9800.00
03587             100.00    -9800.00
03588              94.00    -9800.00
03589              90.00    -9600.00
03590              86.00    -9600.00
03591              84.00    -9400.00
03592              84.00    -9200.00
03593              82.00    -9200.00
03594              76.00    -9000.00
03595              74.00    -9000.00
03596              70.00    -8800.00
03597              68.00    -8800.00
03598              68.00    -8800.00
03599              68.00    -8400.00
03600              64.00    -8400.00
03601              62.00    -8200.00
03602              58.00    -8200.00
03603              52.00    -8000.00
03604              54.00    -7800.00
03605              54.00    -7600.00
03606              52.00    -7400.00
03607              52.00    -7400.00
03608              52.00    -7200.00
03609              42.00    -7200.00
03610              38.00    -6800.00
03611              42.00    -6800.00
03612              40.00    -6600.00
03613              42.00    -6400.00
03614              40.00    -6400.00
03615              36.00    -6000.00
03616              36.00    -5800.00
03617              36.00    -5800.00
03618              30.00    -5600.00
03619              34.00    -5600.00
03620              30.00    -5200.00
03621              28.00    -5000.00
03622              26.00    -4600.00
03623              22.00    -4800.00
03624              26.00    -4600.00
03625              26.00    -4200.00
03626              28.00    -4000.00
03627              26.00    -4000.00
03628              24.00    -3800.00
03629              20.00    -3600.00
03630              20.00    -3400.00
03631              18.00    -3200.00
03632              18.00    -3200.00
03633              18.00    -2800.00
03634              18.00    -2800.00
03635              14.00    -2600.00
03636              12.00    -2400.00
03637              12.00    -2200.00
03638              12.00    -2000.00
03639              12.00    -1600.00
03640              14.00    -1600.00
03641              10.00    -1200.00
03642               6.00    -1400.00
03643               6.00    -1000.00
03644               6.00     -800.00
03645               4.00     -400.00
03646               4.00     -400.00
03647               4.00     -200.00
03648               6.00     -200.00
03649               6.00        0.00
03650              10.00      400.00
03651              34.00      400.00
03652              18.00      600.00
03653             -20.00      800.00
03654             -18.00      800.00
03655              14.00     1200.00
03656              28.00     1400.00
03657              54.00     1800.00
03658             222.00     2000.00
03659             168.00     2200.00
03660            -250.00     2200.00
03661            -250.00     2400.00
03662              94.00     2400.00
03663             250.00     2600.00
03664             250.00     3000.00
03665              24.00     3200.00
03666            -250.00     3000.00
03667               2.00     3600.00
03668             250.00     3400.00
03669             -98.00     3800.00
03670            -250.00     4000.00
03671            -116.00     4000.00
03672             226.00     4600.00
03673             250.00     4400.00
03674            -186.00     4800.00
03675            -250.00     4800.00
03676             -36.00     4800.00
03677             250.00     5600.00
03678             170.00     5400.00
03679            -250.00     5600.00
03680            -250.00     6200.00
03681             100.00     5600.00
03682             222.00     6400.00
03683             -70.00     6200.00
03684            -250.00     6400.00
03685             -34.00     6800.00
03686             204.00     6800.00
03687              20.00     7000.00
03688            -204.00     7200.00
03689            -190.00     7200.00
03690              46.00     7400.00
03691             196.00     7600.00
03692             -68.00     8000.00
03693            -242.00     7800.00
03694             -68.00     8200.00
03695              68.00     8200.00
03696              36.00     8400.00
03697            -110.00     8400.00
03698            -156.00     8600.00
03699             -10.00     8800.00
03700              66.00     8800.00
03701             -72.00     9000.00
03702            -156.00     9200.00
03703             -80.00     9200.00
03704              10.00     9200.00
03705               2.00     9400.00
03706             -92.00     9600.00
03707            -140.00     9600.00
03708             -62.00     9800.00
03709             -12.00    10000.00
03710             -62.00    10000.00
03711            -102.00    10200.00
03712             -92.00    10200.00
03713             -58.00    10200.00
03714             -52.00    10200.00
03715            -106.00    10400.00
03716            -114.00    10400.00
03717             -76.00    10600.00
03718             -66.00    10800.00
03719             -78.00    10800.00
03720            -102.00    10800.00
03721            -116.00    11000.00
03722             -94.00    11000.00
03723             -86.00    11200.00
03724            -106.00    11200.00
03725            -108.00    11200.00
03726            -102.00    11200.00
03727            -108.00    11200.00
03728            -120.00    11400.00
03729            -126.00    11400.00
03730            -124.00    11600.00
03731            -116.00    11600.00
03732            -114.00    11600.00
03733            -130.00    11600.00
03734            -140.00    11400.00
03735            -142.00    11600.00
03736            -140.00    11600.00
03737            -140.00    11600.00
03738            -140.00    11800.00
03739            -148.00    11600.00
03740            -150.00    11800.00
03741            -162.00    11800.00
03742            -168.00    11600.00
03743            -164.00    11800.00
03744            -164.00    11800.00
03745            -162.00    11800.00
03746            -166.00    11800.00
03747            -180.00    11800.00
03748            -186.00    11800.00
03749            -188.00    11800.00
03750            -184.00    11800.00
03751            -180.00    11600.00
03752            -182.00    11600.00
03753            -188.00    11600.00
03754            -194.00    11600.00
03755            -194.00    11600.00
03756            -190.00    11600.00
03757            -182.00    11600.00
03758            -178.00    11400.00
03759            -174.00    11600.00
03760            -174.00    11200.00
03761            -174.00    11200.00
03762            -174.00    11200.00
03763            -166.00    11200.00
03764            -158.00    11200.00
03765            -150.00    11000.00
03766            -148.00    11000.00
03767            -150.00    11000.00
03768            -148.00    11000.00
03769            -144.00    10800.00
03770            -136.00    10600.00
03771            -130.00    10800.00
03772            -124.00    10600.00
03773            -124.00    10400.00
03774            -122.00    10400.00
03775            -122.00    10400.00
03776            -118.00    10200.00
03777            -108.00    10000.00
03778            -100.00    10000.00
03779             -98.00    10000.00
03780            -100.00     9800.00
03781             -98.00     9600.00
03782             -96.00     9600.00
03783             -92.00     9400.00
03784             -86.00     9200.00
03785             -84.00     9200.00
03786             -78.00     9000.00
03787             -82.00     9000.00
03788             -84.00     8800.00
03789             -80.00     8800.00
03790             -76.00     8800.00
03791             -68.00     8400.00
03792             -64.00     8400.00
03793             -66.00     8000.00
03794             -68.00     8200.00
03795             -68.00     8000.00
03796             -62.00     7800.00
03797             -58.00     7800.00
03798             -54.00     7600.00
03799             -54.00     7200.00
03800             -52.00     7200.00
03801             -54.00     7000.00
03802             -54.00     6800.00
03803             -52.00     6600.00
03804             -48.00     6400.00
03805             -44.00     6200.00
03806             -44.00     6200.00
03807             -44.00     6200.00
03808             -44.00     6000.00
03809             -44.00     5800.00
03810             -40.00     5600.00
03811             -38.00     5400.00
03812             -34.00     5200.00
03813             -34.00     5000.00
03814             -36.00     4800.00
03815             -38.00     4600.00
03816             -36.00     4600.00
03817             -30.00     4400.00
03818             -26.00     4200.00
03819             -28.00     4000.00
03820             -28.00     3800.00
03821             -30.00     3600.00
03822             -28.00     3400.00
03823             -26.00     3200.00
03824             -22.00     3200.00
03825             -20.00     3000.00
03826             -18.00     2800.00
03827             -20.00     2400.00
03828             -22.00     2400.00
03829             -20.00     2200.00
03830             -20.00     2000.00
03831             -14.00     1800.00
03832             -12.00     1600.00
03833             -12.00     1400.00
03834             -14.00     1200.00
03835             -14.00     1000.00
03836             -14.00      800.00
03837             -12.00      600.00
03838              -6.00      400.00
03839              -4.00        0.00
03840              -4.00        0.00
03841              -6.00     -200.00
03842               4.00     -400.00
03843              30.00     -400.00
03844              12.00     -800.00
03845             -26.00     -800.00
03846             -22.00    -1000.00
03847              14.00    -1200.00
03848              34.00    -1200.00
03849             182.00    -1600.00
03850             250.00    -2000.00
03851            -250.00    -2400.00
03852            -250.00    -2400.00
03853            -124.00    -2600.00
03854             250.00    -2400.00
03855             250.00    -2400.00
03856              10.00    -3400.00
03857            -250.00    -2800.00
03858             246.00    -3400.00
03859             250.00    -4200.00
03860            -196.00    -3000.00
03861            -250.00    -4400.00
03862            -250.00    -4000.00
03863             250.00    -3600.00
03864             250.00    -5400.00
03865            -250.00    -3800.00
03866            -250.00    -5200.00
03867             -92.00    -5200.00
03868             250.00    -4200.00
03869             250.00    -6400.00
03870            -250.00    -5000.00
03871            -166.00    -5800.00
03872             116.00    -6400.00
03873             250.00    -5200.00
03874              68.00    -7000.00
03875            -250.00    -5600.00
03876              94.00    -6600.00
03877             242.00    -6800.00
03878              84.00    -6400.00
03879             -92.00    -7600.00
03880            -198.00    -6600.00
03881             152.00    -7400.00
03882             250.00    -7400.00
03883              -6.00    -7400.00
03884            -140.00    -8000.00
03885             -30.00    -7600.00
03886             164.00    -8200.00
03887             154.00    -8200.00
03888             -38.00    -8400.00
03889             -52.00    -8400.00
03890              54.00    -8600.00
03891             172.00    -8800.00
03892              54.00    -8800.00
03893             -46.00    -9000.00
03894              26.00    -9000.00
03895              96.00    -9200.00
03896             130.00    -9200.00
03897              36.00    -9200.00
03898             -12.00    -9600.00
03899              54.00    -9600.00
03900             110.00    -9800.00
03901              76.00    -9800.00
03902              58.00    -9800.00
03903              42.00   -10000.00
03904              74.00   -10400.00
03905             102.00   -10200.00
03906              68.00   -10400.00
03907              58.00   -10600.00
03908              72.00   -10600.00
03909              96.00   -10600.00
03910             100.00   -10600.00
03911              82.00   -10800.00
03912              70.00   -10800.00
03913              90.00   -10800.00
03914              98.00   -10800.00
03915              98.00   -11000.00
03916              94.00   -11200.00
03917             100.00   -11000.00
03918             106.00   -11400.00
03919             106.00   -11200.00
03920             106.00   -11600.00
03921             100.00   -11400.00
03922             114.00   -11400.00
03923             126.00   -11400.00
03924             124.00   -11600.00
03925             122.00   -11600.00
03926             116.00   -11600.00
03927             126.00   -11600.00
03928             140.00   -11600.00
03929             138.00   -11600.00
03930             138.00   -11800.00
03931             142.00   -11600.00
03932             146.00   -11800.00
03933             148.00   -11800.00
03934             150.00   -12000.00
03935             154.00   -11800.00
03936             162.00   -11800.00
03937             170.00   -11600.00
03938             170.00   -11800.00
03939             164.00   -11600.00
03940             166.00   -12000.00
03941             174.00   -11600.00
03942             182.00   -11600.00
03943             186.00   -11800.00
03944             180.00   -11600.00
03945             186.00   -11600.00
03946             182.00   -11600.00
03947             180.00   -11400.00
03948             182.00   -11600.00
03949             180.00   -11400.00
03950             178.00   -11400.00
03951             178.00   -11400.00
03952             170.00   -11400.00
03953             164.00   -11400.00
03954             162.00   -11200.00
03955             162.00   -11000.00
03956             160.00   -11000.00
03957             154.00   -10800.00
03958             148.00   -11000.00
03959             142.00   -10800.00
03960             138.00   -10800.00
03961             132.00   -10600.00
03962             132.00   -10600.00
03963             132.00   -10600.00
03964             124.00   -10400.00
03965             118.00   -10400.00
03966             116.00   -10400.00
03967             108.00   -10400.00
03968             108.00   -10000.00
03969             106.00   -10000.00
03970             102.00    -9800.00
03971             100.00    -9800.00
03972              92.00    -9800.00
03973              90.00    -9600.00
03974              86.00    -9600.00
03975              84.00    -9200.00
03976              84.00    -9200.00
03977              82.00    -9000.00
03978              78.00    -9000.00
03979              74.00    -8800.00
03980              68.00    -8800.00
03981              68.00    -8800.00
03982              68.00    -8600.00
03983              66.00    -8400.00
03984              64.00    -8200.00
03985              60.00    -8200.00
03986              58.00    -8000.00
03987              54.00    -8000.00
03988              54.00    -7800.00
03989              52.00    -7600.00
03990              50.00    -7200.00
03991              52.00    -7200.00
03992              46.00    -7200.00
03993              42.00    -7200.00
03994              38.00    -6800.00
03995              42.00    -6600.00
03996              42.00    -6600.00
03997              42.00    -6200.00
03998              36.00    -6000.00
03999              36.00    -6000.00
04000              34.00    -6000.00
04001              34.00    -5600.00
04002              30.00    -5600.00
04003              30.00    -5200.00
04004              30.00    -5200.00
04005              30.00    -5000.00
04006              26.00    -4600.00
04007              26.00    -4600.00
04008              26.00    -4400.00
04009              22.00    -4200.00
04010              26.00    -4000.00
04011              26.00    -4000.00
04012              20.00    -3600.00
04013              20.00    -3400.00
04014              18.00    -3400.00
04015              18.00    -3200.00
04016              18.00    -3000.00
04017              18.00    -2800.00
04018              18.00    -2600.00
04019              16.00    -2400.00
04020              10.00    -2400.00
04021              10.00    -2000.00
04022              10.00    -2000.00
04023              12.00    -1800.00
04024              10.00    -1600.00
04025               8.00    -1200.00
04026               6.00    -1000.00
04027               8.00    -1000.00
04028               4.00     -800.00
04029               6.00     -400.00
04030               6.00     -400.00
04031               6.00     -200.00
04032               6.00        0.00
04033               2.00      200.00
04034              18.00      400.00
04035              36.00      600.00
04036               0.00      600.00
04037             -26.00      800.00
04038              -6.00     1200.00
04039              22.00     1200.00
04040              30.00     1400.00
04041              92.00     1800.00
04042             250.00     2000.00
04043               2.00     2200.00
04044            -250.00     2200.00
04045            -250.00     2400.00
04046             250.00     2400.00
04047             250.00     2800.00
04048             250.00     3200.00
04049            -250.00     3000.00
04050            -250.00     3400.00
04051             250.00     3600.00
04052             250.00     3600.00
04053            -250.00     3800.00
04054            -250.00     4000.00
04055               4.00     4000.00
04056             250.00     4600.00
04057             226.00     4400.00
04058            -250.00     5000.00
04059            -250.00     4800.00
04060             130.00     5200.00
04061             250.00     5600.00
04062              10.00     5200.00
04063            -250.00     6000.00
04064            -160.00     6000.00
04065             188.00     5800.00
04066             162.00     6400.00
04067            -188.00     6200.00
04068            -242.00     6600.00
04069              80.00     6800.00
04070             182.00     6800.00
04071             -76.00     7000.00
04072            -228.00     7200.00
04073            -134.00     7200.00
04074             132.00     7400.00
04075             146.00     7800.00
04076            -170.00     7800.00
04077            -204.00     7800.00
04078              -8.00     8200.00
04079              76.00     8200.00
04080             -12.00     8400.00
04081            -148.00     8600.00
04082            -126.00     8600.00
04083              36.00     8600.00
04084              36.00     8800.00
04085            -116.00     8800.00
04086            -142.00     9200.00
04087             -50.00     9200.00
04088              18.00     9200.00
04089             -22.00     9400.00
04090            -116.00     9600.00
04091            -124.00     9600.00
04092             -38.00     9800.00
04093             -24.00     9800.00
04094             -82.00    10000.00
04095             -98.00    10000.00
04096             -80.00    10200.00
04097             -52.00    10200.00
04098             -66.00    10400.00
04099            -116.00    10400.00
04100            -102.00    10600.00
04101             -66.00    10600.00
04102             -66.00    10800.00
04103             -86.00    10800.00
04104            -114.00    11000.00
04105            -110.00    11000.00
04106             -86.00    11000.00
04107             -90.00    11200.00
04108            -108.00    11000.00
04109            -108.00    11200.00
04110            -104.00    11200.00
04111            -110.00    11400.00
04112            -124.00    11400.00
04113            -130.00    11400.00
04114            -124.00    11400.00
04115            -110.00    11600.00
04116            -120.00    11600.00
04117            -132.00    11600.00
04118            -140.00    11600.00
04119            -140.00    11800.00
04120            -140.00    11600.00
04121            -140.00    11800.00
04122            -142.00    11600.00
04123            -142.00    11800.00
04124            -150.00    11800.00
04125            -164.00    11800.00
04126            -166.00    11800.00
04127            -166.00    11600.00
04128            -164.00    11800.00
04129            -162.00    11800.00
04130            -172.00    11800.00
04131            -182.00    11800.00
04132            -188.00    11600.00
04133            -188.00    11600.00
04134            -182.00    11600.00
04135            -178.00    11600.00
04136            -184.00    11600.00
04137            -188.00    11600.00
04138            -190.00    11600.00
04139            -196.00    11600.00
04140            -188.00    11600.00
04141            -180.00    11600.00
04142            -178.00    11400.00
04143            -174.00    11400.00
04144            -174.00    11200.00
04145            -180.00    11200.00
04146            -174.00    11200.00
04147            -164.00    11200.00
04148            -156.00    11200.00
04149            -150.00    11000.00
04150            -148.00    11000.00
04151            -148.00    11000.00
04152            -146.00    10800.00
04153            -142.00    10800.00
04154            -138.00    10800.00
04155            -124.00    10600.00
04156            -118.00    10400.00
04157            -118.00    10400.00
04158            -124.00    10200.00
04159            -124.00    10400.00
04160            -114.00    10000.00
04161            -102.00    10000.00
04162            -100.00    10000.00
04163             -98.00     9800.00
04164            -100.00     9600.00
04165            -100.00     9600.00
04166             -96.00     9600.00
04167             -90.00     9400.00
04168             -84.00     9400.00
04169             -80.00     9200.00
04170             -78.00     9000.00
04171             -80.00     8800.00
04172             -82.00     8800.00
04173             -78.00     8600.00
04174             -70.00     8600.00
04175             -62.00     8400.00
04176             -62.00     8200.00
04177             -66.00     8000.00
04178             -70.00     8000.00
04179             -70.00     8000.00
04180             -62.00     7600.00
04181             -54.00     7600.00
04182             -50.00     7600.00
04183             -54.00     7200.00
04184             -54.00     7000.00
04185             -58.00     7000.00
04186             -54.00     6800.00
04187             -48.00     6800.00
04188             -44.00     6400.00
04189             -44.00     6400.00
04190             -42.00     6200.00
04191             -46.00     6000.00
04192             -46.00     5800.00
04193             -44.00     5600.00
04194             -38.00     5600.00
04195             -34.00     5400.00
04196             -32.00     5000.00
04197             -38.00     5000.00
04198             -38.00     4800.00
04199             -38.00     4400.00
04200             -34.00     4400.00
04201             -30.00     4400.00
04202             -28.00     4000.00
04203             -26.00     4000.00
04204             -26.00     3800.00
04205             -28.00     3600.00
04206             -30.00     3400.00
04207             -26.00     3200.00
04208             -20.00     3000.00
04209             -20.00     2800.00
04210             -18.00     2800.00
04211             -22.00     2400.00
04212             -20.00     2200.00
04213             -22.00     2200.00
04214             -18.00     1800.00
04215             -12.00     1600.00
04216             -12.00     1400.00
04217             -12.00     1400.00
04218             -12.00     1000.00
04219             -14.00     1000.00
04220             -18.00      800.00
04221             -12.00      600.00
04222             -10.00      600.00
04223              -2.00        0.00
04224              -4.00        0.00
04225              -8.00     -200.00
04226               6.00     -400.00
04227              28.00     -400.00
04228               0.00     -800.00
04229             -28.00     -800.00
04230              -6.00    -1000.00
04231              22.00    -1200.00
04232              52.00    -1400.00
04233             250.00    -1600.00
04234             196.00    -2000.00
04235            -250.00    -2400.00
04236            -250.00    -2400.00
04237              70.00    -2800.00
04238             250.00    -2400.00
04239             250.00    -2800.00
04240            -250.00    -3400.00
04241            -250.00    -2600.00
04242             250.00    -4000.00
04243             250.00    -3600.00
04244            -250.00    -3000.00
04245            -250.00    -4800.00
04246            -250.00    -3400.00
04247             250.00    -4200.00
04248             250.00    -5200.00
04249            -250.00    -3600.00
04250            -154.00    -5800.00
04251             -36.00    -4400.00
04252             250.00    -4800.00
04253             146.00    -6000.00
04254            -250.00    -4400.00
04255             -18.00    -6600.00
04256             158.00    -5600.00
04257             250.00    -5800.00
04258            -140.00    -6600.00
04259            -250.00    -5600.00
04260             222.00    -7200.00
04261             186.00    -6400.00
04262              46.00    -7000.00
04263            -170.00    -7400.00
04264            -116.00    -6600.00
04265             250.00    -7800.00
04266             200.00    -7200.00
04267             -86.00    -8000.00
04268            -122.00    -8000.00
04269              34.00    -7600.00
04270             198.00    -8200.00
04271              84.00    -8000.00
04272             -66.00    -8400.00
04273             -30.00    -8400.00
04274             100.00    -8800.00
04275             162.00    -8800.00
04276              -6.00    -9000.00
04277             -30.00    -9000.00
04278              44.00    -9200.00
04279             118.00    -9200.00
04280             108.00    -9200.00
04281              10.00    -9600.00
04282               6.00    -9600.00
04283              78.00    -9800.00
04284             100.00    -9800.00
04285              66.00    -9800.00
04286              52.00   -10000.00
04287              50.00   -10000.00
04288              94.00   -10200.00
04289              90.00   -10400.00
04290              60.00   -10400.00
04291              58.00   -10400.00
04292              82.00   -10600.00
04293             102.00   -10600.00
04294              94.00   -10800.00
04295              74.00   -10800.00
04296              74.00   -10800.00
04297              98.00   -11000.00
04298             102.00   -11000.00
04299              98.00   -11200.00
04300              92.00   -11000.00
04301             106.00   -11200.00
04302             106.00   -11200.00
04303             108.00   -11400.00
04304             106.00   -11400.00
04305             102.00   -11400.00
04306             122.00   -11600.00
04307             126.00   -11600.00
04308             122.00   -11600.00
04309             116.00   -11600.00
04310             118.00   -11600.00
04311             132.00   -11600.00
04312             138.00   -11600.00
04313             138.00   -11600.00
04314             140.00   -11800.00
04315             146.00   -11800.00
04316             148.00   -12000.00
04317             148.00   -11800.00
04318             152.00   -11600.00
04319             156.00   -11600.00
04320             164.00   -12000.00
04321             172.00   -11600.00
04322             166.00   -11600.00
04323             164.00   -12000.00
04324             170.00   -11800.00
04325             178.00   -11800.00
04326             186.00   -11600.00
04327             184.00   -11600.00
04328             180.00   -11600.00
04329             180.00   -11800.00
04330             182.00   -11600.00
04331             180.00   -11600.00
04332             178.00   -11600.00
04333             180.00   -11400.00
04334             180.00   -11400.00
04335             178.00   -11400.00
04336             166.00   -11400.00
04337             162.00   -11000.00
04338             160.00   -11000.00
04339             164.00   -11200.00
04340             162.00   -11000.00
04341             148.00   -11200.00
04342             138.00   -10800.00
04343             138.00   -10800.00
04344             140.00   -10800.00
04345             138.00   -10800.00
04346             126.00   -10600.00
04347             122.00   -10600.00
04348             122.00   -10400.00
04349             126.00   -10400.00
04350             114.00   -10400.00
04351             106.00   -10200.00
04352             106.00   -10000.00
04353             106.00   -10000.00
04354             106.00    -9800.00
04355              98.00    -9800.00
04356              86.00    -9800.00
04357              82.00    -9600.00
04358              88.00    -9400.00
04359              86.00    -9400.00
04360              84.00    -9200.00
04361              82.00    -9000.00
04362              82.00    -9000.00
04363              86.00    -9000.00
04364              82.00    -8800.00
04365              66.00    -8600.00
04366              54.00    -8400.00
04367              58.00    -8400.00
04368              54.00    -8200.00
04369              50.00    -8000.00
04370              52.00    -8000.00
04371              60.00    -8000.00
04372              66.00    -7800.00
04373              62.00    -7400.00
04374              54.00    -7400.00
04375              52.00    -7200.00
04376              42.00    -7000.00
04377              28.00    -6800.00
04378              28.00    -6800.00
04379              30.00    -6600.00
04380              38.00    -6400.00
04381              48.00    -6200.00
04382              46.00    -6200.00
04383              44.00    -6000.00
04384              42.00    -5800.00
04385              28.00    -5600.00
04386              26.00    -5600.00
04387              24.00    -5400.00
04388              20.00    -5200.00
04389              26.00    -5000.00
04390              26.00    -4800.00
04391              26.00    -4400.00
04392              30.00    -4200.00
04393              28.00    -4200.00
04394              26.00    -4000.00
04395              22.00    -4000.00
04396              20.00    -3600.00
04397              12.00    -3600.00
04398              10.00    -3200.00
04399              12.00    -3200.00
04400              20.00    -2800.00
04401              22.00    -2800.00
04402              18.00    -2600.00
04403              12.00    -2400.00
04404              10.00    -2200.00
04405              12.00    -2000.00
04406              12.00    -1800.00
04407               6.00    -1600.00
04408               6.00    -1600.00
04409              10.00    -1200.00
04410               2.00    -1000.00
04411               4.00     -800.00
04412               6.00     -800.00
04413              10.00     -400.00
04414               8.00     -400.00
04415               4.00     -200.00
04416               2.00        0.00
04417               6.00      200.00
04418              26.00      400.00
04419              28.00      600.00
04420             -10.00      800.00
04421             -24.00      800.00
04422              10.00     1200.00
04423              26.00     1400.00
04424              32.00     1400.00
04425             154.00     2000.00
04426             250.00     2200.00
04427            -218.00     2200.00
04428            -250.00     2400.00
04429            -132.00     2400.00
04430             250.00     2400.00
04431             250.00     3000.00
04432             226.00     3200.00
04433            -250.00     3000.00
04434            -250.00     3400.00
04435             250.00     3600.00
04436             246.00     3600.00
04437            -250.00     4000.00
04438            -242.00     4000.00
04439             110.00     4400.00
04440             250.00     4400.00
04441              36.00     4400.00
04442            -250.00     5000.00
04443            -212.00     4600.00
04444             250.00     5400.00
04445             250.00     5400.00
04446            -150.00     5200.00
04447            -250.00     6000.00
04448             -28.00     5800.00
04449             230.00     6200.00
04450              60.00     6400.00
04451            -250.00     6200.00
04452            -156.00     6800.00
04453             156.00     6600.00
04454             114.00     7000.00
04455            -150.00     7000.00
04456            -212.00     7200.00
04457             -54.00     7400.00
04458             182.00     7600.00
04459              50.00     7800.00
04460            -234.00     7800.00
04461            -138.00     8000.00
04462              40.00     8200.00
04463              64.00     8400.00
04464             -66.00     8400.00
04465            -172.00     8600.00
04466             -76.00     8600.00
04467              68.00     8800.00
04468             -10.00     8800.00
04469            -148.00     8800.00
04470            -114.00     9200.00
04471             -22.00     9200.00
04472              18.00     9200.00
04473             -56.00     9600.00
04474            -134.00     9400.00
04475             -94.00     9600.00
04476             -20.00    10000.00
04477             -44.00    10000.00
04478             -92.00    10000.00
04479             -92.00    10200.00
04480             -68.00    10200.00
04481             -46.00    10400.00
04482             -88.00    10400.00
04483            -118.00    10400.00
04484             -86.00    10600.00
04485             -62.00    10600.00
04486             -72.00    10800.00
04487             -98.00    10800.00
04488            -114.00    11000.00
04489            -100.00    11000.00
04490             -84.00    11000.00
04491            -100.00    11200.00
04492            -110.00    11200.00
04493            -102.00    11200.00
04494            -104.00    11200.00
04495            -116.00    11200.00
04496            -124.00    11400.00
04497            -124.00    11400.00
04498            -114.00    11400.00
04499            -110.00    11600.00
04500            -122.00    11600.00
04501            -140.00    11400.00
04502            -142.00    11600.00
04503            -138.00    11800.00
04504            -134.00    11800.00
04505            -140.00    11800.00
04506            -148.00    11600.00
04507            -150.00    11800.00
04508            -156.00    11800.00
04509            -158.00    11800.00
04510            -162.00    11600.00
04511            -166.00    11800.00
04512            -166.00    11800.00
04513            -164.00    11800.00
04514            -172.00    11800.00
04515            -184.00    11800.00
04516            -188.00    11800.00
04517            -188.00    11800.00
04518            -182.00    11600.00
04519            -182.00    11600.00
04520            -188.00    11800.00
04521            -190.00    11600.00
04522            -194.00    11600.00
04523            -196.00    11600.00
04524            -190.00    11400.00
04525            -182.00    11400.00
04526            -172.00    11400.00
04527            -160.00    11400.00
04528            -172.00    11200.00
04529            -188.00    11200.00
04530            -194.00    11200.00
04531            -166.00    11000.00
04532            -130.00    11200.00
04533            -126.00    11000.00
04534            -158.00    10800.00
04535            -172.00    11000.00
04536            -158.00    10800.00
04537            -130.00    10800.00
04538            -118.00    10600.00
04539            -120.00    10600.00
04540            -126.00    10400.00
04541            -124.00    10400.00
04542            -122.00    10400.00
04543            -124.00    10200.00
04544            -124.00    10200.00
04545            -102.00    10000.00
04546             -78.00    10000.00
04547             -76.00    10000.00
04548            -108.00     9600.00
04549            -132.00     9600.00
04550            -110.00     9400.00
04551             -70.00     9200.00
04552             -54.00     9200.00
04553             -74.00     9200.00
04554             -94.00     9200.00
04555             -96.00     8800.00
04556             -78.00     8800.00
04557             -70.00     8600.00
04558             -64.00     8400.00
04559             -60.00     8400.00
04560             -60.00     8400.00
04561             -66.00     8200.00
04562             -74.00     8000.00
04563             -76.00     7800.00
04564             -56.00     7600.00
04565             -42.00     7600.00
04566             -46.00     7400.00
04567             -58.00     7200.00
04568             -66.00     7200.00
04569             -60.00     6800.00
04570             -46.00     6800.00
04571             -44.00     6600.00
04572             -44.00     6400.00
04573             -42.00     6400.00
04574             -44.00     6000.00
04575             -46.00     6000.00
04576             -46.00     5800.00
04577             -44.00     5600.00
04578             -36.00     5400.00
04579             -30.00     5200.00
04580             -34.00     5200.00
04581             -42.00     4800.00
04582             -38.00     4800.00
04583             -36.00     4600.00
04584             -30.00     4400.00
04585             -26.00     4000.00
04586             -28.00     4000.00
04587             -30.00     4000.00
04588             -28.00     3800.00
04589             -30.00     3600.00
04590             -28.00     3200.00
04591             -26.00     3000.00
04592             -22.00     3000.00
04593             -18.00     2800.00
04594             -20.00     2600.00
04595             -22.00     2200.00
04596             -26.00     2200.00
04597             -20.00     2000.00
04598             -14.00     1800.00
04599             -14.00     1600.00
04600             -14.00     1400.00
04601             -14.00     1200.00
04602             -18.00     1200.00
04603             -14.00      800.00
04604             -12.00      600.00
04605             -10.00      400.00
04606              -6.00      200.00
04607              -6.00        0.00
04608              -6.00     -200.00
04609              -2.00     -200.00
04610              20.00     -400.00
04611              22.00     -600.00
04612             -14.00     -800.00
04613             -28.00     -800.00
04614               4.00    -1000.00
04615              26.00    -1200.00
04616             100.00    -1400.00
04617             250.00    -1800.00
04618             -20.00    -2400.00
04619            -250.00    -2400.00
04620            -250.00    -2600.00
04621             234.00    -2600.00
04622             250.00    -2200.00
04623             250.00    -3200.00
04624            -250.00    -3200.00
04625            -250.00    -2600.00
04626             250.00    -4400.00
04627             124.00    -3200.00
04628            -250.00    -3800.00
04629            -250.00    -4400.00
04630             -22.00    -3200.00
04631             250.00    -5000.00
04632             -98.00    -4400.00
04633            -250.00    -4400.00
04634            -110.00    -6000.00
04635             106.00    -4000.00
04636             250.00    -5800.00
04637            -174.00    -5600.00
04638            -250.00    -5000.00
04639              74.00    -6800.00
04640             214.00    -5200.00
04641             234.00    -6400.00
04642            -250.00    -6200.00
04643             -94.00    -5800.00
04644             250.00    -7200.00
04645             128.00    -6200.00
04646             -18.00    -7400.00
04647            -214.00    -6800.00
04648              14.00    -7200.00
04649             250.00    -7800.00
04650              98.00    -7200.00
04651            -130.00    -8000.00
04652             -82.00    -7600.00
04653              98.00    -8200.00
04654             194.00    -8200.00
04655              14.00    -8200.00
04656             -70.00    -8600.00
04657               6.00    -8400.00
04658             148.00    -8800.00
04659             118.00    -8800.00
04660             -38.00    -9000.00
04661              -4.00    -9000.00
04662              74.00    -9200.00
04663             132.00    -9200.00
04664              70.00    -9200.00
04665             -10.00    -9600.00
04666              24.00    -9600.00
04667             100.00    -9800.00
04668              90.00    -9800.00
04669              58.00    -9800.00
04670              50.00   -10000.00
04671              58.00   -10000.00
04672             104.00   -10200.00
04673              78.00   -10400.00
04674              58.00   -10400.00
04675              66.00   -10400.00
04676              90.00   -10600.00
04677             100.00   -10600.00
04678              86.00   -10800.00
04679              74.00   -10800.00
04680              84.00   -11000.00
04681             100.00   -10800.00
04682             100.00   -11000.00
04683              98.00   -11200.00
04684             100.00   -11200.00
04685             106.00   -11200.00
04686             106.00   -11000.00
04687             108.00   -11400.00
04688             106.00   -11600.00
04689             110.00   -11400.00
04690             128.00   -11400.00
04691             124.00   -11600.00
04692             124.00   -11400.00
04693             116.00   -11600.00
04694             124.00   -11600.00
04695             138.00   -11600.00
04696             138.00   -11600.00
04697             138.00   -11600.00
04698             140.00   -11600.00
04699             148.00   -11800.00
04700             148.00   -11800.00
04701             148.00   -11800.00
04702             154.00   -11800.00
04703             160.00   -11800.00
04704             170.00   -11600.00
04705             170.00   -12000.00
04706             164.00   -11800.00
04707             168.00   -12000.00
04708             172.00   -11800.00
04709             180.00   -11600.00
04710             186.00   -11600.00
04711             182.00   -11800.00
04712             180.00   -11600.00
04713             184.00   -11600.00
04714             180.00   -11600.00
04715             180.00   -11600.00
04716             180.00   -11600.00
04717             180.00   -11400.00
04718             180.00   -11600.00
04719             172.00   -11400.00
04720             166.00   -11400.00
04721             162.00   -11000.00
04722             158.00   -11200.00
04723             158.00   -11000.00
04724             154.00   -11000.00
04725             150.00   -11000.00
04726             140.00   -10800.00
04727             138.00   -10800.00
04728             134.00   -10800.00
04729             130.00   -10600.00
04730             132.00   -10600.00
04731             124.00   -10400.00
04732             118.00   -10400.00
04733             116.00   -10400.00
04734             110.00   -10200.00
04735             108.00   -10200.00
04736             106.00   -10000.00
04737             104.00   -10000.00
04738             100.00    -9800.00
04739              98.00    -9600.00
04740              90.00    -9600.00
04741              86.00    -9600.00
04742              84.00    -9600.00
04743              84.00    -9200.00
04744              82.00    -9200.00
04745              78.00    -9000.00
04746              76.00    -9000.00
04747              70.00    -8800.00
04748              68.00    -8600.00
04749              68.00    -8400.00
04750              68.00    -8400.00
04751              66.00    -8200.00
04752              62.00    -8200.00
04753              58.00    -8000.00
04754              54.00    -8000.00
04755              56.00    -8000.00
04756              54.00    -7600.00
04757              52.00    -7400.00
04758              50.00    -7400.00
04759              50.00    -7000.00
04760              44.00    -7200.00
04761              38.00    -7000.00
04762              42.00    -6800.00
04763              42.00    -6600.00
04764              42.00    -6400.00
04765              42.00    -6400.00
04766              36.00    -6000.00
04767              36.00    -6000.00
04768              34.00    -5800.00
04769              32.00    -5600.00
04770              30.00    -5400.00
04771              30.00    -5200.00
04772              28.00    -5000.00
04773              26.00    -5000.00
04774              22.00    -4600.00
04775              22.00    -4400.00
04776              26.00    -4200.00
04777              26.00    -4200.00
04778              22.00    -4000.00
04779              18.00    -4000.00
04780              20.00    -3600.00
04781              18.00    -3400.00
04782              18.00    -3400.00
04783              14.00    -3200.00
04784              14.00    -2800.00
04785              18.00    -2800.00
04786              14.00    -2600.00
04787              10.00    -2400.00
04788              10.00    -2200.00
04789              10.00    -2000.00
04790              10.00    -1800.00
04791              12.00    -1600.00
04792               8.00    -1400.00
04793               6.00    -1200.00
04794               4.00    -1000.00
04795               4.00     -800.00
04796               4.00     -600.00
04797               4.00     -400.00
04798               4.00     -200.00
04799               6.00        0.00
04800               6.00        0.00
04801              10.00      400.00
04802              32.00      600.00
04803              18.00      800.00
04804             -20.00      600.00
04805             -18.00     1200.00
04806              14.00     1000.00
04807              28.00     1400.00
04808              52.00     1800.00
04809             222.00     1800.00
04810             170.00     2200.00
04811            -250.00     2200.00
04812            -250.00     2400.00
04813              92.00     2400.00
04814             250.00     2800.00
04815             250.00     3000.00
04816              34.00     3200.00
04817            -250.00     3200.00
04818             -10.00     3600.00
04819             250.00     3400.00
04820             -90.00     3600.00
04821            -250.00     4200.00
04822            -118.00     4000.00
04823             222.00     4600.00
04824             250.00     4400.00
04825            -180.00     4800.00
04826            -250.00     5000.00
04827             -42.00     4800.00
04828             250.00     5600.00
04829             172.00     5200.00
04830            -250.00     5600.00
04831            -250.00     6000.00
04832              94.00     5600.00
04833             222.00     6200.00
04834             -66.00     6400.00
04835            -250.00     6400.00
04836             -38.00     6800.00
04837             202.00     6800.00
04838              20.00     7000.00
04839            -204.00     7000.00
04840            -192.00     7200.00
04841              42.00     7400.00
04842             194.00     7400.00
04843             -62.00     7800.00
04844            -244.00     7800.00
04845             -70.00     8000.00
04846              66.00     8200.00
04847              34.00     8400.00
04848            -114.00     8400.00
04849            -158.00     8600.00
04850             -14.00     8800.00
04851              64.00     8800.00
04852             -70.00     8800.00
04853            -156.00     9200.00
04854             -84.00     9200.00
04855               6.00     9200.00
04856               4.00     9400.00
04857             -90.00     9600.00
04858            -140.00     9400.00
04859             -66.00     9800.00
04860             -12.00    10000.00
04861             -60.00    10000.00
04862            -102.00    10000.00
04863             -90.00    10200.00
04864             -60.00    10200.00
04865             -52.00    10400.00
04866            -102.00    10400.00
04867            -114.00    10400.00
04868             -76.00    10600.00
04869             -64.00    10800.00
04870             -78.00    10800.00
04871            -102.00    10800.00
04872            -114.00    11000.00
04873             -92.00    11200.00
04874             -88.00    11000.00
04875            -106.00    11200.00
04876            -106.00    11200.00
04877            -100.00    11400.00
04878            -108.00    11200.00
04879            -118.00    11600.00
04880            -124.00    11200.00
04881            -124.00    11400.00
04882            -114.00    11400.00
04883            -110.00    11600.00
04884            -126.00    11600.00
04885            -138.00    11600.00
04886            -140.00    11600.00
04887            -140.00    11800.00
04888            -138.00    11600.00
04889            -138.00    11600.00
04890            -142.00    11800.00
04891            -150.00    11600.00
04892            -158.00    11800.00
04893            -166.00    11800.00
04894            -166.00    11800.00
04895            -164.00    11800.00
04896            -164.00    11800.00
04897            -166.00    11800.00
04898            -178.00    11800.00
04899            -188.00    11800.00
04900            -188.00    11800.00
04901            -186.00    11600.00
04902            -180.00    11600.00
04903            -182.00    11600.00
04904            -190.00    11600.00
04905            -190.00    11600.00
04906            -194.00    11600.00
04907            -190.00    11600.00
04908            -186.00    11600.00
04909            -180.00    11400.00
04910            -178.00    11400.00
04911            -174.00    11200.00
04912            -176.00    11200.00
04913            -176.00    11200.00
04914            -172.00    11200.00
04915            -158.00    11000.00
04916            -150.00    11000.00
04917            -150.00    11000.00
04918            -152.00    11000.00
04919            -148.00    10800.00
04920            -144.00    10800.00
04921            -138.00    10600.00
04922            -130.00    10600.00
04923            -124.00    10600.00
04924            -124.00    10400.00
04925            -124.00    10200.00
04926            -124.00    10200.00
04927            -118.00    10200.00
04928            -108.00    10200.00
04929            -102.00    10000.00
04930             -98.00     9600.00
04931             -98.00     9800.00
04932            -102.00     9600.00
04933             -98.00     9600.00
04934             -94.00     9400.00
04935             -86.00     9200.00
04936             -84.00     9200.00
04937             -78.00     9200.00
04938             -82.00     8800.00
04939             -82.00     8800.00
04940             -80.00     8600.00
04941             -70.00     8600.00
04942             -68.00     8400.00
04943             -66.00     8400.00
04944             -66.00     8000.00
04945             -68.00     8000.00
04946             -68.00     8000.00
04947             -62.00     7800.00
04948             -58.00     7600.00
04949             -56.00     7600.00
04950             -52.00     7200.00
04951             -52.00     7000.00
04952             -54.00     7000.00
04953             -52.00     6800.00
04954             -54.00     6800.00
04955             -44.00     6400.00
04956             -42.00     6400.00
04957             -44.00     6200.00
04958             -44.00     6000.00
04959             -46.00     6000.00
04960             -44.00     5800.00
04961             -42.00     5600.00
04962             -36.00     5400.00
04963             -34.00     5200.00
04964             -34.00     5000.00
04965             -38.00     4800.00
04966             -38.00     4600.00
04967             -34.00     4600.00
04968             -30.00     4200.00
04969             -28.00     4000.00
04970             -28.00     4000.00
04971             -28.00     3800.00
04972             -30.00     3600.00
04973             -28.00     3400.00
04974             -28.00     3200.00
04975             -24.00     3000.00
04976             -22.00     3000.00
04977             -20.00     2800.00
04978             -22.00     2400.00
04979             -22.00     2400.00
04980             -22.00     2200.00
04981             -22.00     2000.00
04982             -14.00     1800.00
04983             -14.00     1600.00
04984             -14.00     1400.00
04985             -14.00     1200.00
04986             -16.00     1000.00
04987             -14.00      800.00
04988             -12.00      600.00
04989             -10.00      400.00
04990              -6.00      400.00
04991              -6.00        0.00
04992              -6.00     -200.00
04993               0.00     -400.00
04994              26.00     -400.00
04995              10.00     -600.00
04996             -26.00    -1000.00
04997             -22.00    -1000.00
04998              18.00    -1200.00
04999              34.00    -1400.00
05000             182.00    -1600.00
