Unit:(mV)
                     CH1         CH2
Frequency              ? 260.651 kHz
00001              -8.00      600.00
00002              -2.00      400.00
00003              -4.00      200.00
00004              -4.00        0.00
00005              -4.00     -200.00
00006               2.00     -200.00
00007              28.00     -400.00
00008               8.00     -800.00
00009             -28.00     -800.00
00010             -20.00    -1000.00
00011              18.00    -1200.00
00012              34.00    -1400.00
00013             194.00    -1600.00
00014             250.00    -2000.00
00015            -250.00    -2400.00
00016            -250.00    -2400.00
00017             -86.00    -2600.00
00018             250.00    -2400.00
00019             250.00    -2400.00
00020             -70.00    -3400.00
00021            -250.00    -2800.00
00022             250.00    -3400.00
00023             250.00    -4200.00
00024            -240.00    -2800.00
00025            -250.00    -4400.00
00026            -250.00    -4000.00
00027             250.00    -3600.00
00028             250.00    -5600.00
00029            -250.00    -3600.00
00030            -250.00    -5200.00
00031             -98.00    -5200.00
00032             250.00    -4000.00
00033             250.00    -6200.00
00034            -250.00    -4800.00
00035            -116.00    -5800.00
00036              94.00    -6400.00
00037             238.00    -5400.00
00038              50.00    -7200.00
00039            -250.00    -5800.00
00040              74.00    -6800.00
00041             236.00    -6800.00
00042              62.00    -6400.00
00043            -148.00    -7600.00
00044            -196.00    -6600.00
00045             144.00    -7600.00
00046             232.00    -7400.00
00047             -44.00    -7400.00
00048            -158.00    -8200.00
00049             -46.00    -7600.00
00050             142.00    -8400.00
00051             108.00    -8200.00
00052             -78.00    -8400.00
00053             -86.00    -8400.00
00054              28.00    -8600.00
00055             140.00    -8800.00
00056              10.00    -9000.00
00057             -92.00    -9000.00
00058             -14.00    -9200.00
00059              62.00    -9200.00
00060              80.00    -9200.00
00061              -6.00    -9600.00
00062             -52.00    -9600.00
00063              10.00    -9800.00
00064              66.00    -9800.00
00065              22.00   -10000.00
00066               0.00   -10000.00
00067              -6.00   -10000.00
00068              22.00   -10200.00
00069              44.00   -10400.00
00070               4.00   -10400.00
00071              -6.00   -10600.00
00072              10.00   -10600.00
00073              34.00   -10600.00
00074              34.00   -10800.00
00075              12.00   -10800.00
00076               2.00   -10800.00
00077              18.00   -11000.00
00078              26.00   -11000.00
00079              20.00   -11000.00
00080              12.00   -11000.00
00081              20.00   -11200.00
00082              20.00   -11400.00
00083              20.00   -11400.00
00084              18.00   -11400.00
00085              10.00   -11400.00
00086              20.00   -11400.00
00087              30.00   -11400.00
00088              22.00   -11600.00
00089              14.00   -11600.00
00090              12.00   -11600.00
00091              20.00   -11600.00
00092              26.00   -11800.00
00093              20.00   -11600.00
00094              18.00   -11800.00
00095              22.00   -11800.00
00096              26.00   -11600.00
00097              20.00   -12000.00
00098              12.00   -12000.00
00099              18.00   -11800.00
00100              22.00   -11600.00
00101              28.00   -11800.00
00102              22.00   -12000.00
00103              14.00   -11800.00
00104              12.00   -12000.00
00105              18.00   -11800.00
00106              22.00   -11600.00
00107              22.00   -11600.00
00108              22.00   -11600.00
00109              20.00   -11600.00
00110              20.00   -11600.00
00111              18.00   -11600.00
00112              20.00   -11600.00
00113              26.00   -11600.00
00114              22.00   -11400.00
00115              20.00   -11400.00
00116              18.00   -11400.00
00117              14.00   -11400.00
00118              18.00   -11400.00
00119              20.00   -11000.00
00120              22.00   -11200.00
00121              22.00   -11000.00
00122              18.00   -11000.00
00123              18.00   -11000.00
00124              18.00   -10800.00
00125              20.00   -10800.00
00126              18.00   -10800.00
00127              20.00   -10600.00
00128              20.00   -10400.00
00129              20.00   -10400.00
00130              20.00   -10400.00
00131              16.00   -10200.00
00132              18.00   -10200.00
00133              18.00   -10000.00
00134              22.00   -10000.00
00135              20.00   -10000.00
00136              18.00    -9800.00
00137              18.00    -9600.00
00138              14.00    -9600.00
00139              18.00    -9400.00
00140              20.00    -9200.00
00141              20.00    -9200.00
00142              20.00    -9200.00
00143              16.00    -9000.00
00144              18.00    -8800.00
00145              18.00    -8600.00
00146              14.00    -8400.00
00147              18.00    -8400.00
00148              18.00    -8400.00
00149              20.00    -8200.00
00150              18.00    -8000.00
00151              12.00    -8000.00
00152              14.00    -7600.00
00153              18.00    -7400.00
00154              20.00    -7400.00
00155              22.00    -7200.00
00156              14.00    -7200.00
00157              10.00    -6800.00
00158              10.00    -6800.00
00159              16.00    -6600.00
00160              14.00    -6600.00
00161              18.00    -6400.00
00162              12.00    -6200.00
00163              12.00    -6000.00
00164              12.00    -5800.00
00165              10.00    -5800.00
00166              12.00    -5600.00
00167              10.00    -5200.00
00168              10.00    -5000.00
00169               8.00    -5000.00
00170              10.00    -4600.00
00171              10.00    -4600.00
00172              10.00    -4400.00
00173              10.00    -4200.00
00174              10.00    -4200.00
00175              10.00    -4000.00
00176               6.00    -3800.00
00177               6.00    -3600.00
00178               6.00    -3400.00
00179               6.00    -3200.00
00180               4.00    -3000.00
00181               6.00    -2800.00
00182               6.00    -2600.00
00183               4.00    -2600.00
00184               2.00    -2400.00
00185               4.00    -2000.00
00186               4.00    -1800.00
00187               4.00    -1800.00
00188               4.00    -1600.00
00189               4.00    -1200.00
00190               2.00    -1000.00
00191              -2.00    -1000.00
00192               4.00     -600.00
00193               2.00     -400.00
00194               2.00     -400.00
00195               4.00     -200.00
00196               6.00        0.00
00197               2.00        0.00
00198              20.00      400.00
00199              34.00      400.00
00200               0.00      800.00
00201             -26.00      800.00
00202              -4.00     1200.00
00203              30.00     1400.00
00204              34.00     1400.00
00205             104.00     1800.00
00206             250.00     2200.00
00207             -38.00     2200.00
00208            -250.00     2400.00
00209            -250.00     2400.00
00210             250.00     2600.00
00211             250.00     2800.00
00212             250.00     3200.00
00213            -250.00     3200.00
00214            -250.00     3400.00
00215             250.00     3600.00
00216             250.00     3600.00
00217            -250.00     4000.00
00218            -250.00     4000.00
00219              40.00     4200.00
00220             250.00     4600.00
00221             202.00     4400.00
00222            -250.00     5000.00
00223            -250.00     4800.00
00224             170.00     4800.00
00225             250.00     5600.00
00226             -12.00     5200.00
00227            -250.00     6000.00
00228            -102.00     5800.00
00229             220.00     6000.00
00230             150.00     6400.00
00231            -178.00     6400.00
00232            -202.00     6600.00
00233             116.00     6600.00
00234             198.00     7000.00
00235             -78.00     7000.00
00236            -198.00     7000.00
00237             -78.00     7600.00
00238             164.00     7600.00
00239             146.00     7800.00
00240            -154.00     7800.00
00241            -162.00     7800.00
00242              40.00     8200.00
00243             108.00     8400.00
00244               4.00     8400.00
00245            -124.00     8600.00
00246             -76.00     8800.00
00247              84.00     8800.00
00248              62.00     9000.00
00249             -86.00     9200.00
00250             -98.00     9200.00
00251               2.00     9400.00
00252              62.00     9400.00
00253              10.00     9400.00
00254             -78.00     9600.00
00255             -66.00     9600.00
00256              20.00     9800.00
00257              24.00     9800.00
00258             -36.00    10000.00
00259             -46.00    10200.00
00260             -18.00    10200.00
00261              14.00    10400.00
00262              -8.00    10400.00
00263             -54.00    10600.00
00264             -38.00    10400.00
00265               2.00    10800.00
00266              -2.00    10800.00
00267             -14.00    10800.00
00268             -34.00    11000.00
00269             -30.00    11000.00
00270             -14.00    11200.00
00271             -20.00    11200.00
00272             -26.00    11200.00
00273             -12.00    11200.00
00274             -12.00    11200.00
00275             -22.00    11400.00
00276             -30.00    11400.00
00277             -30.00    11400.00
00278             -20.00    11600.00
00279             -10.00    11600.00
00280             -18.00    11600.00
00281             -22.00    11800.00
00282             -30.00    11600.00
00283             -28.00    11800.00
00284             -24.00    11800.00
00285             -20.00    11800.00
00286             -14.00    11800.00
00287             -22.00    11800.00
00288             -28.00    12000.00
00289             -28.00    11800.00
00290             -28.00    12000.00
00291             -22.00    11800.00
00292             -20.00    12000.00
00293             -18.00    11800.00
00294             -20.00    11800.00
00295             -28.00    11800.00
00296             -34.00    11800.00
00297             -32.00    11800.00
00298             -20.00    11800.00
00299             -18.00    11600.00
00300             -22.00    11800.00
00301             -28.00    11600.00
00302             -30.00    11600.00
00303             -32.00    11600.00
00304             -28.00    11600.00
00305             -26.00    11600.00
00306             -18.00    11200.00
00307             -20.00    11400.00
00308             -28.00    11600.00
00309             -30.00    11200.00
00310             -30.00    11200.00
00311             -24.00    11200.00
00312             -22.00    11200.00
00313             -22.00    11000.00
00314             -22.00    11000.00
00315             -28.00    11000.00
00316             -30.00    10800.00
00317             -28.00    10800.00
00318             -22.00    10800.00
00319             -20.00    10400.00
00320             -22.00    10600.00
00321             -28.00    10400.00
00322             -28.00    10400.00
00323             -26.00    10400.00
00324             -24.00    10200.00
00325             -22.00    10200.00
00326             -22.00    10000.00
00327             -20.00    10000.00
00328             -22.00    10000.00
00329             -26.00     9600.00
00330             -26.00     9600.00
00331             -26.00     9400.00
00332             -20.00     9400.00
00333             -18.00     9200.00
00334             -20.00     9200.00
00335             -26.00     9000.00
00336             -26.00     8800.00
00337             -24.00     8600.00
00338             -20.00     8600.00
00339             -20.00     8400.00
00340             -18.00     8400.00
00341             -22.00     8200.00
00342             -20.00     8000.00
00343             -22.00     8000.00
00344             -22.00     7800.00
00345             -20.00     7600.00
00346             -18.00     7400.00
00347             -18.00     7200.00
00348             -18.00     7000.00
00349             -22.00     7000.00
00350             -22.00     6800.00
00351             -16.00     6800.00
00352             -12.00     6400.00
00353             -16.00     6400.00
00354             -20.00     6200.00
00355             -20.00     6000.00
00356             -18.00     6000.00
00357             -14.00     5600.00
00358             -20.00     5400.00
00359             -12.00     5400.00
00360             -10.00     5200.00
00361             -12.00     4800.00
00362             -22.00     4800.00
00363             -24.00     4600.00
00364             -12.00     4400.00
00365             -10.00     4200.00
00366             -14.00     4000.00
00367             -18.00     3800.00
00368             -16.00     3800.00
00369             -14.00     3600.00
00370             -16.00     3200.00
00371             -20.00     3200.00
00372             -12.00     3000.00
00373              -8.00     2800.00
00374             -10.00     2400.00
00375             -12.00     2400.00
00376             -14.00     2200.00
00377             -14.00     2000.00
00378             -10.00     1800.00
00379             -10.00     1600.00
00380             -12.00     1600.00
00381              -6.00     1400.00
00382             -10.00     1000.00
00383             -12.00      800.00
00384             -12.00      600.00
00385             -12.00      400.00
00386              -6.00      400.00
00387              -2.00      200.00
00388              -6.00     -200.00
00389              -6.00     -200.00
00390              10.00     -400.00
00391              28.00     -600.00
00392              -4.00     -800.00
00393             -34.00     -800.00
00394              -6.00    -1200.00
00395              22.00    -1400.00
00396              58.00    -1400.00
00397             250.00    -1600.00
00398             146.00    -2200.00
00399            -250.00    -2400.00
00400            -250.00    -2600.00
00401             118.00    -2800.00
00402             250.00    -2400.00
00403             250.00    -2800.00
00404            -250.00    -3200.00
00405            -250.00    -2600.00
00406             250.00    -4200.00
00407             250.00    -3600.00
00408            -250.00    -3200.00
00409            -250.00    -4800.00
00410            -250.00    -3400.00
00411             250.00    -4400.00
00412             234.00    -5000.00
00413            -250.00    -4000.00
00414            -170.00    -6000.00
00415              -2.00    -4400.00
00416             250.00    -5000.00
00417              20.00    -6000.00
00418            -250.00    -4800.00
00419              26.00    -6600.00
00420             124.00    -5600.00
00421             250.00    -6000.00
00422            -170.00    -6600.00
00423            -250.00    -5600.00
00424             206.00    -7200.00
00425             180.00    -6400.00
00426               4.00    -7200.00
00427            -206.00    -7400.00
00428            -100.00    -6800.00
00429             228.00    -7800.00
00430             146.00    -7200.00
00431            -114.00    -7800.00
00432            -136.00    -7800.00
00433              22.00    -8000.00
00434             170.00    -8400.00
00435              34.00    -8000.00
00436             -98.00    -8400.00
00437             -58.00    -8400.00
00438              76.00    -8800.00
00439             122.00    -8800.00
00440             -48.00    -9000.00
00441             -70.00    -9000.00
00442              14.00    -9200.00
00443              78.00    -9200.00
00444              54.00    -9400.00
00445             -34.00    -9600.00
00446             -42.00    -9600.00
00447              36.00    -9800.00
00448              58.00    -9800.00
00449              10.00   -10000.00
00450              -6.00   -10000.00
00451              -2.00   -10000.00
00452              42.00   -10200.00
00453              34.00   -10400.00
00454              -4.00   -10400.00
00455              -6.00   -10600.00
00456              22.00   -10600.00
00457              38.00   -10600.00
00458              26.00   -10800.00
00459               2.00   -10800.00
00460               6.00   -11000.00
00461              22.00   -11000.00
00462              22.00   -11000.00
00463              16.00   -11200.00
00464              18.00   -11000.00
00465              26.00   -11200.00
00466              18.00   -11400.00
00467              18.00   -11400.00
00468              14.00   -11400.00
00469              12.00   -11400.00
00470              28.00   -11400.00
00471              22.00   -11400.00
00472              18.00   -11800.00
00473              20.00   -11600.00
00474              14.00   -11600.00
00475              20.00   -11800.00
00476              20.00   -11800.00
00477              18.00   -11800.00
00478              24.00   -11600.00
00479              26.00   -11800.00
00480              20.00   -11800.00
00481              14.00   -11800.00
00482              18.00   -11800.00
00483              20.00   -12000.00
00484              26.00   -11600.00
00485              26.00   -12000.00
00486              18.00   -11800.00
00487              14.00   -11800.00
00488              18.00   -11600.00
00489              20.00   -11600.00
00490              22.00   -11600.00
00491              20.00   -11600.00
00492              22.00   -11600.00
00493              26.00   -11600.00
00494              20.00   -11600.00
00495              14.00   -11600.00
00496              14.00   -11600.00
00497              24.00   -11600.00
00498              26.00   -11400.00
00499              20.00   -11400.00
00500              18.00   -11400.00
00501              14.00   -11400.00
00502              18.00   -11400.00
00503              22.00   -11000.00
00504              18.00   -11000.00
00505              18.00   -11000.00
00506              26.00   -11000.00
00507              18.00   -11000.00
00508              14.00   -10800.00
00509              14.00   -10800.00
00510              20.00   -10600.00
00511              26.00   -10600.00
00512              18.00   -10600.00
00513              14.00   -10400.00
00514              18.00   -10400.00
00515              20.00   -10200.00
00516              20.00   -10000.00
00517              18.00   -10000.00
00518              18.00   -10000.00
00519              20.00    -9800.00
00520              18.00    -9600.00
00521              12.00    -9600.00
00522              16.00    -9600.00
00523              22.00    -9200.00
00524              18.00    -9200.00
00525              20.00    -9200.00
00526              18.00    -8800.00
00527              14.00    -9000.00
00528              14.00    -8800.00
00529              14.00    -8800.00
00530              16.00    -8600.00
00531              20.00    -8200.00
00532              18.00    -8200.00
00533              14.00    -8000.00
00534              12.00    -8000.00
00535              14.00    -8000.00
00536              18.00    -7600.00
00537              14.00    -7600.00
00538              14.00    -7400.00
00539              18.00    -7200.00
00540              18.00    -7000.00
00541              10.00    -6800.00
00542              10.00    -6800.00
00543              10.00    -6600.00
00544              14.00    -6600.00
00545              20.00    -6200.00
00546              12.00    -6200.00
00547              10.00    -6000.00
00548              10.00    -5800.00
00549               8.00    -5600.00
00550              14.00    -5400.00
00551              12.00    -5200.00
00552              10.00    -5000.00
00553              10.00    -5000.00
00554              10.00    -4600.00
00555               6.00    -4400.00
00556              10.00    -4400.00
00557              10.00    -4200.00
00558              10.00    -4000.00
00559              12.00    -4000.00
00560              10.00    -3600.00
00561               4.00    -3400.00
00562               2.00    -3400.00
00563               4.00    -3200.00
00564              12.00    -2800.00
00565              12.00    -2800.00
00566               6.00    -2600.00
00567               2.00    -2400.00
00568               4.00    -2200.00
00569               4.00    -2000.00
00570               4.00    -2000.00
00571               4.00    -1600.00
00572               4.00    -1400.00
00573               6.00    -1200.00
00574               2.00    -1200.00
00575               2.00    -1000.00
00576               2.00     -800.00
00577               4.00     -600.00
00578               6.00     -400.00
00579               2.00        0.00
00580               2.00        0.00
00581               8.00      400.00
00582              28.00      400.00
00583              26.00      800.00
00584             -14.00      800.00
00585             -20.00     1200.00
00586              14.00     1200.00
00587              30.00     1400.00
00588              42.00     1600.00
00589             178.00     1800.00
00590             250.00     2200.00
00591            -250.00     2200.00
00592            -250.00     2400.00
00593             -54.00     2400.00
00594             250.00     2800.00
00595             250.00     3000.00
00596             186.00     3200.00
00597            -250.00     3000.00
00598            -250.00     3600.00
00599             250.00     3600.00
00600             162.00     3600.00
00601            -250.00     4000.00
00602            -194.00     4000.00
00603             156.00     4600.00
00604             250.00     4400.00
00605              -6.00     4600.00
00606            -250.00     5200.00
00607            -148.00     4800.00
00608             250.00     5600.00
00609             250.00     5600.00
00610            -172.00     5400.00
00611            -250.00     6000.00
00612              36.00     5600.00
00613             250.00     6200.00
00614              44.00     6400.00
00615            -246.00     6400.00
00616            -104.00     6800.00
00617             202.00     6800.00
00618             122.00     7000.00
00619            -150.00     7000.00
00620            -182.00     7200.00
00621               4.00     7600.00
00622             212.00     7600.00
00623              44.00     7800.00
00624            -210.00     7800.00
00625             -90.00     8000.00
00626              84.00     8200.00
00627              92.00     8200.00
00628             -52.00     8400.00
00629            -134.00     8600.00
00630             -20.00     8600.00
00631             110.00     8800.00
00632              10.00     9000.00
00633            -114.00     9000.00
00634             -70.00     9200.00
00635              34.00     9200.00
00636              60.00     9400.00
00637             -28.00     9600.00
00638             -92.00     9600.00
00639             -36.00     9800.00
00640              36.00    10000.00
00641               2.00    10000.00
00642             -46.00    10200.00
00643             -42.00    10200.00
00644              -6.00    10400.00
00645              12.00    10400.00
00646             -32.00    10400.00
00647             -56.00    10600.00
00648             -20.00    10600.00
00649               4.00    10800.00
00650              -4.00    10800.00
00651             -28.00    11000.00
00652             -42.00    11000.00
00653             -22.00    11200.00
00654             -10.00    11200.00
00655             -22.00    11200.00
00656             -22.00    11400.00
00657             -18.00    11200.00
00658             -20.00    11200.00
00659             -26.00    11600.00
00660             -30.00    11400.00
00661             -28.00    11600.00
00662             -20.00    11600.00
00663             -10.00    11800.00
00664             -18.00    11800.00
00665             -26.00    11800.00
00666             -30.00    11800.00
00667             -28.00    11800.00
00668             -22.00    11800.00
00669             -18.00    11800.00
00670             -20.00    11800.00
00671             -26.00    11800.00
00672             -26.00    11800.00
00673             -24.00    11800.00
00674             -26.00    11800.00
00675             -28.00    12000.00
00676             -22.00    11800.00
00677             -18.00    11800.00
00678             -20.00    11800.00
00679             -28.00    11800.00
00680             -34.00    11800.00
00681             -28.00    11800.00
00682             -18.00    11800.00
00683             -18.00    11800.00
00684             -22.00    11800.00
00685             -28.00    11800.00
00686             -30.00    11600.00
00687             -28.00    11600.00
00688             -22.00    11600.00
00689             -26.00    11600.00
00690             -26.00    11600.00
00691             -22.00    11400.00
00692             -22.00    11400.00
00693             -28.00    11200.00
00694             -30.00    11200.00
00695             -28.00    11200.00
00696             -22.00    11000.00
00697             -18.00    11000.00
00698             -22.00    11000.00
00699             -30.00    11000.00
00700             -30.00    10800.00
00701             -28.00    10800.00
00702             -22.00    10800.00
00703             -20.00    10600.00
00704             -28.00    10400.00
00705             -26.00    10400.00
00706             -22.00    10400.00
00707             -30.00    10200.00
00708             -28.00    10200.00
00709             -22.00    10000.00
00710             -20.00    10000.00
00711             -22.00     9600.00
00712             -28.00     9600.00
00713             -30.00     9600.00
00714             -22.00     9400.00
00715             -20.00     9400.00
00716             -22.00     9200.00
00717             -22.00     9200.00
00718             -22.00     9200.00
00719             -22.00     8800.00
00720             -26.00     8800.00
00721             -28.00     8600.00
00722             -22.00     8400.00
00723             -14.00     8400.00
00724             -18.00     8400.00
00725             -22.00     8400.00
00726             -22.00     8000.00
00727             -22.00     7800.00
00728             -18.00     7600.00
00729             -20.00     7600.00
00730             -20.00     7600.00
00731             -14.00     7200.00
00732             -14.00     7200.00
00733             -22.00     6800.00
00734             -26.00     6800.00
00735             -22.00     6400.00
00736             -12.00     6400.00
00737             -10.00     6200.00
00738             -18.00     6200.00
00739             -20.00     6000.00
00740             -22.00     5600.00
00741             -20.00     5600.00
00742             -12.00     5600.00
00743             -10.00     5200.00
00744             -12.00     5200.00
00745             -18.00     4800.00
00746             -18.00     4600.00
00747             -14.00     4600.00
00748             -10.00     4400.00
00749             -10.00     4000.00
00750             -12.00     4000.00
00751             -14.00     3800.00
00752             -18.00     3800.00
00753             -14.00     3600.00
00754             -16.00     3200.00
00755             -12.00     3200.00
00756             -10.00     3000.00
00757             -10.00     2800.00
00758             -10.00     2600.00
00759             -12.00     2200.00
00760             -12.00     2200.00
00761             -12.00     2000.00
00762             -12.00     1800.00
00763             -10.00     1600.00
00764              -6.00     1400.00
00765              -6.00     1200.00
00766             -12.00     1000.00
00767             -12.00      800.00
00768             -10.00      600.00
00769              -6.00      400.00
00770              -6.00      400.00
00771              -6.00        0.00
00772              -4.00     -200.00
00773               2.00     -400.00
00774              20.00     -400.00
00775              14.00     -400.00
00776             -22.00     -800.00
00777             -26.00     -800.00
00778              10.00    -1200.00
00779              26.00    -1200.00
00780             116.00    -1600.00
00781             250.00    -1800.00
00782             -94.00    -2400.00
00783            -250.00    -2400.00
00784            -250.00    -2600.00
00785             250.00    -2400.00
00786             250.00    -2400.00
00787             250.00    -3200.00
00788            -250.00    -2800.00
00789            -206.00    -3000.00
00790             250.00    -4200.00
00791               4.00    -3000.00
00792            -250.00    -4000.00
00793            -250.00    -4400.00
00794              42.00    -3200.00
00795             250.00    -5200.00
00796            -176.00    -4200.00
00797            -250.00    -4400.00
00798            -124.00    -5800.00
00799             182.00    -4000.00
00800             250.00    -6000.00
00801            -250.00    -5200.00
00802            -250.00    -5000.00
00803              90.00    -6600.00
00804             186.00    -5000.00
00805             194.00    -6600.00
00806            -250.00    -6000.00
00807             -86.00    -6200.00
00808             250.00    -7200.00
00809             116.00    -6200.00
00810             -76.00    -7600.00
00811            -230.00    -6800.00
00812              36.00    -7200.00
00813             250.00    -7600.00
00814              44.00    -7200.00
00815            -158.00    -8000.00
00816             -96.00    -7600.00
00817              98.00    -8000.00
00818             152.00    -8200.00
00819             -38.00    -8200.00
00820            -100.00    -8400.00
00821             -20.00    -8600.00
00822             124.00    -8800.00
00823              68.00    -8800.00
00824             -90.00    -9000.00
00825             -36.00    -9200.00
00826              44.00    -9200.00
00827              86.00    -9200.00
00828              14.00    -9400.00
00829             -54.00    -9800.00
00830             -14.00    -9600.00
00831              62.00    -9800.00
00832              36.00   -10000.00
00833              -4.00   -10000.00
00834              -8.00   -10000.00
00835              12.00   -10200.00
00836              44.00   -10200.00
00837              12.00   -10400.00
00838             -10.00   -10400.00
00839               4.00   -10600.00
00840              32.00   -10800.00
00841              34.00   -10800.00
00842              12.00   -10800.00
00843               0.00   -11000.00
00844              14.00   -11000.00
00845              26.00   -11000.00
00846              18.00   -11000.00
00847              14.00   -11200.00
00848              20.00   -11000.00
00849              26.00   -11400.00
00850              14.00   -11400.00
00851              20.00   -11400.00
00852              10.00   -11400.00
00853              14.00   -11400.00
00854              28.00   -11600.00
00855              22.00   -11600.00
00856              20.00   -11600.00
00857              12.00   -11600.00
00858              14.00   -11600.00
00859              26.00   -11600.00
00860              26.00   -11800.00
00861              22.00   -11600.00
00862              18.00   -11800.00
00863              20.00   -11800.00
00864              20.00   -11800.00
00865              20.00   -11800.00
00866              18.00   -12000.00
00867              18.00   -11800.00
00868              22.00   -11800.00
00869              26.00   -12000.00
00870              20.00   -11800.00
00871              14.00   -11800.00
00872              16.00   -11600.00
00873              20.00   -11800.00
00874              22.00   -11600.00
00875              22.00   -11600.00
00876              22.00   -11600.00
00877              22.00   -11800.00
00878              18.00   -11600.00
00879              16.00   -11400.00
00880              22.00   -11600.00
00881              26.00   -11400.00
00882              28.00   -11400.00
00883              20.00   -11600.00
00884              14.00   -11400.00
00885              14.00   -11400.00
00886              20.00   -11000.00
00887              22.00   -11400.00
00888              20.00   -11000.00
00889              20.00   -11000.00
00890              14.00   -11000.00
00891              16.00   -10800.00
00892              20.00   -10800.00
00893              20.00   -10800.00
00894              22.00   -10600.00
00895              18.00   -10600.00
00896              14.00   -10400.00
00897              20.00   -10400.00
00898              20.00   -10200.00
00899              18.00   -10400.00
00900              18.00   -10000.00
00901              20.00   -10000.00
00902              20.00    -9800.00
00903              14.00    -9800.00
00904              12.00    -9600.00
00905              12.00    -9800.00
00906              22.00    -9600.00
00907              18.00    -9200.00
00908              14.00    -9200.00
00909              16.00    -9200.00
00910              16.00    -9000.00
00911              18.00    -8800.00
00912              12.00    -8600.00
00913              12.00    -8600.00
00914              20.00    -8400.00
00915              18.00    -8200.00
00916              16.00    -8200.00
00917              14.00    -8200.00
00918              14.00    -8000.00
00919              18.00    -7800.00
00920              14.00    -7600.00
00921              12.00    -7600.00
00922              20.00    -7200.00
00923              20.00    -7200.00
00924              14.00    -7000.00
00925              10.00    -6800.00
00926              12.00    -6800.00
00927              18.00    -6600.00
00928              18.00    -6400.00
00929              10.00    -6200.00
00930              12.00    -6000.00
00931              14.00    -5800.00
00932              12.00    -5600.00
00933              10.00    -5600.00
00934               6.00    -5600.00
00935              12.00    -5200.00
00936              18.00    -5000.00
00937              14.00    -4800.00
00938               6.00    -4600.00
00939              10.00    -4400.00
00940              10.00    -4400.00
00941              10.00    -4200.00
00942              12.00    -4000.00
00943              12.00    -3800.00
00944              10.00    -3600.00
00945               6.00    -3400.00
00946               2.00    -3200.00
00947               6.00    -3200.00
00948              12.00    -2800.00
00949              10.00    -2600.00
00950               4.00    -2600.00
00951               2.00    -2400.00
00952               4.00    -2000.00
00953               4.00    -2000.00
00954               6.00    -1800.00
00955               4.00    -1600.00
00956               4.00    -1200.00
00957              -2.00    -1200.00
00958               2.00    -1000.00
00959               4.00     -800.00
00960               2.00     -600.00
00961               2.00     -400.00
00962               2.00     -200.00
00963               4.00     -200.00
00964               6.00      200.00
00965              12.00      200.00
00966              34.00      400.00
00967              10.00      800.00
00968             -20.00     1000.00
00969             -12.00      800.00
00970              18.00     1200.00
00971              28.00     1600.00
00972              68.00     1800.00
00973             250.00     2000.00
00974             122.00     2200.00
00975            -250.00     2200.00
00976            -250.00     2400.00
00977             170.00     2600.00
00978             250.00     2800.00
00979             250.00     3000.00
00980             -54.00     3200.00
00981            -250.00     3200.00
00982             138.00     3800.00
00983             250.00     3400.00
00984            -182.00     4000.00
00985            -250.00     4200.00
00986             -62.00     4000.00
00987             250.00     4600.00
00988             250.00     4400.00
00989            -224.00     4800.00
00990            -250.00     4800.00
00991              36.00     4800.00
00992             250.00     5800.00
00993             122.00     5400.00
00994            -250.00     5600.00
00995            -210.00     6000.00
00996             154.00     5600.00
00997             220.00     6400.00
00998             -86.00     6400.00
00999            -250.00     6400.00
01000              20.00     6800.00
01001             228.00     6800.00
01002              12.00     7200.00
01003            -190.00     7000.00
01004            -140.00     7400.00
01005              98.00     7600.00
01006             200.00     7800.00
01007             -76.00     8000.00
01008            -202.00     7800.00
01009             -10.00     8200.00
01010             108.00     8400.00
01011              50.00     8400.00
01012            -102.00     8400.00
01013            -112.00     8800.00
01014              46.00     8600.00
01015             100.00     8800.00
01016             -48.00     9000.00
01017            -118.00     9200.00
01018             -30.00     9200.00
01019              58.00     9200.00
01020              40.00     9600.00
01021             -58.00     9600.00
01022             -86.00     9600.00
01023              -6.00     9800.00
01024              34.00    10000.00
01025             -20.00    10000.00
01026             -46.00    10200.00
01027             -30.00    10200.00
01028               4.00    10400.00
01029               0.00    10400.00
01030             -46.00    10600.00
01031             -44.00    10600.00
01032              -6.00    10600.00
01033               2.00    10800.00
01034             -12.00    10800.00
01035             -36.00    10800.00
01036             -38.00    11000.00
01037             -20.00    11000.00
01038             -16.00    11000.00
01039             -22.00    11200.00
01040             -22.00    11200.00
01041             -16.00    11400.00
01042             -22.00    11200.00
01043             -28.00    11400.00
01044             -32.00    11600.00
01045             -26.00    11600.00
01046             -14.00    11600.00
01047             -10.00    11600.00
01048             -22.00    11600.00
01049             -34.00    11800.00
01050             -30.00    11800.00
01051             -22.00    11600.00
01052             -18.00    11800.00
01053             -20.00    11800.00
01054             -26.00    11800.00
01055             -26.00    11800.00
01056             -24.00    11800.00
01057             -30.00    11800.00
01058             -28.00    11800.00
01059             -22.00    11800.00
01060             -18.00    12000.00
01061             -14.00    11800.00
01062             -28.00    11800.00
01063             -34.00    11800.00
01064             -28.00    11800.00
01065             -22.00    11800.00
01066             -20.00    11800.00
01067             -22.00    11800.00
01068             -28.00    11600.00
01069             -28.00    11800.00
01070             -26.00    11800.00
01071             -26.00    11800.00
01072             -24.00    11600.00
01073             -22.00    11600.00
01074             -22.00    11400.00
01075             -20.00    11400.00
01076             -22.00    11600.00
01077             -30.00    11200.00
01078             -30.00    11200.00
01079             -26.00    11200.00
01080             -20.00    11000.00
01081             -18.00    11000.00
01082             -24.00    11000.00
01083             -30.00    10800.00
01084             -30.00    11000.00
01085             -28.00    10600.00
01086             -18.00    10800.00
01087             -22.00    10400.00
01088             -22.00    10400.00
01089             -28.00    10400.00
01090             -30.00    10400.00
01091             -30.00    10200.00
01092             -22.00    10200.00
01093             -20.00    10000.00
01094             -20.00    10000.00
01095             -28.00    10000.00
01096             -30.00     9600.00
01097             -26.00     9400.00
01098             -20.00     9400.00
01099             -22.00     9400.00
01100             -20.00     9200.00
01101             -20.00     9000.00
01102             -22.00     8800.00
01103             -28.00     8800.00
01104             -28.00     8600.00
01105             -22.00     8600.00
01106             -12.00     8400.00
01107             -18.00     8400.00
01108             -22.00     8200.00
01109             -24.00     8000.00
01110             -22.00     8000.00
01111             -22.00     7800.00
01112             -22.00     7600.00
01113             -18.00     7600.00
01114             -14.00     7200.00
01115             -18.00     7200.00
01116             -22.00     7000.00
01117             -22.00     6800.00
01118             -18.00     6800.00
01119             -14.00     6400.00
01120             -16.00     6400.00
01121             -16.00     6200.00
01122             -16.00     6000.00
01123             -16.00     6000.00
01124             -22.00     6000.00
01125             -18.00     5600.00
01126             -14.00     5400.00
01127             -12.00     5200.00
01128             -14.00     5000.00
01129             -18.00     4800.00
01130             -20.00     4600.00
01131             -14.00     4600.00
01132             -14.00     4400.00
01133             -10.00     4000.00
01134             -10.00     4000.00
01135             -12.00     3800.00
01136             -12.00     3600.00
01137             -18.00     3400.00
01138             -16.00     3200.00
01139              -6.00     3000.00
01140              -6.00     3000.00
01141              -8.00     2800.00
01142             -14.00     2400.00
01143             -16.00     2400.00
01144             -12.00     2000.00
01145             -10.00     1800.00
01146              -8.00     1800.00
01147             -10.00     1600.00
01148             -10.00     1400.00
01149             -12.00     1000.00
01150             -12.00      800.00
01151             -12.00      800.00
01152             -10.00      600.00
01153              -2.00      400.00
01154              -4.00      200.00
01155              -4.00        0.00
01156              -6.00     -400.00
01157               2.00     -400.00
01158              28.00     -600.00
01159               8.00     -800.00
01160             -28.00    -1000.00
01161             -22.00    -1000.00
01162              12.00    -1400.00
01163              36.00    -1400.00
01164             214.00    -1600.00
01165             250.00    -2000.00
01166            -250.00    -2400.00
01167            -250.00    -2400.00
01168             -50.00    -2800.00
01169             250.00    -2400.00
01170             250.00    -2600.00
01171            -182.00    -3400.00
01172            -250.00    -2800.00
01173             250.00    -3400.00
01174             250.00    -4200.00
01175            -250.00    -2800.00
01176            -250.00    -4600.00
01177            -250.00    -4000.00
01178             250.00    -3600.00
01179             250.00    -5400.00
01180            -250.00    -3800.00
01181            -250.00    -5400.00
01182             -84.00    -5000.00
01183             250.00    -4400.00
01184             250.00    -6200.00
01185            -250.00    -4600.00
01186             -82.00    -6000.00
01187             100.00    -6200.00
01188             250.00    -5600.00
01189              14.00    -6800.00
01190            -250.00    -5800.00
01191             100.00    -6800.00
01192             230.00    -6600.00
01193              54.00    -6600.00
01194            -156.00    -7600.00
01195            -182.00    -6800.00
01196             162.00    -7600.00
01197             220.00    -7200.00
01198             -54.00    -7400.00
01199            -158.00    -8000.00
01200             -34.00    -7600.00
01201             150.00    -8400.00
01202              98.00    -8200.00
01203             -86.00    -8200.00
01204             -82.00    -8400.00
01205              36.00    -8400.00
01206             146.00    -8800.00
01207               0.00    -8800.00
01208             -90.00    -9000.00
01209             -10.00    -9200.00
01210              62.00    -9200.00
01211              78.00    -9200.00
01212             -12.00    -9400.00
01213             -52.00    -9600.00
01214              14.00    -9800.00
01215              62.00   -10000.00
01216              18.00    -9800.00
01217              -4.00   -10000.00
01218              -6.00   -10000.00
01219              26.00   -10200.00
01220              42.00   -10400.00
01221               2.00   -10400.00
01222             -10.00   -10600.00
01223               4.00   -10600.00
01224              34.00   -10800.00
01225              30.00   -10800.00
01226              12.00   -10600.00
01227               2.00   -10800.00
01228              12.00   -11000.00
01229              20.00   -11200.00
01230              20.00   -11000.00
01231              18.00   -11200.00
01232              20.00   -11200.00
01233              18.00   -11200.00
01234              16.00   -11000.00
01235              18.00   -11600.00
01236               6.00   -11400.00
01237              18.00   -11400.00
01238              30.00   -11400.00
01239              26.00   -11600.00
01240              14.00   -11600.00
01241               6.00   -11600.00
01242              14.00   -11600.00
01243              24.00   -11800.00
01244              22.00   -11600.00
01245              18.00   -11600.00
01246              18.00   -11800.00
01247              26.00   -11800.00
01248              18.00   -11800.00
01249              18.00   -11800.00
01250              18.00   -11800.00
01251              22.00   -11600.00
01252              28.00   -11800.00
01253              22.00   -11800.00
01254              10.00   -11800.00
01255              14.00   -11600.00
01256              26.00   -11600.00
01257              26.00   -11600.00
01258              20.00   -11600.00
01259              20.00   -11600.00
01260              20.00   -11600.00
01261              22.00   -11600.00
01262              18.00   -11600.00
01263              20.00   -11400.00
01264              26.00   -11400.00
01265              26.00   -11400.00
01266              24.00   -11400.00
01267              20.00   -11400.00
01268              14.00   -11400.00
01269              20.00   -11000.00
01270              22.00   -11200.00
01271              22.00   -11000.00
01272              22.00   -11000.00
01273              18.00   -11000.00
01274              18.00   -11000.00
01275              20.00   -10800.00
01276              20.00   -10800.00
01277              22.00   -10800.00
01278              20.00   -10600.00
01279              16.00   -10600.00
01280              20.00   -10400.00
01281              22.00   -10400.00
01282              20.00   -10400.00
01283              14.00   -10200.00
01284              18.00   -10000.00
01285              20.00   -10000.00
01286              20.00   -10000.00
01287              22.00    -9800.00
01288              14.00    -9800.00
01289              14.00    -9600.00
01290              14.00    -9400.00
01291              18.00    -9200.00
01292              20.00    -9200.00
01293              20.00    -9000.00
01294              16.00    -9200.00
01295              12.00    -8800.00
01296              12.00    -8800.00
01297              18.00    -8400.00
01298              20.00    -8400.00
01299              14.00    -8200.00
01300              12.00    -8200.00
01301              18.00    -8000.00
01302              14.00    -8000.00
01303              14.00    -7600.00
01304              12.00    -7600.00
01305              18.00    -7400.00
01306              22.00    -7400.00
01307              18.00    -7200.00
01308              10.00    -7000.00
01309              10.00    -6800.00
01310              14.00    -6800.00
01311              18.00    -6400.00
01312              14.00    -6400.00
01313              12.00    -6200.00
01314              18.00    -6000.00
01315              14.00    -6000.00
01316              10.00    -5600.00
01317              12.00    -5600.00
01318              12.00    -5200.00
01319              16.00    -5200.00
01320              10.00    -5000.00
01321               6.00    -4600.00
01322              10.00    -4600.00
01323              14.00    -4400.00
01324              12.00    -4200.00
01325              12.00    -4000.00
01326              10.00    -4000.00
01327              10.00    -3800.00
01328              10.00    -3400.00
01329               4.00    -3400.00
01330               4.00    -3200.00
01331              12.00    -3000.00
01332              12.00    -2800.00
01333               8.00    -2600.00
01334               4.00    -2600.00
01335               4.00    -2200.00
01336               4.00    -2000.00
01337               6.00    -1800.00
01338              10.00    -1600.00
01339               4.00    -1600.00
01340               2.00    -1400.00
01341               2.00    -1200.00
01342               4.00     -800.00
01343               4.00     -800.00
01344               4.00     -600.00
01345              -2.00     -400.00
01346               2.00        0.00
01347               4.00        0.00
01348              10.00        0.00
01349              20.00      400.00
01350              30.00      600.00
01351              -4.00      600.00
01352             -26.00     1000.00
01353               2.00     1200.00
01354              28.00     1400.00
01355              34.00     1400.00
01356             116.00     1800.00
01357             250.00     2000.00
01358             -82.00     2200.00
01359            -250.00     2400.00
01360            -250.00     2600.00
01361             250.00     2400.00
01362             250.00     2800.00
01363             250.00     3200.00
01364            -250.00     3000.00
01365            -250.00     3400.00
01366             250.00     3600.00
01367             250.00     3400.00
01368            -250.00     4000.00
01369            -250.00     4000.00
01370              58.00     4400.00
01371             250.00     4600.00
01372             172.00     4400.00
01373            -250.00     5000.00
01374            -250.00     4800.00
01375             196.00     5200.00
01376             250.00     5600.00
01377             -44.00     5200.00
01378            -250.00     6000.00
01379             -84.00     6000.00
01380             234.00     6000.00
01381             142.00     6400.00
01382            -202.00     6200.00
01383            -192.00     6600.00
01384             140.00     6800.00
01385             194.00     7200.00
01386             -90.00     7200.00
01387            -204.00     7200.00
01388             -74.00     7400.00
01389             182.00     7600.00
01390             138.00     7800.00
01391            -170.00     7800.00
01392            -154.00     8000.00
01393              50.00     8200.00
01394             108.00     8400.00
01395              -4.00     8400.00
01396            -128.00     8600.00
01397             -62.00     8600.00
01398              94.00     8800.00
01399              58.00     9000.00
01400             -98.00     9000.00
01401             -98.00     9200.00
01402              10.00     9400.00
01403              68.00     9200.00
01404               8.00     9600.00
01405             -82.00     9600.00
01406             -68.00     9800.00
01407              18.00    10000.00
01408              20.00    10000.00
01409             -34.00    10000.00
01410             -44.00    10200.00
01411             -22.00    10200.00
01412               6.00    10400.00
01413             -12.00    10400.00
01414             -52.00    10400.00
01415             -34.00    10600.00
01416              -2.00    10800.00
01417              -4.00    10800.00
01418             -22.00    10800.00
01419             -44.00    11000.00
01420             -32.00    11000.00
01421             -12.00    11000.00
01422             -16.00    11200.00
01423             -28.00    11200.00
01424             -24.00    11200.00
01425             -16.00    11200.00
01426             -22.00    11200.00
01427             -28.00    11400.00
01428             -34.00    11200.00
01429             -26.00    11600.00
01430             -12.00    11400.00
01431             -12.00    11600.00
01432             -28.00    11600.00
01433             -36.00    11800.00
01434             -28.00    11800.00
01435             -20.00    11800.00
01436             -20.00    11800.00
01437             -22.00    11800.00
01438             -22.00    11800.00
01439             -20.00    11800.00
01440             -28.00    11800.00
01441             -30.00    12000.00
01442             -28.00    11800.00
01443             -22.00    11800.00
01444             -12.00    12000.00
01445             -22.00    11800.00
01446             -30.00    11800.00
01447             -28.00    11800.00
01448             -28.00    11800.00
01449             -22.00    11800.00
01450             -20.00    11800.00
01451             -22.00    11800.00
01452             -22.00    11600.00
01453             -26.00    11800.00
01454             -34.00    11600.00
01455             -28.00    11600.00
01456             -14.00    11600.00
01457             -22.00    11800.00
01458             -20.00    11400.00
01459             -26.00    11400.00
01460             -28.00    11200.00
01461             -28.00    11400.00
01462             -28.00    11200.00
01463             -20.00    11200.00
01464             -14.00    11000.00
01465             -22.00    11200.00
01466             -32.00    11000.00
01467             -28.00    10800.00
01468             -26.00    10800.00
01469             -22.00    10800.00
01470             -22.00    10800.00
01471             -26.00    10600.00
01472             -22.00    10400.00
01473             -24.00    10400.00
01474             -30.00    10200.00
01475             -26.00    10200.00
01476             -22.00    10000.00
01477             -18.00    10000.00
01478             -20.00    10000.00
01479             -30.00     9800.00
01480             -28.00     9600.00
01481             -22.00     9400.00
01482             -22.00     9400.00
01483             -22.00     9200.00
01484             -22.00     9200.00
01485             -22.00     8800.00
01486             -20.00     8800.00
01487             -24.00     8800.00
01488             -26.00     8600.00
01489             -22.00     8600.00
01490             -22.00     8400.00
01491             -18.00     8400.00
01492             -18.00     8200.00
01493             -22.00     8000.00
01494             -24.00     8000.00
01495             -26.00     7800.00
01496             -20.00     7600.00
01497             -14.00     7600.00
01498             -14.00     7200.00
01499             -20.00     7200.00
01500             -24.00     7000.00
01501             -22.00     6800.00
01502             -20.00     6600.00
01503             -18.00     6400.00
01504             -18.00     6200.00
01505             -16.00     6200.00
01506             -14.00     6200.00
01507             -22.00     5800.00
01508             -22.00     5600.00
01509             -14.00     5400.00
01510             -12.00     5200.00
01511             -10.00     5200.00
01512             -18.00     4800.00
01513             -18.00     4800.00
01514             -14.00     4600.00
01515             -14.00     4400.00
01516             -14.00     4400.00
01517             -14.00     4000.00
01518             -10.00     3800.00
01519             -12.00     3600.00
01520             -14.00     3600.00
01521             -18.00     3200.00
01522             -10.00     3200.00
01523              -8.00     3000.00
01524             -12.00     2800.00
01525             -10.00     2400.00
01526             -12.00     2400.00
01527             -10.00     2200.00
01528             -12.00     2200.00
01529             -14.00     2000.00
01530              -6.00     1600.00
01531              -2.00     1400.00
01532              -6.00     1200.00
01533             -10.00     1200.00
01534             -14.00      800.00
01535             -12.00      600.00
01536             -10.00      400.00
01537             -10.00      200.00
01538              -6.00      200.00
01539               8.00        0.00
01540               4.00     -200.00
01541              20.00     -400.00
01542              26.00     -600.00
01543             -10.00     -800.00
01544             -32.00    -1000.00
01545             -10.00    -1000.00
01546              10.00    -1400.00
01547              54.00    -1600.00
01548             250.00    -1800.00
01549             110.00    -2400.00
01550            -250.00    -2400.00
01551            -250.00    -2600.00
01552             148.00    -2800.00
01553             250.00    -2400.00
01554             250.00    -3000.00
01555            -250.00    -3200.00
01556            -250.00    -2600.00
01557             250.00    -4200.00
01558             250.00    -3400.00
01559            -250.00    -3400.00
01560            -250.00    -4800.00
01561            -206.00    -3200.00
01562             250.00    -4600.00
01563             160.00    -4800.00
01564            -250.00    -3800.00
01565            -166.00    -6000.00
01566              22.00    -4400.00
01567             250.00    -5200.00
01568             -42.00    -6000.00
01569            -250.00    -4600.00
01570              44.00    -6600.00
01571             126.00    -5400.00
01572             250.00    -6000.00
01573            -208.00    -6600.00
01574            -250.00    -5600.00
01575             224.00    -7200.00
01576             172.00    -6400.00
01577              -6.00    -7200.00
01578            -220.00    -7200.00
01579             -78.00    -6800.00
01580             238.00    -7800.00
01581             128.00    -7200.00
01582            -130.00    -8000.00
01583            -130.00    -7800.00
01584              42.00    -8000.00
01585             178.00    -8400.00
01586              24.00    -8000.00
01587            -108.00    -8400.00
01588             -54.00    -8400.00
01589              88.00    -8800.00
01590             110.00    -8800.00
01591             -62.00    -9000.00
01592             -62.00    -9000.00
01593              26.00    -9200.00
01594              88.00    -9200.00
01595              46.00    -9400.00
01596             -42.00    -9600.00
01597             -34.00    -9600.00
01598              46.00    -9800.00
01599              52.00    -9800.00
01600               2.00    -9800.00
01601              -6.00   -10000.00
01602              -2.00   -10000.00
01603              42.00   -10400.00
01604              28.00   -10400.00
01605              -6.00   -10400.00
01606              -2.00   -10600.00
01607              26.00   -10600.00
01608              36.00   -10800.00
01609              22.00   -10600.00
01610               2.00   -10800.00
01611               4.00   -11000.00
01612              24.00   -10800.00
01613              22.00   -11000.00
01614              16.00   -11200.00
01615              12.00   -11200.00
01616              26.00   -11200.00
01617              20.00   -11400.00
01618              20.00   -11400.00
01619               6.00   -11400.00
01620               2.00   -11400.00
01621              24.00   -11600.00
01622              34.00   -11400.00
01623              20.00   -11600.00
01624              12.00   -11600.00
01625              10.00   -11600.00
01626              22.00   -11800.00
01627              26.00   -11600.00
01628              16.00   -11600.00
01629              16.00   -11600.00
01630              26.00   -11600.00
01631              26.00   -11800.00
01632              18.00   -12000.00
01633              12.00   -12000.00
01634              20.00   -12000.00
01635              26.00   -11800.00
01636              26.00   -12000.00
01637              14.00   -11800.00
01638              12.00   -11800.00
01639              22.00   -11800.00
01640              26.00   -11600.00
01641              22.00   -11800.00
01642              22.00   -11600.00
01643              20.00   -11600.00
01644              24.00   -11600.00
01645              18.00   -11600.00
01646              14.00   -11600.00
01647              26.00   -11600.00
01648              24.00   -11600.00
01649              24.00   -11400.00
01650              22.00   -11600.00
01651              14.00   -11400.00
01652              18.00   -11400.00
01653              18.00   -11000.00
01654              20.00   -11200.00
01655              26.00   -11000.00
01656              26.00   -11000.00
01657              20.00   -11000.00
01658              16.00   -10800.00
01659              18.00   -10800.00
01660              20.00   -10800.00
01661              20.00   -10600.00
01662              20.00   -10600.00
01663              20.00   -10400.00
01664              22.00   -10600.00
01665              22.00   -10400.00
01666              16.00   -10400.00
01667              14.00   -10000.00
01668              18.00   -10000.00
01669              22.00   -10000.00
01670              20.00    -9800.00
01671              14.00    -9800.00
01672              14.00    -9600.00
01673              14.00    -9600.00
01674              18.00    -9200.00
01675              20.00    -9200.00
01676              18.00    -9200.00
01677              16.00    -9000.00
01678              18.00    -9000.00
01679              14.00    -8800.00
01680              14.00    -8800.00
01681              16.00    -8400.00
01682              14.00    -8400.00
01683              18.00    -8200.00
01684              20.00    -8200.00
01685              14.00    -8000.00
01686              10.00    -8000.00
01687              10.00    -7600.00
01688              14.00    -7400.00
01689              20.00    -7400.00
01690              18.00    -7200.00
01691              12.00    -7200.00
01692               8.00    -7000.00
01693              14.00    -6800.00
01694              14.00    -6600.00
01695              12.00    -6400.00
01696              12.00    -6200.00
01697              16.00    -6000.00
01698              14.00    -6000.00
01699              10.00    -6000.00
01700               8.00    -5600.00
01701              12.00    -5400.00
01702              14.00    -5200.00
01703              12.00    -5200.00
01704               6.00    -4800.00
01705              10.00    -4600.00
01706              10.00    -4400.00
01707              10.00    -4400.00
01708              12.00    -4200.00
01709              12.00    -4000.00
01710              10.00    -3600.00
01711               6.00    -3600.00
01712               4.00    -3400.00
01713               4.00    -3400.00
01714              10.00    -3200.00
01715              10.00    -2800.00
01716               6.00    -2800.00
01717               8.00    -2600.00
01718               6.00    -2400.00
01719               4.00    -2400.00
01720               2.00    -1800.00
01721               4.00    -1800.00
01722              12.00    -1600.00
01723               6.00    -1600.00
01724               4.00    -1400.00
01725               2.00    -1000.00
01726               4.00     -800.00
01727               2.00     -600.00
01728               2.00     -400.00
01729               0.00     -400.00
01730               4.00     -200.00
01731               6.00        0.00
01732               6.00      400.00
01733              26.00      400.00
01734              20.00      600.00
01735             -12.00      800.00
01736             -16.00      800.00
01737              14.00     1200.00
01738              30.00     1400.00
01739              42.00     1400.00
01740             186.00     2000.00
01741             232.00     2200.00
01742            -250.00     2200.00
01743            -250.00     2400.00
01744             -12.00     2400.00
01745             250.00     2400.00
01746             250.00     3000.00
01747             154.00     3200.00
01748            -250.00     3000.00
01749            -206.00     3600.00
01750             250.00     3600.00
01751             100.00     3600.00
01752            -250.00     4000.00
01753            -176.00     4000.00
01754             170.00     4600.00
01755             250.00     4400.00
01756             -44.00     4600.00
01757            -250.00     5200.00
01758            -116.00     4800.00
01759             250.00     5600.00
01760             246.00     5400.00
01761            -198.00     5400.00
01762            -250.00     6200.00
01763              58.00     5600.00
01764             250.00     6200.00
01765              14.00     6400.00
01766            -250.00     6400.00
01767             -82.00     6800.00
01768             212.00     6800.00
01769             106.00     7000.00
01770            -162.00     7000.00
01771            -182.00     7200.00
01772              18.00     7600.00
01773             218.00     7600.00
01774              24.00     7800.00
01775            -214.00     8000.00
01776             -76.00     8200.00
01777              90.00     8400.00
01778              84.00     8400.00
01779             -64.00     8600.00
01780            -128.00     8600.00
01781              -2.00     8600.00
01782             108.00     8800.00
01783               2.00     9000.00
01784            -116.00     9000.00
01785             -60.00     9200.00
01786              38.00     9200.00
01787              56.00     9400.00
01788             -28.00     9600.00
01789             -86.00     9600.00
01790             -32.00     9800.00
01791              34.00    10000.00
01792               2.00    10000.00
01793             -44.00    10200.00
01794             -38.00    10200.00
01795              -6.00    10200.00
01796               6.00    10400.00
01797             -30.00    10400.00
01798             -52.00    10600.00
01799             -20.00    10800.00
01800               2.00    10800.00
01801              -6.00    10800.00
01802             -28.00    10800.00
01803             -38.00    11000.00
01804             -22.00    11200.00
01805             -10.00    11000.00
01806             -26.00    11200.00
01807             -26.00    11200.00
01808             -14.00    11200.00
01809             -14.00    11200.00
01810             -28.00    11200.00
01811             -34.00    11600.00
01812             -34.00    11600.00
01813             -16.00    11600.00
01814              -4.00    11600.00
01815             -20.00    11600.00
01816             -34.00    11600.00
01817             -30.00    11600.00
01818             -24.00    11600.00
01819             -20.00    11800.00
01820             -22.00    11800.00
01821             -22.00    11800.00
01822             -20.00    11800.00
01823             -24.00    11800.00
01824             -30.00    11800.00
01825             -30.00    11800.00
01826             -22.00    12000.00
01827             -18.00    11800.00
01828             -18.00    11800.00
01829             -26.00    11800.00
01830             -28.00    11800.00
01831             -28.00    11800.00
01832             -28.00    11800.00
01833             -18.00    11800.00
01834             -18.00    11800.00
01835             -22.00    11800.00
01836             -26.00    11800.00
01837             -30.00    11600.00
01838             -30.00    11600.00
01839             -20.00    11600.00
01840             -22.00    11600.00
01841             -22.00    11600.00
01842             -20.00    11400.00
01843             -24.00    11400.00
01844             -28.00    11200.00
01845             -30.00    11200.00
01846             -24.00    11200.00
01847             -14.00    11000.00
01848             -20.00    11200.00
01849             -28.00    11200.00
01850             -28.00    11000.00
01851             -28.00    10800.00
01852             -26.00    10800.00
01853             -24.00    10800.00
01854             -20.00    10600.00
01855             -20.00    10600.00
01856             -22.00    10400.00
01857             -28.00    10400.00
01858             -28.00    10200.00
01859             -22.00    10200.00
01860             -18.00    10000.00
01861             -22.00    10000.00
01862             -26.00     9800.00
01863             -26.00     9600.00
01864             -22.00     9600.00
01865             -26.00     9400.00
01866             -26.00     9400.00
01867             -22.00     9200.00
01868             -18.00     9000.00
01869             -20.00     9000.00
01870             -28.00     8800.00
01871             -28.00     8800.00
01872             -22.00     8600.00
01873             -18.00     8600.00
01874             -20.00     8400.00
01875             -22.00     8400.00
01876             -22.00     8200.00
01877             -22.00     8000.00
01878             -22.00     7800.00
01879             -22.00     7800.00
01880             -20.00     7600.00
01881             -20.00     7400.00
01882             -20.00     7200.00
01883             -20.00     7000.00
01884             -22.00     7000.00
01885             -20.00     6800.00
01886             -22.00     6600.00
01887             -20.00     6200.00
01888             -12.00     6400.00
01889             -12.00     6200.00
01890             -20.00     6000.00
01891             -20.00     5800.00
01892             -20.00     5600.00
01893             -16.00     5400.00
01894             -14.00     5400.00
01895             -18.00     5200.00
01896             -20.00     4800.00
01897             -12.00     4800.00
01898             -16.00     4600.00
01899             -18.00     4400.00
01900             -14.00     4000.00
01901              -6.00     4000.00
01902             -10.00     3800.00
01903             -16.00     3600.00
01904             -18.00     3600.00
01905             -14.00     3200.00
01906              -6.00     3200.00
01907             -10.00     3000.00
01908             -12.00     2800.00
01909             -10.00     2600.00
01910             -12.00     2400.00
01911             -12.00     2200.00
01912             -14.00     2000.00
01913             -12.00     2000.00
01914              -4.00     1600.00
01915              -6.00     1400.00
01916             -10.00     1200.00
01917             -12.00     1200.00
01918             -12.00      800.00
01919              -6.00      600.00
01920              -6.00      400.00
01921              -4.00      400.00
01922               2.00        0.00
01923              -2.00     -200.00
01924              -2.00     -200.00
01925              22.00     -400.00
01926              20.00     -800.00
01927             -20.00    -1000.00
01928             -28.00     -800.00
01929               6.00    -1200.00
01930              28.00    -1400.00
01931             136.00    -1600.00
01932             250.00    -2000.00
01933            -146.00    -2400.00
01934            -250.00    -2400.00
01935            -242.00    -2600.00
01936             250.00    -2400.00
01937             250.00    -2400.00
01938             250.00    -3400.00
01939            -250.00    -2800.00
01940             -94.00    -2800.00
01941             250.00    -4400.00
01942             -66.00    -3000.00
01943            -250.00    -4000.00
01944            -250.00    -4400.00
01945             106.00    -3200.00
01946             250.00    -5200.00
01947            -238.00    -4200.00
01948            -250.00    -4800.00
01949            -124.00    -5800.00
01950             220.00    -4000.00
01951             250.00    -6000.00
01952            -250.00    -5200.00
01953            -236.00    -5200.00
01954              90.00    -6600.00
01955             198.00    -5200.00
01956             172.00    -6800.00
01957            -250.00    -6000.00
01958             -52.00    -6200.00
01959             250.00    -7200.00
01960             102.00    -6200.00
01961             -92.00    -7400.00
01962            -230.00    -6800.00
01963              66.00    -7400.00
01964             250.00    -7600.00
01965              22.00    -7200.00
01966            -162.00    -8200.00
01967             -86.00    -7600.00
01968             110.00    -8200.00
01969             148.00    -8200.00
01970             -52.00    -8400.00
01971             -98.00    -8400.00
01972              -2.00    -8600.00
01973             130.00    -8800.00
01974              56.00    -8800.00
01975             -90.00    -9000.00
01976             -28.00    -9200.00
01977              50.00    -9200.00
01978              86.00    -9200.00
01979              12.00    -9400.00
01980             -46.00    -9600.00
01981              -6.00    -9600.00
01982              62.00    -9800.00
01983              30.00    -9800.00
01984               2.00   -10000.00
01985              -4.00   -10000.00
01986              16.00   -10200.00
01987              44.00   -10400.00
01988              14.00   -10600.00
01989              -4.00   -10600.00
01990               4.00   -10600.00
01991              28.00   -10600.00
01992              34.00   -10800.00
01993              16.00   -10800.00
01994               2.00   -10800.00
01995              10.00   -11000.00
01996              22.00   -11200.00
01997              26.00   -11000.00
01998              14.00   -11200.00
01999              16.00   -11200.00
02000              20.00   -11200.00
02001              18.00   -11400.00
02002              18.00   -11400.00
02003               6.00   -11400.00
02004              10.00   -11600.00
02005              34.00   -11600.00
02006              26.00   -11600.00
02007              18.00   -11600.00
02008              10.00   -11800.00
02009              12.00   -11600.00
02010              26.00   -11600.00
02011              24.00   -11600.00
02012              18.00   -11600.00
02013              18.00   -11800.00
02014              22.00   -11800.00
02015              18.00   -11800.00
02016              18.00   -12000.00
02017              20.00   -12000.00
02018              20.00   -11800.00
02019              26.00   -11800.00
02020              20.00   -11800.00
02021              14.00   -12000.00
02022              18.00   -11800.00
02023              22.00   -11800.00
02024              22.00   -11600.00
02025              22.00   -11600.00
02026              20.00   -11600.00
02027              20.00   -11600.00
02028              20.00   -11600.00
02029              18.00   -11600.00
02030              22.00   -11400.00
02031              26.00   -11400.00
02032              20.00   -11600.00
02033              22.00   -11400.00
02034              22.00   -11400.00
02035              20.00   -11200.00
02036              18.00   -11400.00
02037              18.00   -11000.00
02038              24.00   -11000.00
02039              26.00   -11200.00
02040              20.00   -10800.00
02041              18.00   -10800.00
02042              18.00   -11000.00
02043              20.00   -10800.00
02044              22.00   -10800.00
02045              22.00   -10600.00
02046              20.00   -10400.00
02047              20.00   -10400.00
02048              18.00   -10400.00
02049              18.00   -10400.00
02050              20.00   -10200.00
02051              20.00   -10000.00
02052              22.00   -10000.00
02053              18.00    -9800.00
02054              16.00    -9800.00
02055              20.00    -9600.00
02056              18.00    -9600.00
02057              18.00    -9600.00
02058              18.00    -9400.00
02059              18.00    -9200.00
02060              18.00    -9200.00
02061              16.00    -9000.00
02062              12.00    -8800.00
02063              16.00    -8600.00
02064              20.00    -8600.00
02065              14.00    -8400.00
02066              14.00    -8400.00
02067              14.00    -8200.00
02068              14.00    -8200.00
02069              14.00    -8000.00
02070              12.00    -7800.00
02071              12.00    -7600.00
02072              18.00    -7400.00
02073              18.00    -7200.00
02074              14.00    -7200.00
02075               6.00    -7000.00
02076               6.00    -6800.00
02077              16.00    -6600.00
02078              12.00    -6600.00
02079              14.00    -6400.00
02080              10.00    -6400.00
02081               6.00    -6000.00
02082              10.00    -5800.00
02083              14.00    -5800.00
02084              12.00    -5600.00
02085              12.00    -5400.00
02086              10.00    -5200.00
02087               8.00    -5000.00
02088              10.00    -4800.00
02089              12.00    -4600.00
02090               6.00    -4400.00
02091              10.00    -4400.00
02092              12.00    -4200.00
02093              10.00    -4000.00
02094               6.00    -3800.00
02095               4.00    -3600.00
02096               6.00    -3400.00
02097              12.00    -3200.00
02098               6.00    -3200.00
02099               6.00    -2800.00
02100               4.00    -2600.00
02101               6.00    -2400.00
02102               6.00    -2200.00
02103               4.00    -2000.00
02104               4.00    -2000.00
02105              10.00    -1600.00
02106               8.00    -1600.00
02107               4.00    -1200.00
02108               2.00    -1200.00
02109               4.00    -1000.00
02110               6.00     -800.00
02111               2.00     -600.00
02112               2.00     -400.00
02113               2.00     -200.00
02114              10.00        0.00
02115               4.00      200.00
02116              12.00      400.00
02117              32.00      400.00
02118              10.00      800.00
02119             -20.00      600.00
02120             -12.00     1000.00
02121              20.00     1200.00
02122              36.00     1400.00
02123              74.00     1800.00
02124             250.00     2000.00
02125              90.00     2200.00
02126            -250.00     2200.00
02127            -250.00     2400.00
02128             196.00     2400.00
02129             250.00     2800.00
02130             250.00     3200.00
02131            -104.00     3000.00
02132            -250.00     3200.00
02133             206.00     3600.00
02134             250.00     3600.00
02135            -226.00     3800.00
02136            -250.00     4000.00
02137             -48.00     4200.00
02138             250.00     4600.00
02139             250.00     4400.00
02140            -250.00     4800.00
02141            -250.00     4800.00
02142              62.00     4800.00
02143             250.00     5800.00
02144             100.00     5200.00
02145            -250.00     5800.00
02146            -194.00     6000.00
02147             174.00     5600.00
02148             210.00     6400.00
02149            -114.00     6200.00
02150            -246.00     6600.00
02151              44.00     6800.00
02152             228.00     6800.00
02153              -8.00     7200.00
02154            -202.00     7200.00
02155            -132.00     7200.00
02156             116.00     7400.00
02157             194.00     7600.00
02158             -92.00     8000.00
02159            -196.00     8000.00
02160               2.00     8200.00
02161             108.00     8200.00
02162              42.00     8400.00
02163            -102.00     8600.00
02164            -100.00     8600.00
02165              54.00     8600.00
02166              90.00     8800.00
02167             -56.00     8800.00
02168            -108.00     9200.00
02169             -22.00     9200.00
02170              58.00     9400.00
02171              30.00     9400.00
02172             -60.00     9600.00
02173             -84.00     9600.00
02174               2.00     9800.00
02175              30.00    10000.00
02176             -20.00    10200.00
02177             -46.00    10200.00
02178             -28.00    10200.00
02179               4.00    10400.00
02180               4.00    10400.00
02181             -46.00    10600.00
02182             -46.00    10400.00
02183              -4.00    10800.00
02184               4.00    10800.00
02185             -10.00    11000.00
02186             -36.00    11000.00
02187             -42.00    11000.00
02188             -12.00    11000.00
02189              -8.00    11000.00
02190             -26.00    11200.00
02191             -26.00    11200.00
02192             -18.00    11200.00
02193             -20.00    11400.00
02194             -28.00    11600.00
02195             -36.00    11600.00
02196             -28.00    11400.00
02197             -10.00    11600.00
02198             -10.00    11600.00
02199             -28.00    11600.00
02200             -30.00    11600.00
02201             -28.00    11800.00
02202             -22.00    11800.00
02203             -22.00    11800.00
02204             -20.00    12000.00
02205             -20.00    11800.00
02206             -22.00    11800.00
02207             -28.00    11800.00
02208             -34.00    11800.00
02209             -28.00    11800.00
02210             -20.00    11800.00
02211             -14.00    11800.00
02212             -20.00    11800.00
02213             -28.00    11800.00
02214             -30.00    11800.00
02215             -30.00    11800.00
02216             -22.00    11800.00
02217             -14.00    11800.00
02218             -20.00    11800.00
02219             -26.00    11600.00
02220             -30.00    11800.00
02221             -30.00    11600.00
02222             -24.00    11600.00
02223             -22.00    11600.00
02224             -24.00    11600.00
02225             -22.00    11600.00
02226             -22.00    11600.00
02227             -28.00    11200.00
02228             -30.00    11400.00
02229             -28.00    11200.00
02230             -16.00    11000.00
02231             -14.00    11000.00
02232             -24.00    11000.00
02233             -30.00    11000.00
02234             -26.00    11000.00
02235             -26.00    10800.00
02236             -26.00    10800.00
02237             -22.00    10800.00
02238             -20.00    10400.00
02239             -20.00    10400.00
02240             -28.00    10400.00
02241             -30.00    10400.00
02242             -28.00    10200.00
02243             -20.00    10200.00
02244             -18.00    10000.00
02245             -22.00    10000.00
02246             -26.00     9800.00
02247             -22.00     9600.00
02248             -28.00     9600.00
02249             -26.00     9400.00
02250             -22.00     9200.00
02251             -20.00     9200.00
02252             -18.00     9200.00
02253             -28.00     9000.00
02254             -28.00     8800.00
02255             -24.00     8600.00
02256             -20.00     8600.00
02257             -20.00     8400.00
02258             -18.00     8400.00
02259             -20.00     8000.00
02260             -22.00     8200.00
02261             -26.00     7800.00
02262             -28.00     7800.00
02263             -20.00     7600.00
02264             -12.00     7400.00
02265             -18.00     7200.00
02266             -22.00     7200.00
02267             -28.00     7000.00
02268             -22.00     6800.00
02269             -20.00     6800.00
02270             -18.00     6600.00
02271             -18.00     6400.00
02272             -20.00     6200.00
02273             -22.00     6000.00
02274             -22.00     6000.00
02275             -18.00     5600.00
02276             -14.00     5600.00
02277             -14.00     5400.00
02278             -14.00     5200.00
02279             -20.00     5000.00
02280             -14.00     4800.00
02281             -18.00     4600.00
02282             -20.00     4400.00
02283             -14.00     4400.00
02284             -10.00     4000.00
02285             -12.00     4000.00
02286             -18.00     3800.00
02287             -20.00     3600.00
02288             -14.00     3400.00
02289             -12.00     3200.00
02290             -12.00     3000.00
02291             -12.00     2800.00
02292              -8.00     2800.00
02293             -10.00     2600.00
02294             -14.00     2400.00
02295             -14.00     2000.00
02296             -12.00     2000.00
02297              -4.00     1800.00
02298              -8.00     1600.00
02299             -10.00     1400.00
02300             -10.00     1000.00
02301             -10.00      800.00
02302              -6.00      800.00
02303             -10.00      600.00
02304              -6.00      400.00
02305               0.00      200.00
02306              -2.00        0.00
02307              -6.00     -200.00
02308               4.00     -400.00
02309              28.00     -400.00
02310               4.00     -800.00
02311             -28.00     -800.00
02312             -18.00    -1000.00
02313              20.00    -1200.00
02314              42.00    -1400.00
02315             228.00    -1800.00
02316             250.00    -2200.00
02317            -250.00    -2400.00
02318            -250.00    -2400.00
02319             -12.00    -2800.00
02320             250.00    -2400.00
02321             250.00    -2600.00
02322            -250.00    -3400.00
02323            -250.00    -2600.00
02324             250.00    -3600.00
02325             250.00    -4000.00
02326            -250.00    -2800.00
02327            -250.00    -4400.00
02328            -250.00    -3600.00
02329             250.00    -4000.00
02330             250.00    -5400.00
02331            -250.00    -3600.00
02332            -234.00    -5600.00
02333             -72.00    -5000.00
02334             250.00    -4400.00
02335             242.00    -6200.00
02336            -250.00    -4600.00
02337             -58.00    -6000.00
02338             106.00    -6000.00
02339             250.00    -5400.00
02340             -28.00    -7000.00
02341            -250.00    -5800.00
02342             130.00    -7000.00
02343             220.00    -6600.00
02344              42.00    -6600.00
02345            -174.00    -7600.00
02346            -168.00    -6600.00
02347             188.00    -7800.00
02348             206.00    -7200.00
02349             -74.00    -7600.00
02350            -156.00    -8000.00
02351             -20.00    -7800.00
02352             158.00    -8200.00
02353              82.00    -8200.00
02354             -92.00    -8400.00
02355             -70.00    -8400.00
02356              46.00    -8600.00
02357             138.00    -8800.00
02358             -12.00    -8800.00
02359             -84.00    -9200.00
02360               2.00    -9000.00
02361              70.00    -9200.00
02362              68.00    -9400.00
02363             -18.00    -9600.00
02364             -44.00    -9600.00
02365              20.00    -9600.00
02366              60.00    -9600.00
02367              18.00    -9800.00
02368               2.00    -9800.00
02369              -6.00   -10000.00
02370              28.00   -10200.00
02371              38.00   -10200.00
02372               6.00   -10600.00
02373              -4.00   -10600.00
02374              10.00   -10600.00
02375              36.00   -10800.00
02376              30.00   -10800.00
02377              10.00   -10800.00
02378               2.00   -10800.00
02379              18.00   -11200.00
02380              28.00   -11000.00
02381              20.00   -11000.00
02382              12.00   -11000.00
02383              20.00   -11200.00
02384              20.00   -11200.00
02385              18.00   -11400.00
02386              14.00   -11400.00
02387               6.00   -11600.00
02388              20.00   -11400.00
02389              34.00   -11400.00
02390              18.00   -11600.00
02391              10.00   -11600.00
02392              10.00   -11800.00
02393              20.00   -11800.00
02394              26.00   -11600.00
02395              16.00   -11600.00
02396              18.00   -12000.00
02397              22.00   -11600.00
02398              26.00   -11800.00
02399              18.00   -12000.00
02400              12.00   -12000.00
02401              18.00   -11800.00
02402              24.00   -11800.00
02403              28.00   -12000.00
02404              18.00   -11600.00
02405              12.00   -11800.00
02406              10.00   -11800.00
02407              20.00   -11600.00
02408              28.00   -11800.00
02409              26.00   -11600.00
02410              20.00   -11800.00
02411              20.00   -11600.00
02412              18.00   -11600.00
02413              20.00   -11600.00
02414              22.00   -11600.00
02415              18.00   -11400.00
02416              20.00   -11400.00
02417              26.00   -11600.00
02418              20.00   -11200.00
02419              16.00   -11400.00
02420              12.00   -11200.00
02421              20.00   -11200.00
02422              30.00   -11000.00
02423              20.00   -11200.00
02424              14.00   -10800.00
02425              18.00   -10800.00
02426              20.00   -10800.00
02427              20.00   -10800.00
02428              20.00   -10800.00
02429              20.00   -10400.00
02430              26.00   -10600.00
02431              22.00   -10400.00
02432              18.00   -10400.00
02433              16.00   -10200.00
02434              20.00   -10000.00
02435              22.00   -10000.00
02436              20.00    -9800.00
02437              18.00    -9800.00
02438              18.00    -9600.00
02439              20.00    -9600.00
02440              18.00    -9600.00
02441              16.00    -9600.00
02442              20.00    -9200.00
02443              20.00    -9200.00
02444              20.00    -9000.00
02445              14.00    -9000.00
02446              14.00    -8800.00
02447              18.00    -8800.00
02448              16.00    -8800.00
02449              16.00    -8400.00
02450              18.00    -8200.00
02451              18.00    -8200.00
02452              16.00    -8000.00
02453              10.00    -8000.00
02454              12.00    -7600.00
02455              18.00    -7400.00
02456              14.00    -7400.00
02457              18.00    -7200.00
02458              12.00    -7200.00
02459              10.00    -7200.00
02460              10.00    -6800.00
02461              12.00    -6800.00
02462              10.00    -6600.00
02463              14.00    -6400.00
02464              14.00    -6400.00
02465              10.00    -6000.00
02466              10.00    -6000.00
02467              10.00    -5600.00
02468              12.00    -5600.00
02469              10.00    -5400.00
02470              10.00    -5200.00
02471              10.00    -5000.00
02472              10.00    -4800.00
02473               6.00    -4600.00
02474               4.00    -4400.00
02475               6.00    -4200.00
02476              10.00    -4000.00
02477              12.00    -3800.00
02478              12.00    -3600.00
02479               6.00    -3400.00
02480               4.00    -3400.00
02481               2.00    -3200.00
02482               6.00    -2800.00
02483              12.00    -2800.00
02484              10.00    -2600.00
02485               4.00    -2400.00
02486               4.00    -2400.00
02487               2.00    -2000.00
02488               6.00    -2000.00
02489              10.00    -1600.00
02490               6.00    -1600.00
02491               4.00    -1200.00
02492               4.00    -1000.00
02493               2.00    -1000.00
02494              -2.00     -600.00
02495              -2.00     -600.00
02496               4.00     -400.00
02497              10.00     -200.00
02498               6.00        0.00
02499               4.00      400.00
02500              22.00      400.00
02501              34.00      600.00
02502              -2.00      800.00
02503             -26.00      800.00
02504               2.00     1200.00
02505              34.00     1400.00
02506              38.00     1400.00
02507             124.00     1800.00
02508             250.00     2000.00
02509            -116.00     2200.00
02510            -250.00     2400.00
02511            -226.00     2400.00
02512             250.00     2400.00
02513             250.00     2800.00
02514             250.00     3200.00
02515            -250.00     3000.00
02516            -250.00     3200.00
02517             250.00     3600.00
02518             250.00     3400.00
02519            -250.00     4000.00
02520            -250.00     4000.00
02521              78.00     4400.00
02522             250.00     4400.00
02523             138.00     4400.00
02524            -250.00     5200.00
02525            -250.00     4800.00
02526             222.00     5400.00
02527             250.00     5600.00
02528             -76.00     5200.00
02529            -250.00     6000.00
02530             -54.00     5800.00
02531             238.00     6000.00
02532             118.00     6400.00
02533            -218.00     6200.00
02534            -176.00     6800.00
02535             156.00     6800.00
02536             180.00     7000.00
02537            -110.00     7000.00
02538            -202.00     7200.00
02539             -54.00     7400.00
02540             190.00     7600.00
02541             118.00     7800.00
02542            -182.00     7800.00
02543            -144.00     8000.00
02544              60.00     8200.00
02545             108.00     8400.00
02546             -12.00     8400.00
02547            -134.00     8600.00
02548             -60.00     8600.00
02549             100.00     8800.00
02550              52.00     9000.00
02551             -96.00     9000.00
02552             -90.00     9200.00
02553              10.00     9200.00
02554              64.00     9400.00
02555               6.00     9600.00
02556             -84.00     9600.00
02557             -60.00     9800.00
02558              26.00     9800.00
02559              20.00    10000.00
02560             -38.00    10200.00
02561             -46.00    10200.00
02562             -20.00    10200.00
02563              20.00    10400.00
02564             -10.00    10400.00
02565             -58.00    10600.00
02566             -34.00    10400.00
02567               4.00    10800.00
02568               4.00    10800.00
02569             -20.00    10800.00
02570             -44.00    11000.00
02571             -28.00    11000.00
02572              -6.00    11000.00
02573             -18.00    11000.00
02574             -26.00    11200.00
02575             -20.00    11200.00
02576             -14.00    11200.00
02577             -26.00    11200.00
02578             -34.00    11600.00
02579             -34.00    11600.00
02580             -18.00    11600.00
02581              -8.00    11600.00
02582             -20.00    11600.00
02583             -30.00    11800.00
02584             -30.00    11600.00
02585             -26.00    11800.00
02586             -22.00    11800.00
02587             -22.00    11800.00
02588             -22.00    11800.00
02589             -22.00    11600.00
02590             -26.00    11800.00
02591             -30.00    11800.00
02592             -30.00    11800.00
02593             -26.00    11800.00
02594             -20.00    11800.00
02595             -20.00    12000.00
02596             -22.00    11800.00
02597             -28.00    11800.00
02598             -34.00    11800.00
02599             -30.00    11800.00
02600             -22.00    11600.00
02601             -20.00    11800.00
02602             -22.00    11600.00
02603             -30.00    11600.00
02604             -30.00    11400.00
02605             -28.00    11600.00
02606             -26.00    11600.00
02607             -22.00    11600.00
02608             -22.00    11600.00
02609             -26.00    11600.00
02610             -22.00    11400.00
02611             -28.00    11400.00
02612             -30.00    11200.00
02613             -28.00    11200.00
02614             -20.00    11200.00
02615             -18.00    11200.00
02616             -22.00    11000.00
02617             -28.00    11000.00
02618             -28.00    11000.00
02619             -30.00    10800.00
02620             -26.00    10800.00
02621             -20.00    10800.00
02622             -20.00    10600.00
02623             -24.00    10400.00
02624             -28.00    10400.00
02625             -28.00    10400.00
02626             -22.00    10200.00
02627             -20.00    10000.00
02628             -22.00    10000.00
02629             -20.00     9800.00
02630             -20.00     9800.00
02631             -26.00     9600.00
02632             -28.00     9600.00
02633             -28.00     9400.00
02634             -18.00     9400.00
02635             -18.00     9200.00
02636             -22.00     9200.00
02637             -28.00     8800.00
02638             -22.00     8800.00
02639             -22.00     8600.00
02640             -22.00     8600.00
02641             -20.00     8400.00
02642             -20.00     8200.00
02643             -22.00     8000.00
02644             -22.00     8000.00
02645             -30.00     7800.00
02646             -22.00     7800.00
02647             -16.00     7600.00
02648             -18.00     7200.00
02649             -18.00     7200.00
02650             -22.00     7200.00
02651             -20.00     7000.00
02652             -22.00     6800.00
02653             -22.00     6600.00
02654             -20.00     6400.00
02655             -12.00     6200.00
02656             -18.00     6200.00
02657             -20.00     6000.00
02658             -24.00     5800.00
02659             -18.00     5600.00
02660             -14.00     5400.00
02661             -14.00     5200.00
02662             -18.00     5200.00
02663             -14.00     5000.00
02664             -14.00     4600.00
02665             -20.00     4600.00
02666             -20.00     4400.00
02667             -14.00     4400.00
02668             -12.00     4000.00
02669             -12.00     3800.00
02670             -18.00     3800.00
02671             -14.00     3600.00
02672             -12.00     3400.00
02673             -12.00     3200.00
02674             -12.00     3000.00
02675             -12.00     2800.00
02676             -12.00     2400.00
02677              -8.00     2400.00
02678             -12.00     2200.00
02679             -14.00     2000.00
02680             -12.00     1800.00
02681              -6.00     1600.00
02682              -6.00     1600.00
02683              -4.00     1200.00
02684              -6.00      800.00
02685             -12.00      800.00
02686             -12.00      600.00
02687              -8.00      600.00
02688              -2.00      400.00
02689              -2.00        0.00
02690              -4.00     -200.00
02691              -4.00     -200.00
02692              20.00     -400.00
02693              26.00     -600.00
02694             -12.00     -800.00
02695             -38.00    -1000.00
02696               0.00    -1200.00
02697              30.00    -1200.00
02698              76.00    -1400.00
02699             250.00    -1800.00
02700              70.00    -2200.00
02701            -250.00    -2400.00
02702            -250.00    -2600.00
02703             166.00    -2600.00
02704             250.00    -2200.00
02705             250.00    -3200.00
02706            -250.00    -3200.00
02707            -250.00    -2600.00
02708             250.00    -4200.00
02709             250.00    -3400.00
02710            -250.00    -3600.00
02711            -250.00    -4600.00
02712            -174.00    -3400.00
02713             250.00    -4800.00
02714              92.00    -4800.00
02715            -250.00    -4000.00
02716            -156.00    -6000.00
02717              54.00    -4400.00
02718             250.00    -5600.00
02719            -100.00    -5800.00
02720            -250.00    -4800.00
02721              56.00    -6800.00
02722             142.00    -5600.00
02723             250.00    -6200.00
02724            -238.00    -6600.00
02725            -218.00    -5800.00
02726             236.00    -7400.00
02727             156.00    -6200.00
02728             -26.00    -7400.00
02729            -228.00    -7200.00
02730             -50.00    -6800.00
02731             250.00    -8000.00
02732             110.00    -7200.00
02733            -140.00    -8000.00
02734            -130.00    -7600.00
02735              52.00    -8000.00
02736             172.00    -8400.00
02737               6.00    -8200.00
02738            -102.00    -8400.00
02739             -44.00    -8400.00
02740              98.00    -8800.00
02741             108.00    -8800.00
02742             -68.00    -9000.00
02743             -60.00    -9200.00
02744              28.00    -9200.00
02745              84.00    -9200.00
02746              42.00    -9400.00
02747             -44.00    -9600.00
02748             -34.00    -9600.00
02749              52.00    -9800.00
02750              54.00    -9800.00
02751               6.00   -10000.00
02752              -6.00   -10000.00
02753              -4.00   -10000.00
02754              42.00   -10400.00
02755              34.00   -10200.00
02756              -4.00   -10600.00
02757              -4.00   -10600.00
02758              22.00   -10600.00
02759              38.00   -10800.00
02760              22.00   -10800.00
02761               2.00   -10800.00
02762               6.00   -11000.00
02763              28.00   -11000.00
02764              26.00   -11000.00
02765              14.00   -11200.00
02766              12.00   -11200.00
02767              26.00   -11200.00
02768              20.00   -11400.00
02769              18.00   -11400.00
02770              10.00   -11600.00
02771              10.00   -11400.00
02772              30.00   -11600.00
02773              26.00   -11600.00
02774              18.00   -11600.00
02775              10.00   -11600.00
02776              12.00   -11800.00
02777              22.00   -11600.00
02778              22.00   -11800.00
02779              18.00   -11600.00
02780              22.00   -11800.00
02781              20.00   -11600.00
02782              20.00   -11800.00
02783              14.00   -12000.00
02784              18.00   -12000.00
02785              20.00   -11800.00
02786              20.00   -12000.00
02787              22.00   -12000.00
02788              20.00   -11800.00
02789              14.00   -11800.00
02790              14.00   -11800.00
02791              20.00   -11800.00
02792              26.00   -11600.00
02793              22.00   -11600.00
02794              18.00   -11600.00
02795              14.00   -11600.00
02796              20.00   -11600.00
02797              22.00   -11600.00
02798              22.00   -11600.00
02799              20.00   -11400.00
02800              20.00   -11400.00
02801              22.00   -11400.00
02802              20.00   -11400.00
02803              18.00   -11400.00
02804              18.00   -11200.00
02805              22.00   -11200.00
02806              24.00   -11000.00
02807              20.00   -11000.00
02808              18.00   -11000.00
02809              18.00   -10800.00
02810              20.00   -10800.00
02811              20.00   -10800.00
02812              20.00   -10600.00
02813              20.00   -10600.00
02814              20.00   -10400.00
02815              20.00   -10400.00
02816              18.00   -10400.00
02817              18.00   -10200.00
02818              18.00   -10000.00
02819              20.00   -10000.00
02820              20.00    -9800.00
02821              18.00    -9800.00
02822              16.00    -9800.00
02823              18.00    -9600.00
02824              18.00    -9400.00
02825              20.00    -9200.00
02826              20.00    -9200.00
02827              20.00    -9000.00
02828              18.00    -9000.00
02829              14.00    -8800.00
02830              18.00    -8600.00
02831              14.00    -8800.00
02832              18.00    -8400.00
02833              20.00    -8400.00
02834              18.00    -8400.00
02835              16.00    -8000.00
02836              10.00    -8000.00
02837              12.00    -7800.00
02838              20.00    -7600.00
02839              18.00    -7400.00
02840              12.00    -7400.00
02841              14.00    -7200.00
02842              14.00    -7200.00
02843              10.00    -6800.00
02844              10.00    -6800.00
02845              10.00    -6600.00
02846              18.00    -6400.00
02847              18.00    -6200.00
02848              10.00    -6400.00
02849              10.00    -6000.00
02850              10.00    -6000.00
02851              12.00    -5600.00
02852              12.00    -5400.00
02853               6.00    -5200.00
02854              10.00    -5200.00
02855              14.00    -4800.00
02856              10.00    -4600.00
02857               4.00    -4600.00
02858              10.00    -4400.00
02859              12.00    -4200.00
02860              14.00    -4000.00
02861               6.00    -3800.00
02862               2.00    -3600.00
02863              10.00    -3400.00
02864              10.00    -3400.00
02865               4.00    -3200.00
02866               4.00    -2800.00
02867               4.00    -2600.00
02868               8.00    -2600.00
02869              10.00    -2400.00
02870               4.00    -2200.00
02871               2.00    -2000.00
02872               4.00    -1800.00
02873               4.00    -1600.00
02874               6.00    -1600.00
02875               4.00    -1200.00
02876               2.00    -1000.00
02877               4.00     -800.00
02878               2.00     -600.00
02879               4.00     -400.00
02880               8.00     -200.00
02881               8.00        0.00
02882               4.00      200.00
02883               6.00      400.00
02884              32.00      400.00
02885              22.00      800.00
02886             -18.00      800.00
02887             -20.00      800.00
02888              18.00     1200.00
02889              38.00     1400.00
02890              46.00     1400.00
02891             196.00     2000.00
02892             214.00     2200.00
02893            -250.00     2200.00
02894            -250.00     2400.00
02895              28.00     2600.00
02896             250.00     2800.00
02897             250.00     3000.00
02898             118.00     3200.00
02899            -250.00     3200.00
02900            -134.00     3600.00
02901             250.00     3400.00
02902              38.00     3600.00
02903            -250.00     4000.00
02904            -150.00     4000.00
02905             196.00     4400.00
02906             250.00     4400.00
02907             -86.00     4600.00
02908            -250.00     5000.00
02909             -86.00     4800.00
02910             250.00     5600.00
02911             222.00     5400.00
02912            -220.00     5600.00
02913            -250.00     6000.00
02914              82.00     5600.00
02915             246.00     6200.00
02916              -6.00     6400.00
02917            -250.00     6400.00
02918             -60.00     6800.00
02919             218.00     6800.00
02920              84.00     7000.00
02921            -172.00     7000.00
02922            -172.00     7200.00
02923              34.00     7400.00
02924             214.00     7400.00
02925               4.00     8000.00
02926            -214.00     7800.00
02927             -62.00     8200.00
02928              92.00     8200.00
02929              76.00     8400.00
02930             -66.00     8600.00
02931            -126.00     8600.00
02932               4.00     8600.00
02933             102.00     8800.00
02934             -10.00     8800.00
02935            -114.00     9200.00
02936             -52.00     9200.00
02937              42.00     9200.00
02938              52.00     9400.00
02939             -38.00     9600.00
02940             -86.00     9600.00
02941             -26.00     9800.00
02942              34.00    10000.00
02943              -4.00    10200.00
02944             -46.00    10000.00
02945             -38.00    10200.00
02946              -2.00    10400.00
02947              10.00    10400.00
02948             -34.00    10600.00
02949             -54.00    10400.00
02950             -14.00    10600.00
02951               4.00    10800.00
02952              -6.00    10800.00
02953             -28.00    11000.00
02954             -40.00    10800.00
02955             -20.00    11000.00
02956             -10.00    11200.00
02957             -26.00    11200.00
02958             -20.00    11200.00
02959             -14.00    11200.00
02960             -18.00    11600.00
02961             -34.00    11400.00
02962             -34.00    11400.00
02963             -26.00    11600.00
02964              -8.00    11600.00
02965             -12.00    11600.00
02966             -26.00    11800.00
02967             -30.00    11800.00
02968             -28.00    11800.00
02969             -22.00    11800.00
02970             -18.00    11600.00
02971             -22.00    11800.00
02972             -22.00    11800.00
02973             -22.00    11800.00
02974             -28.00    11800.00
02975             -30.00    11800.00
02976             -28.00    12000.00
02977             -22.00    11800.00
02978             -18.00    12000.00
02979             -22.00    11800.00
02980             -28.00    11800.00
02981             -28.00    11800.00
02982             -30.00    11800.00
02983             -28.00    11800.00
02984             -20.00    11600.00
02985             -22.00    11600.00
02986             -26.00    11600.00
02987             -28.00    11600.00
02988             -28.00    11600.00
02989             -30.00    11600.00
02990             -26.00    11600.00
02991             -22.00    11400.00
02992             -22.00    11400.00
02993             -24.00    11600.00
02994             -28.00    11400.00
02995             -30.00    11200.00
02996             -28.00    11200.00
02997             -22.00    11200.00
02998             -20.00    11200.00
02999             -20.00    11000.00
03000             -26.00    11000.00
03001             -28.00    11000.00
03002             -30.00    10800.00
03003             -26.00    10800.00
03004             -22.00    10800.00
03005             -20.00    10600.00
03006             -22.00    10600.00
03007             -22.00    10400.00
03008             -28.00    10200.00
03009             -28.00    10400.00
03010             -22.00    10200.00
03011             -18.00    10000.00
03012             -20.00    10000.00
03013             -20.00    10000.00
03014             -28.00     9600.00
03015             -28.00     9600.00
03016             -22.00     9400.00
03017             -20.00     9200.00
03018             -20.00     9200.00
03019             -22.00     9200.00
03020             -26.00     9000.00
03021             -22.00     8800.00
03022             -20.00     8800.00
03023             -20.00     8600.00
03024             -22.00     8600.00
03025             -20.00     8400.00
03026             -20.00     8200.00
03027             -20.00     8200.00
03028             -22.00     8000.00
03029             -22.00     7800.00
03030             -18.00     7600.00
03031             -14.00     7400.00
03032             -20.00     7400.00
03033             -20.00     7200.00
03034             -20.00     7000.00
03035             -22.00     7000.00
03036             -20.00     6800.00
03037             -20.00     6400.00
03038             -18.00     6400.00
03039             -14.00     6200.00
03040             -14.00     6200.00
03041             -18.00     5800.00
03042             -22.00     5800.00
03043             -22.00     5600.00
03044             -16.00     5400.00
03045             -10.00     5200.00
03046             -10.00     5000.00
03047             -20.00     4800.00
03048             -22.00     4600.00
03049             -18.00     4400.00
03050             -12.00     4400.00
03051             -12.00     4000.00
03052             -14.00     3800.00
03053             -14.00     3800.00
03054             -14.00     3600.00
03055             -14.00     3400.00
03056             -14.00     3200.00
03057             -14.00     3200.00
03058              -8.00     2800.00
03059              -6.00     2800.00
03060             -10.00     2600.00
03061             -14.00     2400.00
03062             -14.00     2200.00
03063             -10.00     2000.00
03064              -8.00     1800.00
03065              -6.00     1600.00
03066              -6.00     1400.00
03067             -10.00     1200.00
03068             -12.00     1000.00
03069             -10.00      800.00
03070             -10.00      600.00
03071              -6.00      400.00
03072              -2.00      200.00
03073              -2.00        0.00
03074              -2.00        0.00
03075               2.00     -200.00
03076              26.00     -400.00
03077              18.00     -600.00
03078             -22.00     -800.00
03079             -28.00    -1000.00
03080              12.00    -1000.00
03081              28.00    -1200.00
03082             146.00    -1400.00
03083             250.00    -2000.00
03084            -186.00    -2400.00
03085            -250.00    -2200.00
03086            -202.00    -2600.00
03087             250.00    -2400.00
03088             250.00    -2200.00
03089             196.00    -3200.00
03090            -250.00    -2800.00
03091              12.00    -3200.00
03092             250.00    -4200.00
03093            -116.00    -3000.00
03094            -250.00    -4200.00
03095            -250.00    -4200.00
03096             166.00    -3400.00
03097             250.00    -5200.00
03098            -250.00    -4000.00
03099            -250.00    -4800.00
03100            -116.00    -5600.00
03101             250.00    -4000.00
03102             250.00    -6200.00
03103            -250.00    -5000.00
03104            -202.00    -5600.00
03105              92.00    -6400.00
03106             206.00    -5200.00
03107             146.00    -6800.00
03108            -250.00    -6000.00
03109             -22.00    -6400.00
03110             250.00    -6800.00
03111              90.00    -6200.00
03112            -106.00    -7600.00
03113            -218.00    -6600.00
03114              84.00    -7400.00
03115             250.00    -7600.00
03116               2.00    -7200.00
03117            -164.00    -8000.00
03118             -74.00    -7600.00
03119             116.00    -8200.00
03120             134.00    -8200.00
03121             -54.00    -8200.00
03122             -92.00    -8400.00
03123              -2.00    -8600.00
03124             132.00    -8800.00
03125              44.00    -8800.00
03126             -90.00    -9000.00
03127             -26.00    -9000.00
03128              46.00    -9200.00
03129              84.00    -9200.00
03130              12.00    -9200.00
03131             -50.00    -9600.00
03132              -6.00    -9800.00
03133              62.00    -9800.00
03134              30.00    -9800.00
03135               2.00   -10000.00
03136              -6.00   -10000.00
03137              14.00   -10200.00
03138              46.00   -10400.00
03139              12.00   -10400.00
03140              -6.00   -10400.00
03141               4.00   -10400.00
03142              34.00   -10600.00
03143              34.00   -10800.00
03144              12.00   -10800.00
03145              -4.00   -10800.00
03146              18.00   -10800.00
03147              28.00   -11000.00
03148              22.00   -11000.00
03149              12.00   -11200.00
03150              18.00   -11200.00
03151              24.00   -11200.00
03152              20.00   -11400.00
03153              18.00   -11400.00
03154               6.00   -11400.00
03155              18.00   -11400.00
03156              32.00   -11600.00
03157              26.00   -11600.00
03158              16.00   -11600.00
03159              10.00   -11600.00
03160              18.00   -11600.00
03161              26.00   -11600.00
03162              22.00   -11600.00
03163              18.00   -11600.00
03164              18.00   -11600.00
03165              20.00   -11800.00
03166              20.00   -11600.00
03167              14.00   -11800.00
03168              18.00   -12000.00
03169              20.00   -11800.00
03170              26.00   -11800.00
03171              20.00   -12000.00
03172              16.00   -11600.00
03173              12.00   -11800.00
03174              18.00   -11800.00
03175              26.00   -11800.00
03176              24.00   -11600.00
03177              18.00   -11600.00
03178              20.00   -11600.00
03179              20.00   -11600.00
03180              18.00   -11600.00
03181              18.00   -11600.00
03182              20.00   -11400.00
03183              26.00   -11400.00
03184              24.00   -11400.00
03185              18.00   -11400.00
03186              12.00   -11400.00
03187              18.00   -11200.00
03188              20.00   -11200.00
03189              26.00   -11000.00
03190              20.00   -11200.00
03191              20.00   -11000.00
03192              20.00   -11000.00
03193              18.00   -10800.00
03194              18.00   -10800.00
03195              18.00   -10600.00
03196              24.00   -10600.00
03197              26.00   -10600.00
03198              18.00   -10400.00
03199              14.00   -10200.00
03200              18.00   -10400.00
03201              22.00   -10000.00
03202              20.00   -10000.00
03203              18.00   -10000.00
03204              20.00    -9800.00
03205              22.00    -9800.00
03206              18.00    -9600.00
03207              14.00    -9600.00
03208              16.00    -9400.00
03209              22.00    -9400.00
03210              22.00    -9200.00
03211              16.00    -9000.00
03212              14.00    -8800.00
03213              20.00    -8800.00
03214              18.00    -8800.00
03215              14.00    -8600.00
03216              18.00    -8400.00
03217              18.00    -8200.00
03218              18.00    -8200.00
03219              14.00    -8200.00
03220              10.00    -8000.00
03221              18.00    -7800.00
03222              20.00    -7600.00
03223              16.00    -7400.00
03224              14.00    -7400.00
03225              12.00    -7200.00
03226              14.00    -6800.00
03227              14.00    -6800.00
03228              14.00    -6600.00
03229              12.00    -6600.00
03230              14.00    -6400.00
03231              10.00    -6400.00
03232              12.00    -6000.00
03233              18.00    -6000.00
03234              12.00    -5800.00
03235               8.00    -5600.00
03236               6.00    -5200.00
03237              10.00    -5200.00
03238              14.00    -5000.00
03239              12.00    -4800.00
03240               4.00    -4600.00
03241               6.00    -4400.00
03242               6.00    -4400.00
03243              12.00    -4200.00
03244              12.00    -4000.00
03245               8.00    -3800.00
03246               6.00    -3600.00
03247               6.00    -3400.00
03248               6.00    -3400.00
03249               6.00    -3200.00
03250               6.00    -2800.00
03251               6.00    -2800.00
03252               6.00    -2400.00
03253               4.00    -2400.00
03254               2.00    -2200.00
03255               4.00    -1800.00
03256               6.00    -1800.00
03257               6.00    -1600.00
03258               6.00    -1400.00
03259               4.00    -1000.00
03260               2.00    -1000.00
03261              -2.00     -800.00
03262               2.00     -400.00
03263              10.00     -200.00
03264               4.00     -200.00
03265               4.00        0.00
03266               4.00      200.00
03267              18.00      400.00
03268              36.00      600.00
03269               6.00      800.00
03270             -26.00      800.00
03271              -4.00     1200.00
03272              28.00     1200.00
03273              32.00     1400.00
03274              76.00     1800.00
03275             250.00     2000.00
03276              64.00     2200.00
03277            -250.00     2200.00
03278            -250.00     2600.00
03279             226.00     2400.00
03280             250.00     2800.00
03281             250.00     3200.00
03282            -156.00     3200.00
03283            -250.00     3200.00
03284             250.00     3600.00
03285             250.00     3600.00
03286            -250.00     3800.00
03287            -250.00     4200.00
03288             -26.00     4000.00
03289             250.00     4600.00
03290             250.00     4400.00
03291            -250.00     5000.00
03292            -250.00     4800.00
03293              90.00     5000.00
03294             250.00     5600.00
03295              66.00     5200.00
03296            -250.00     5800.00
03297            -168.00     6000.00
03298             188.00     5800.00
03299             196.00     6400.00
03300            -134.00     6200.00
03301            -240.00     6400.00
03302              64.00     6600.00
03303             226.00     6800.00
03304             -26.00     7000.00
03305            -202.00     7200.00
03306            -124.00     7200.00
03307             126.00     7600.00
03308             186.00     7600.00
03309            -110.00     7800.00
03310            -190.00     7800.00
03311               8.00     8200.00
03312             108.00     8000.00
03313              30.00     8400.00
03314            -114.00     8600.00
03315            -100.00     8600.00
03316              62.00     8600.00
03317              88.00     8800.00
03318             -66.00     9000.00
03319            -114.00     9000.00
03320             -20.00     9200.00
03321              64.00     9400.00
03322              34.00     9600.00
03323             -68.00     9600.00
03324             -82.00     9800.00
03325               4.00     9800.00
03326              30.00    10000.00
03327             -26.00    10000.00
03328             -46.00    10000.00
03329             -28.00    10200.00
03330              10.00    10400.00
03331               0.00    10400.00
03332             -50.00    10400.00
03333             -44.00    10600.00
03334              -4.00    10800.00
03335               4.00    10800.00
03336             -14.00    10800.00
03337             -38.00    10800.00
03338             -38.00    11000.00
03339             -18.00    11000.00
03340             -12.00    11000.00
03341             -22.00    11200.00
03342             -22.00    11200.00
03343             -14.00    11200.00
03344             -22.00    11400.00
03345             -32.00    11200.00
03346             -30.00    11400.00
03347             -22.00    11600.00
03348             -10.00    11600.00
03349             -12.00    11600.00
03350             -26.00    11600.00
03351             -30.00    11800.00
03352             -28.00    11800.00
03353             -26.00    11800.00
03354             -18.00    11800.00
03355             -14.00    12000.00
03356             -20.00    11800.00
03357             -28.00    11800.00
03358             -30.00    11800.00
03359             -30.00    12000.00
03360             -22.00    11800.00
03361             -20.00    11800.00
03362             -18.00    11800.00
03363             -22.00    11800.00
03364             -28.00    11800.00
03365             -30.00    11800.00
03366             -30.00    11800.00
03367             -22.00    11800.00
03368             -16.00    11600.00
03369             -20.00    11800.00
03370             -26.00    11600.00
03371             -28.00    11600.00
03372             -30.00    11600.00
03373             -28.00    11600.00
03374             -22.00    11600.00
03375             -20.00    11200.00
03376             -24.00    11200.00
03377             -22.00    11200.00
03378             -28.00    11200.00
03379             -30.00    11200.00
03380             -26.00    11200.00
03381             -20.00    11000.00
03382             -16.00    11200.00
03383             -22.00    11000.00
03384             -28.00    11000.00
03385             -28.00    11000.00
03386             -28.00    10800.00
03387             -24.00    10800.00
03388             -20.00    10800.00
03389             -20.00    10400.00
03390             -26.00    10400.00
03391             -22.00    10200.00
03392             -26.00    10400.00
03393             -28.00    10200.00
03394             -28.00    10200.00
03395             -20.00    10000.00
03396             -14.00    10000.00
03397             -20.00     9800.00
03398             -26.00     9600.00
03399             -30.00     9600.00
03400             -26.00     9400.00
03401             -18.00     9400.00
03402             -14.00     9200.00
03403             -20.00     9200.00
03404             -22.00     8800.00
03405             -28.00     9000.00
03406             -28.00     8600.00
03407             -20.00     8600.00
03408             -12.00     8400.00
03409             -14.00     8400.00
03410             -20.00     8400.00
03411             -24.00     8000.00
03412             -26.00     8000.00
03413             -20.00     7800.00
03414             -18.00     7600.00
03415             -18.00     7400.00
03416             -12.00     7200.00
03417             -20.00     7200.00
03418             -20.00     7200.00
03419             -26.00     6800.00
03420             -22.00     6600.00
03421             -12.00     6400.00
03422             -12.00     6400.00
03423             -18.00     6200.00
03424             -20.00     6000.00
03425             -22.00     5800.00
03426             -18.00     5600.00
03427             -18.00     5600.00
03428             -16.00     5400.00
03429             -12.00     5200.00
03430             -12.00     5000.00
03431             -18.00     4600.00
03432             -20.00     4600.00
03433             -20.00     4400.00
03434             -14.00     4200.00
03435             -10.00     4000.00
03436             -14.00     3800.00
03437             -16.00     3600.00
03438             -12.00     3600.00
03439             -16.00     3200.00
03440             -14.00     3200.00
03441             -12.00     3000.00
03442             -10.00     2800.00
03443              -6.00     2800.00
03444             -12.00     2400.00
03445             -18.00     2200.00
03446             -12.00     2000.00
03447             -10.00     1800.00
03448             -10.00     1600.00
03449             -10.00     1600.00
03450             -10.00     1800.00
03451             -10.00     1200.00
03452             -12.00      800.00
03453             -12.00      800.00
03454              -6.00      600.00
03455              -4.00      400.00
03456              -6.00      200.00
03457              -4.00        0.00
03458              -6.00     -400.00
03459              10.00     -400.00
03460              28.00     -400.00
03461              -2.00     -800.00
03462             -30.00    -1000.00
03463             -10.00    -1000.00
03464              20.00    -1200.00
03465              42.00    -1400.00
03466             244.00    -1600.00
03467             234.00    -2000.00
03468            -250.00    -2400.00
03469            -250.00    -2400.00
03470              16.00    -2600.00
03471             250.00    -2400.00
03472             250.00    -2600.00
03473            -250.00    -3400.00
03474            -250.00    -2400.00
03475             250.00    -3800.00
03476             250.00    -4000.00
03477            -250.00    -2800.00
03478            -250.00    -4800.00
03479            -250.00    -3600.00
03480             250.00    -4000.00
03481             250.00    -5200.00
03482            -250.00    -3800.00
03483            -212.00    -5600.00
03484             -54.00    -4800.00
03485             250.00    -4400.00
03486             188.00    -6200.00
03487            -250.00    -4600.00
03488             -30.00    -6400.00
03489             106.00    -5800.00
03490             250.00    -5600.00
03491             -60.00    -7000.00
03492            -250.00    -5800.00
03493             150.00    -7200.00
03494             208.00    -6600.00
03495              30.00    -6800.00
03496            -178.00    -7600.00
03497            -152.00    -6800.00
03498             194.00    -8000.00
03499             190.00    -7200.00
03500             -86.00    -7600.00
03501            -152.00    -8000.00
03502             -12.00    -8000.00
03503             156.00    -8400.00
03504              74.00    -8000.00
03505             -92.00    -8400.00
03506             -70.00    -8400.00
03507              50.00    -8800.00
03508             136.00    -8800.00
03509             -22.00    -9000.00
03510             -80.00    -9200.00
03511               0.00    -9000.00
03512              70.00    -9400.00
03513              70.00    -9400.00
03514             -22.00    -9600.00
03515             -50.00    -9600.00
03516              24.00    -9800.00
03517              62.00    -9800.00
03518              14.00   -10000.00
03519              -4.00   -10000.00
03520              -6.00   -10000.00
03521              36.00   -10400.00
03522              38.00   -10400.00
03523               2.00   -10400.00
03524              -4.00   -10600.00
03525              14.00   -10600.00
03526              40.00   -10600.00
03527              26.00   -10800.00
03528               4.00   -10800.00
03529               4.00   -10800.00
03530              22.00   -11000.00
03531              24.00   -10800.00
03532              18.00   -11000.00
03533              14.00   -11000.00
03534              26.00   -11200.00
03535              20.00   -11400.00
03536              14.00   -11200.00
03537              14.00   -11400.00
03538              12.00   -11600.00
03539              26.00   -11400.00
03540              28.00   -11400.00
03541              14.00   -11600.00
03542              14.00   -11600.00
03543              12.00   -11600.00
03544              22.00   -11600.00
03545              26.00   -11600.00
03546              20.00   -11600.00
03547              20.00   -11600.00
03548              22.00   -11800.00
03549              24.00   -12000.00
03550              18.00   -12000.00
03551              20.00   -11600.00
03552              20.00   -11800.00
03553              22.00   -11600.00
03554              26.00   -12000.00
03555              18.00   -11600.00
03556              12.00   -11800.00
03557              16.00   -11800.00
03558              20.00   -11600.00
03559              24.00   -11600.00
03560              20.00   -11600.00
03561              20.00   -11600.00
03562              20.00   -11600.00
03563              20.00   -11600.00
03564              18.00   -11600.00
03565              20.00   -11400.00
03566              22.00   -11400.00
03567              24.00   -11400.00
03568              20.00   -11400.00
03569              20.00   -11400.00
03570              18.00   -11200.00
03571              18.00   -11200.00
03572              18.00   -11000.00
03573              20.00   -11000.00
03574              22.00   -11200.00
03575              22.00   -11000.00
03576              20.00   -10800.00
03577              12.00   -10800.00
03578              14.00   -10800.00
03579              26.00   -10600.00
03580              26.00   -10600.00
03581              20.00   -10400.00
03582              18.00   -10400.00
03583              20.00   -10400.00
03584              22.00   -10200.00
03585              20.00   -10200.00
03586              14.00   -10000.00
03587              18.00   -10000.00
03588              24.00    -9800.00
03589              18.00    -9600.00
03590              14.00    -9600.00
03591              12.00    -9400.00
03592              18.00    -9400.00
03593              26.00    -9200.00
03594              22.00    -9000.00
03595              20.00    -9200.00
03596              14.00    -9000.00
03597              14.00    -8800.00
03598              20.00    -8600.00
03599              22.00    -8400.00
03600              20.00    -8400.00
03601              18.00    -8200.00
03602              14.00    -8000.00
03603              14.00    -8000.00
03604              18.00    -8000.00
03605              20.00    -7600.00
03606              18.00    -7600.00
03607              18.00    -7400.00
03608              20.00    -7200.00
03609              18.00    -7200.00
03610              10.00    -7000.00
03611              10.00    -6800.00
03612              14.00    -6600.00
03613              20.00    -6400.00
03614              18.00    -6400.00
03615              10.00    -6200.00
03616              10.00    -6000.00
03617              12.00    -5800.00
03618              14.00    -5600.00
03619              14.00    -5400.00
03620              10.00    -5200.00
03621              10.00    -5200.00
03622              10.00    -5000.00
03623              10.00    -4800.00
03624               6.00    -4400.00
03625               6.00    -4400.00
03626              10.00    -4200.00
03627              12.00    -4200.00
03628              10.00    -4000.00
03629               6.00    -3600.00
03630               4.00    -3600.00
03631               6.00    -3400.00
03632               6.00    -3200.00
03633               6.00    -3000.00
03634               6.00    -2800.00
03635               4.00    -2600.00
03636               4.00    -2400.00
03637               2.00    -2400.00
03638               2.00    -2000.00
03639               4.00    -1800.00
03640               6.00    -1800.00
03641               6.00    -1600.00
03642               2.00    -1400.00
03643               2.00    -1000.00
03644               2.00     -800.00
03645               4.00     -800.00
03646              -2.00     -400.00
03647               4.00     -200.00
03648               4.00     -200.00
03649               4.00        0.00
03650               4.00      400.00
03651              26.00      400.00
03652              30.00      600.00
03653              -6.00      800.00
03654             -26.00      800.00
03655               4.00     1200.00
03656              30.00     1400.00
03657              36.00     1400.00
03658             140.00     1800.00
03659             250.00     2200.00
03660            -156.00     2200.00
03661            -250.00     2400.00
03662            -182.00     2400.00
03663             250.00     2400.00
03664             250.00     3000.00
03665             250.00     3400.00
03666            -250.00     3000.00
03667            -250.00     3400.00
03668             250.00     3600.00
03669             250.00     3600.00
03670            -250.00     4200.00
03671            -250.00     4000.00
03672             100.00     4400.00
03673             250.00     4600.00
03674             102.00     4400.00
03675            -250.00     5200.00
03676            -230.00     4600.00
03677             244.00     5400.00
03678             250.00     5600.00
03679            -100.00     5400.00
03680            -250.00     6000.00
03681             -34.00     5800.00
03682             246.00     6000.00
03683             100.00     6400.00
03684            -226.00     6200.00
03685            -162.00     6800.00
03686             164.00     6800.00
03687             166.00     7000.00
03688            -116.00     7000.00
03689            -198.00     7200.00
03690             -44.00     7600.00
03691             194.00     7400.00
03692             100.00     7800.00
03693            -188.00     7800.00
03694            -128.00     8000.00
03695              66.00     8200.00
03696             110.00     8400.00
03697             -30.00     8400.00
03698            -148.00     8600.00
03699             -44.00     8600.00
03700              84.00     8800.00
03701              22.00     9000.00
03702             -74.00     8800.00
03703             -86.00     9200.00
03704              50.00     9200.00
03705              84.00     9400.00
03706             -50.00     9600.00
03707             -90.00     9600.00
03708             -82.00    10000.00
03709              54.00     9600.00
03710              10.00    10000.00
03711             -76.00    10000.00
03712             -18.00    10000.00
03713              -2.00    10400.00
03714              36.00    10400.00
03715             -10.00    10400.00
03716             -62.00    10800.00
03717             -34.00    10400.00
03718             -32.00    10600.00
03719             -24.00    10800.00
03720               2.00    11000.00
03721             -18.00    11000.00
03722             -20.00    11000.00
03723             -22.00    11200.00
03724             -28.00    11200.00
03725              -8.00    11200.00
03726             -10.00    11200.00
03727             -28.00    11200.00
03728             -36.00    11600.00
03729             -36.00    11600.00
03730             -22.00    11400.00
03731               0.00    11600.00
03732             -22.00    11600.00
03733             -26.00    11600.00
03734             -36.00    11800.00
03735             -24.00    11800.00
03736              -6.00    11800.00
03737             -18.00    11800.00
03738             -20.00    11600.00
03739             -30.00    11800.00
03740             -34.00    11800.00
03741             -20.00    11800.00
03742             -12.00    11800.00
03743             -22.00    12000.00
03744             -34.00    11800.00
03745             -32.00    11800.00
03746             -10.00    11800.00
03747              -2.00    11800.00
03748             -28.00    11800.00
03749             -44.00    11800.00
03750             -34.00    11800.00
03751             -12.00    11800.00
03752             -10.00    11800.00
03753             -26.00    11800.00
03754             -34.00    11800.00
03755             -34.00    11600.00
03756             -34.00    11600.00
03757             -20.00    11600.00
03758             -12.00    11400.00
03759             -14.00    11600.00
03760             -28.00    11400.00
03761             -34.00    11200.00
03762             -30.00    11200.00
03763             -26.00    11200.00
03764             -24.00    11200.00
03765             -26.00    11000.00
03766             -22.00    11200.00
03767             -22.00    11000.00
03768             -20.00    11000.00
03769             -26.00    10800.00
03770             -32.00    10800.00
03771             -30.00    10600.00
03772             -22.00    10600.00
03773             -18.00    10400.00
03774             -22.00    10400.00
03775             -28.00    10200.00
03776             -28.00    10400.00
03777             -28.00    10000.00
03778             -22.00    10000.00
03779             -14.00    10000.00
03780             -16.00     9800.00
03781             -22.00     9800.00
03782             -28.00     9600.00
03783             -28.00     9400.00
03784             -22.00     9400.00
03785             -16.00     9400.00
03786             -18.00     9200.00
03787             -22.00     9200.00
03788             -24.00     8800.00
03789             -26.00     8800.00
03790             -22.00     8600.00
03791             -18.00     8600.00
03792             -16.00     8400.00
03793             -20.00     8400.00
03794             -24.00     8200.00
03795             -22.00     8000.00
03796             -20.00     8000.00
03797             -22.00     7800.00
03798             -18.00     7600.00
03799             -18.00     7400.00
03800             -18.00     7200.00
03801             -20.00     7200.00
03802             -24.00     7000.00
03803             -26.00     6800.00
03804             -14.00     6800.00
03805             -12.00     6400.00
03806             -14.00     6400.00
03807             -20.00     6200.00
03808             -24.00     6000.00
03809             -20.00     6000.00
03810             -18.00     5800.00
03811             -12.00     5600.00
03812             -12.00     5400.00
03813             -16.00     5200.00
03814             -18.00     4800.00
03815             -20.00     4800.00
03816             -20.00     4600.00
03817             -18.00     4400.00
03818             -14.00     4000.00
03819             -12.00     4000.00
03820             -14.00     3800.00
03821             -12.00     3600.00
03822             -14.00     3600.00
03823             -18.00     3200.00
03824             -12.00     3200.00
03825             -12.00     2800.00
03826             -10.00     2800.00
03827             -14.00     2600.00
03828             -14.00     2400.00
03829             -10.00     2200.00
03830             -10.00     2200.00
03831             -12.00     1800.00
03832             -12.00     1600.00
03833             -10.00     1400.00
03834              -6.00     1400.00
03835             -12.00     1000.00
03836             -14.00      800.00
03837             -10.00      600.00
03838              -2.00      400.00
03839              -6.00      200.00
03840              -6.00        0.00
03841              -4.00        0.00
03842              -2.00     -200.00
03843              20.00     -400.00
03844              20.00     -400.00
03845             -16.00     -800.00
03846             -28.00     -800.00
03847               2.00    -1000.00
03848              22.00    -1200.00
03849              82.00    -1400.00
03850             250.00    -1800.00
03851              34.00    -2200.00
03852            -250.00    -2400.00
03853            -250.00    -2400.00
03854             196.00    -2800.00
03855             250.00    -2200.00
03856             250.00    -3000.00
03857            -250.00    -3200.00
03858            -250.00    -2600.00
03859             250.00    -4200.00
03860             212.00    -3200.00
03861            -250.00    -3600.00
03862            -250.00    -4600.00
03863            -124.00    -3200.00
03864             250.00    -5000.00
03865              26.00    -4400.00
03866            -250.00    -4000.00
03867            -144.00    -5800.00
03868              84.00    -4000.00
03869             250.00    -5400.00
03870            -154.00    -5600.00
03871            -250.00    -4800.00
03872              68.00    -6800.00
03873             146.00    -5200.00
03874             248.00    -6400.00
03875            -250.00    -6400.00
03876            -188.00    -6000.00
03877             244.00    -7200.00
03878             144.00    -6400.00
03879             -36.00    -7400.00
03880            -226.00    -7000.00
03881             -34.00    -7000.00
03882             250.00    -7800.00
03883              94.00    -7200.00
03884            -142.00    -8000.00
03885            -118.00    -7800.00
03886              58.00    -8000.00
03887             168.00    -8200.00
03888               2.00    -8200.00
03889            -102.00    -8400.00
03890             -42.00    -8400.00
03891             100.00    -8800.00
03892              98.00    -8800.00
03893             -74.00    -9000.00
03894             -52.00    -9000.00
03895              28.00    -9200.00
03896              84.00    -9200.00
03897              36.00    -9400.00
03898             -44.00    -9600.00
03899             -28.00    -9600.00
03900              46.00    -9800.00
03901              46.00    -9800.00
03902               6.00    -9800.00
03903              -4.00   -10000.00
03904               2.00   -10000.00
03905              42.00   -10400.00
03906              22.00   -10400.00
03907              -2.00   -10400.00
03908               2.00   -10600.00
03909              22.00   -10600.00
03910              34.00   -10800.00
03911              20.00   -10800.00
03912               4.00   -10800.00
03913              14.00   -10800.00
03914              26.00   -11000.00
03915              20.00   -11200.00
03916              12.00   -11000.00
03917              18.00   -11000.00
03918              26.00   -11200.00
03919              18.00   -11400.00
03920              18.00   -11400.00
03921              14.00   -11400.00
03922              10.00   -11600.00
03923              30.00   -11400.00
03924              28.00   -11600.00
03925              20.00   -11600.00
03926              12.00   -11600.00
03927              10.00   -11600.00
03928              22.00   -11800.00
03929              26.00   -11600.00
03930              24.00   -11600.00
03931              20.00   -11600.00
03932              20.00   -11600.00
03933              20.00   -12000.00
03934              18.00   -11800.00
03935              20.00   -11600.00
03936              20.00   -12000.00
03937              26.00   -11600.00
03938              26.00   -11800.00
03939              18.00   -11800.00
03940              14.00   -11800.00
03941              18.00   -11800.00
03942              22.00   -11600.00
03943              26.00   -11600.00
03944              22.00   -11600.00
03945              20.00   -11600.00
03946              20.00   -11800.00
03947              20.00   -11600.00
03948              20.00   -11600.00
03949              22.00   -11400.00
03950              22.00   -11600.00
03951              22.00   -11400.00
03952              22.00   -11400.00
03953              18.00   -11400.00
03954              16.00   -11000.00
03955              18.00   -11200.00
03956              22.00   -11000.00
03957              22.00   -11000.00
03958              20.00   -11000.00
03959              20.00   -10800.00
03960              16.00   -11000.00
03961              18.00   -10800.00
03962              20.00   -10800.00
03963              20.00   -10600.00
03964              20.00   -10600.00
03965              18.00   -10400.00
03966              18.00   -10400.00
03967              18.00   -10400.00
03968              18.00   -10200.00
03969              18.00   -10000.00
03970              20.00   -10000.00
03971              20.00    -9800.00
03972              18.00    -9800.00
03973              16.00    -9800.00
03974              18.00    -9600.00
03975              18.00    -9400.00
03976              20.00    -9200.00
03977              20.00    -9200.00
03978              20.00    -9200.00
03979              18.00    -9000.00
03980              12.00    -8800.00
03981              12.00    -8800.00
03982              18.00    -8600.00
03983              20.00    -8400.00
03984              18.00    -8400.00
03985              12.00    -8200.00
03986              12.00    -8000.00
03987              18.00    -8000.00
03988              20.00    -7800.00
03989              18.00    -7600.00
03990              12.00    -7400.00
03991              14.00    -7400.00
03992              18.00    -7200.00
03993              18.00    -7000.00
03994              10.00    -6800.00
03995              14.00    -6600.00
03996              14.00    -6600.00
03997              14.00    -6400.00
03998              14.00    -6200.00
03999              12.00    -6000.00
04000              12.00    -5800.00
04001              14.00    -5800.00
04002              10.00    -5600.00
04003              12.00    -5400.00
04004              10.00    -5200.00
04005              12.00    -5000.00
04006              12.00    -4800.00
04007              10.00    -4600.00
04008              10.00    -4600.00
04009              10.00    -4400.00
04010              12.00    -4000.00
04011              10.00    -4200.00
04012               6.00    -3800.00
04013               6.00    -3600.00
04014               6.00    -3400.00
04015               4.00    -3200.00
04016               6.00    -3200.00
04017               6.00    -3000.00
04018              10.00    -2800.00
04019               6.00    -2600.00
04020               2.00    -2400.00
04021               4.00    -2200.00
04022               2.00    -2000.00
04023               4.00    -1800.00
04024               6.00    -1600.00
04025               4.00    -1200.00
04026               2.00    -1000.00
04027               2.00    -1000.00
04028               2.00     -800.00
04029               2.00     -600.00
04030               2.00     -400.00
04031               2.00     -200.00
04032               6.00     -200.00
04033               6.00        0.00
04034               8.00      200.00
04035              28.00      600.00
04036              18.00      600.00
04037             -16.00      800.00
04038             -16.00      800.00
04039              18.00     1200.00
04040              30.00     1400.00
04041              46.00     1600.00
04042             212.00     2000.00
04043             202.00     2200.00
04044            -250.00     2200.00
04045            -250.00     2400.00
04046              60.00     2600.00
04047             250.00     2800.00
04048             250.00     3000.00
04049              82.00     3200.00
04050            -250.00     3000.00
04051             -76.00     3600.00
04052             250.00     3600.00
04053             -14.00     3800.00
04054            -250.00     4000.00
04055            -134.00     4000.00
04056             210.00     4600.00
04057             250.00     4400.00
04058            -118.00     4800.00
04059            -250.00     5000.00
04060             -62.00     4600.00
04061             250.00     5600.00
04062             208.00     5400.00
04063            -230.00     5600.00
04064            -250.00     6200.00
04065              98.00     5800.00
04066             244.00     6200.00
04067             -22.00     6200.00
04068            -250.00     6400.00
04069             -46.00     6800.00
04070             228.00     6800.00
04071              76.00     7000.00
04072            -174.00     7200.00
04073            -170.00     7200.00
04074              46.00     7600.00
04075             212.00     7400.00
04076              -8.00     7800.00
04077            -212.00     7800.00
04078             -54.00     8200.00
04079             100.00     8200.00
04080              70.00     8200.00
04081             -76.00     8400.00
04082            -124.00     8600.00
04083              18.00     8600.00
04084             106.00     9000.00
04085             -22.00     8800.00
04086            -120.00     9000.00
04087             -46.00     9200.00
04088              52.00     9200.00
04089              52.00     9400.00
04090             -42.00     9400.00
04091             -94.00     9600.00
04092             -22.00     9800.00
04093              36.00    10000.00
04094              -8.00    10000.00
04095             -48.00    10200.00
04096             -36.00    10200.00
04097              -2.00    10200.00
04098              10.00    10400.00
04099             -38.00    10400.00
04100             -54.00    10400.00
04101             -12.00    10600.00
04102               4.00    10800.00
04103             -10.00    10800.00
04104             -30.00    11000.00
04105             -42.00    11000.00
04106             -18.00    11000.00
04107              -6.00    11200.00
04108             -20.00    11200.00
04109             -24.00    11200.00
04110             -20.00    11200.00
04111             -22.00    11400.00
04112             -24.00    11600.00
04113             -28.00    11400.00
04114             -28.00    11400.00
04115             -14.00    11600.00
04116              -6.00    11600.00
04117             -20.00    11600.00
04118             -32.00    11800.00
04119             -34.00    11600.00
04120             -26.00    11800.00
04121             -12.00    11800.00
04122             -20.00    11800.00
04123             -26.00    11800.00
04124             -22.00    11800.00
04125             -26.00    11800.00
04126             -28.00    12000.00
04127             -30.00    11800.00
04128             -24.00    11800.00
04129             -14.00    11800.00
04130             -14.00    11800.00
04131             -26.00    11800.00
04132             -30.00    11800.00
04133             -30.00    11800.00
04134             -22.00    11800.00
04135             -18.00    11800.00
04136             -20.00    11800.00
04137             -22.00    11600.00
04138             -22.00    11600.00
04139             -28.00    11800.00
04140             -30.00    11600.00
04141             -26.00    11600.00
04142             -22.00    11400.00
04143             -22.00    11400.00
04144             -26.00    11400.00
04145             -30.00    11200.00
04146             -28.00    11200.00
04147             -28.00    11200.00
04148             -24.00    11200.00
04149             -18.00    11200.00
04150             -20.00    11000.00
04151             -26.00    11000.00
04152             -30.00    10800.00
04153             -30.00    10800.00
04154             -22.00    10800.00
04155             -22.00    10600.00
04156             -22.00    10800.00
04157             -26.00    10400.00
04158             -26.00    10400.00
04159             -28.00    10200.00
04160             -30.00    10200.00
04161             -28.00    10200.00
04162             -18.00    10000.00
04163             -18.00    10000.00
04164             -22.00     9600.00
04165             -28.00     9600.00
04166             -30.00     9400.00
04167             -26.00     9600.00
04168             -20.00     9400.00
04169             -18.00     9200.00
04170             -20.00     9200.00
04171             -24.00     9200.00
04172             -28.00     8800.00
04173             -26.00     8800.00
04174             -20.00     8600.00
04175             -16.00     8400.00
04176             -18.00     8400.00
04177             -22.00     8400.00
04178             -26.00     8000.00
04179             -22.00     8000.00
04180             -20.00     7800.00
04181             -20.00     7800.00
04182             -20.00     7400.00
04183             -16.00     7400.00
04184             -18.00     7200.00
04185             -20.00     7000.00
04186             -22.00     6800.00
04187             -20.00     6800.00
04188             -18.00     6600.00
04189             -14.00     6400.00
04190             -14.00     6400.00
04191             -14.00     6000.00
04192             -20.00     6000.00
04193             -20.00     6000.00
04194             -22.00     5600.00
04195             -12.00     5600.00
04196             -10.00     5200.00
04197             -14.00     5200.00
04198             -18.00     4800.00
04199             -18.00     4600.00
04200             -14.00     4400.00
04201             -14.00     4400.00
04202             -14.00     4200.00
04203             -14.00     4000.00
04204             -10.00     3800.00
04205             -12.00     3600.00
04206             -20.00     3400.00
04207             -20.00     3200.00
04208             -14.00     3000.00
04209              -6.00     3000.00
04210              -6.00     2800.00
04211             -12.00     2400.00
04212             -14.00     2200.00
04213             -16.00     2200.00
04214             -14.00     2000.00
04215             -10.00     1800.00
04216              -6.00     1600.00
04217              -6.00     1400.00
04218             -12.00     1200.00
04219             -14.00     1200.00
04220             -12.00      800.00
04221              -6.00      600.00
04222              -4.00      400.00
04223              -6.00      200.00
04224              -6.00        0.00
04225              -6.00     -200.00
04226               2.00     -200.00
04227              28.00     -600.00
04228              12.00     -600.00
04229             -26.00    -1000.00
04230             -28.00    -1000.00
04231              12.00    -1200.00
04232              30.00    -1400.00
04233             162.00    -1600.00
04234             250.00    -2000.00
04235            -230.00    -2400.00
04236            -250.00    -2200.00
04237            -166.00    -2600.00
04238             250.00    -2600.00
04239             250.00    -2200.00
04240             118.00    -3400.00
04241            -250.00    -2800.00
04242             110.00    -3200.00
04243             250.00    -4200.00
04244            -166.00    -3000.00
04245            -250.00    -4400.00
04246            -250.00    -4200.00
04247             220.00    -3400.00
04248             250.00    -5400.00
04249            -250.00    -4000.00
04250            -250.00    -5000.00
04251            -108.00    -5600.00
04252             250.00    -4000.00
04253             250.00    -6200.00
04254            -250.00    -5000.00
04255            -172.00    -5600.00
04256              98.00    -6400.00
04257             220.00    -5200.00
04258             116.00    -6800.00
04259            -250.00    -5800.00
04260              12.00    -6400.00
04261             250.00    -6800.00
04262              84.00    -6400.00
04263            -114.00    -7600.00
04264            -214.00    -6600.00
04265             106.00    -7400.00
04266             246.00    -7400.00
04267             -12.00    -7400.00
04268            -162.00    -8200.00
04269             -66.00    -7600.00
04270             126.00    -8200.00
04271             130.00    -8200.00
04272             -62.00    -8400.00
04273             -92.00    -8400.00
04274               6.00    -8600.00
04275             138.00    -8800.00
04276              34.00    -8800.00
04277             -92.00    -9000.00
04278             -20.00    -9000.00
04279              54.00    -9200.00
04280              82.00    -9400.00
04281               2.00    -9400.00
04282             -46.00    -9600.00
04283               2.00    -9600.00
04284              62.00    -9800.00
04285              20.00    -9800.00
04286              -4.00   -10000.00
04287              -2.00   -10200.00
04288              20.00   -10200.00
04289              46.00   -10400.00
04290              10.00   -10400.00
04291              -6.00   -10600.00
04292               4.00   -10600.00
04293              32.00   -10600.00
04294              30.00   -10600.00
04295              12.00   -10800.00
04296               2.00   -10800.00
04297              14.00   -10800.00
04298              26.00   -11000.00
04299              20.00   -11000.00
04300              18.00   -11200.00
04301              22.00   -11000.00
04302              20.00   -11400.00
04303              18.00   -11400.00
04304              20.00   -11400.00
04305              10.00   -11600.00
04306              18.00   -11600.00
04307              28.00   -11600.00
04308              20.00   -11600.00
04309              18.00   -11600.00
04310              12.00   -11600.00
04311              18.00   -11600.00
04312              26.00   -11600.00
04313              20.00   -11800.00
04314              20.00   -11600.00
04315              20.00   -11600.00
04316              20.00   -11800.00
04317              20.00   -11800.00
04318              20.00   -11800.00
04319              20.00   -11600.00
04320              20.00   -12000.00
04321              28.00   -11800.00
04322              22.00   -11800.00
04323              18.00   -11800.00
04324              14.00   -11800.00
04325              20.00   -11800.00
04326              22.00   -11600.00
04327              22.00   -11600.00
04328              20.00   -11600.00
04329              20.00   -11600.00
04330              22.00   -11600.00
04331              18.00   -11600.00
04332              22.00   -11600.00
04333              20.00   -11400.00
04334              22.00   -11400.00
04335              20.00   -11400.00
04336              20.00   -11400.00
04337              18.00   -11400.00
04338              14.00   -11000.00
04339              20.00   -11200.00
04340              20.00   -11200.00
04341              24.00   -11000.00
04342              20.00   -10800.00
04343              18.00   -11000.00
04344              18.00   -10800.00
04345              18.00   -10800.00
04346              18.00   -10800.00
04347              22.00   -10600.00
04348              22.00   -10600.00
04349              18.00   -10400.00
04350              18.00   -10400.00
04351              18.00   -10200.00
04352              18.00   -10200.00
04353              20.00   -10000.00
04354              20.00   -10000.00
04355              18.00    -9800.00
04356              18.00    -9800.00
04357              20.00    -9600.00
04358              18.00    -9600.00
04359              18.00    -9600.00
04360              14.00    -9200.00
04361              14.00    -9200.00
04362              24.00    -9200.00
04363              20.00    -9000.00
04364              18.00    -8800.00
04365              12.00    -8800.00
04366              14.00    -8800.00
04367              20.00    -8400.00
04368              18.00    -8200.00
04369              18.00    -8000.00
04370              14.00    -8200.00
04371              12.00    -8000.00
04372              14.00    -7800.00
04373              18.00    -7600.00
04374              18.00    -7400.00
04375              18.00    -7200.00
04376              18.00    -7000.00
04377               8.00    -7000.00
04378              10.00    -6800.00
04379              20.00    -6600.00
04380              18.00    -6600.00
04381              14.00    -6400.00
04382              10.00    -6400.00
04383              10.00    -6000.00
04384              14.00    -6000.00
04385              14.00    -5800.00
04386              12.00    -5600.00
04387              10.00    -5200.00
04388              10.00    -5000.00
04389              12.00    -5000.00
04390              12.00    -4600.00
04391              10.00    -4600.00
04392              10.00    -4400.00
04393              12.00    -4200.00
04394               6.00    -4000.00
04395              12.00    -4000.00
04396              14.00    -3800.00
04397               6.00    -3600.00
04398               4.00    -3400.00
04399               6.00    -3200.00
04400              10.00    -3200.00
04401              10.00    -2800.00
04402               4.00    -2600.00
04403               4.00    -2400.00
04404               6.00    -2400.00
04405               6.00    -2000.00
04406               4.00    -1800.00
04407               2.00    -1800.00
04408               4.00    -1600.00
04409               6.00    -1200.00
04410               4.00    -1000.00
04411               4.00     -800.00
04412              -2.00     -800.00
04413              -2.00     -400.00
04414               0.00     -400.00
04415               6.00     -200.00
04416               6.00        0.00
04417               4.00      200.00
04418              12.00      400.00
04419              30.00      600.00
04420               4.00      600.00
04421             -20.00      800.00
04422              -6.00     1000.00
04423              26.00     1200.00
04424              36.00     1400.00
04425              86.00     1800.00
04426             250.00     2000.00
04427              26.00     2200.00
04428            -250.00     2400.00
04429            -250.00     2400.00
04430             250.00     2400.00
04431             250.00     2800.00
04432             250.00     3200.00
04433            -206.00     3200.00
04434            -250.00     3200.00
04435             250.00     3600.00
04436             250.00     3400.00
04437            -250.00     4000.00
04438            -250.00     4000.00
04439              -4.00     4000.00
04440             250.00     4600.00
04441             250.00     4400.00
04442            -250.00     5000.00
04443            -250.00     4800.00
04444             122.00     5000.00
04445             250.00     5600.00
04446              38.00     5200.00
04447            -250.00     5600.00
04448            -146.00     6000.00
04449             204.00     5800.00
04450             188.00     6400.00
04451            -154.00     6200.00
04452            -236.00     6800.00
04453              84.00     6800.00
04454             226.00     6800.00
04455             -38.00     7200.00
04456            -204.00     7200.00
04457            -108.00     7400.00
04458             142.00     7600.00
04459             180.00     7800.00
04460            -128.00     7800.00
04461            -184.00     7800.00
04462              26.00     8400.00
04463             114.00     8200.00
04464              22.00     8400.00
04465            -118.00     8600.00
04466             -92.00     8600.00
04467              74.00     8800.00
04468              78.00     8800.00
04469             -76.00     8800.00
04470            -106.00     9200.00
04471              -6.00     9400.00
04472              62.00     9200.00
04473              22.00     9600.00
04474             -72.00     9400.00
04475             -76.00     9600.00
04476              12.00     9800.00
04477              26.00    10000.00
04478             -30.00    10000.00
04479             -44.00    10200.00
04480             -22.00    10200.00
04481              10.00    10400.00
04482              -6.00    10400.00
04483             -52.00    10400.00
04484             -38.00    10400.00
04485              -4.00    10800.00
04486               0.00    10600.00
04487             -12.00    10800.00
04488             -38.00    10800.00
04489             -36.00    11000.00
04490             -12.00    11200.00
04491             -14.00    11000.00
04492             -26.00    11200.00
04493             -22.00    11200.00
04494             -16.00    11200.00
04495             -22.00    11400.00
04496             -26.00    11600.00
04497             -32.00    11400.00
04498             -22.00    11600.00
04499             -10.00    11600.00
04500             -12.00    11600.00
04501             -26.00    11800.00
04502             -36.00    11600.00
04503             -30.00    11800.00
04504             -20.00    11800.00
04505             -16.00    11800.00
04506             -22.00    11800.00
04507             -22.00    11800.00
04508             -24.00    12000.00
04509             -28.00    11800.00
04510             -26.00    11800.00
04511             -28.00    12000.00
04512             -22.00    11800.00
04513             -14.00    12000.00
04514             -20.00    11800.00
04515             -28.00    11800.00
04516             -30.00    11800.00
04517             -28.00    11800.00
04518             -22.00    11800.00
04519             -16.00    11800.00
04520             -22.00    11800.00
04521             -28.00    11800.00
04522             -28.00    11600.00
04523             -28.00    11600.00
04524             -26.00    11600.00
04525             -22.00    11400.00
04526             -22.00    11400.00
04527             -20.00    11400.00
04528             -22.00    11400.00
04529             -28.00    11200.00
04530             -34.00    11200.00
04531             -26.00    11200.00
04532             -18.00    11200.00
04533             -14.00    11000.00
04534             -26.00    11000.00
04535             -34.00    11000.00
04536             -30.00    10800.00
04537             -22.00    10800.00
04538             -22.00    10800.00
04539             -20.00    10600.00
04540             -26.00    10600.00
04541             -28.00    10400.00
04542             -22.00    10200.00
04543             -28.00    10200.00
04544             -28.00    10200.00
04545             -22.00    10000.00
04546             -22.00    10000.00
04547             -22.00    10000.00
04548             -22.00     9800.00
04549             -26.00     9600.00
04550             -28.00     9600.00
04551             -26.00     9400.00
04552             -22.00     9400.00
04553             -20.00     9200.00
04554             -20.00     9200.00
04555             -22.00     8800.00
04556             -28.00     8800.00
04557             -28.00     8600.00
04558             -22.00     8600.00
04559             -16.00     8400.00
04560             -14.00     8400.00
04561             -22.00     8000.00
04562             -22.00     8200.00
04563             -22.00     8000.00
04564             -20.00     7600.00
04565             -18.00     7600.00
04566             -20.00     7600.00
04567             -18.00     7400.00
04568             -20.00     7200.00
04569             -22.00     6800.00
04570             -24.00     6800.00
04571             -20.00     6800.00
04572             -18.00     6600.00
04573             -12.00     6400.00
04574             -14.00     6200.00
04575             -18.00     6200.00
04576             -20.00     6000.00
04577             -20.00     5800.00
04578             -14.00     5400.00
04579             -14.00     5400.00
04580             -12.00     5200.00
04581             -14.00     4800.00
04582             -18.00     4800.00
04583             -20.00     4600.00
04584             -14.00     4400.00
04585             -14.00     4400.00
04586             -10.00     4000.00
04587             -12.00     4000.00
04588             -12.00     3800.00
04589             -18.00     3600.00
04590             -14.00     3400.00
04591             -12.00     3200.00
04592             -10.00     3000.00
04593              -6.00     2800.00
04594             -10.00     2600.00
04595             -12.00     2400.00
04596             -14.00     2200.00
04597             -12.00     2000.00
04598             -12.00     1800.00
04599             -10.00     1600.00
04600              -8.00     1600.00
04601             -10.00     1200.00
04602             -10.00     1000.00
04603             -10.00      800.00
04604             -12.00      600.00
04605             -12.00      400.00
04606              -6.00      400.00
04607              -2.00      400.00
04608               2.00        0.00
04609              -8.00     -200.00
04610               2.00     -400.00
04611              26.00     -600.00
04612               4.00     -800.00
04613             -28.00    -1000.00
04614             -12.00    -1000.00
04615              16.00    -1200.00
04616              44.00    -1600.00
04617             250.00    -1800.00
04618             210.00    -2200.00
04619            -250.00    -2400.00
04620            -250.00    -2600.00
04621              52.00    -2600.00
04622             250.00    -2400.00
04623             250.00    -2800.00
04624            -250.00    -3400.00
04625            -250.00    -2400.00
04626             250.00    -4000.00
04627             250.00    -3800.00
04628            -250.00    -3200.00
04629            -250.00    -4600.00
04630            -250.00    -3400.00
04631             250.00    -4200.00
04632             250.00    -5200.00
04633            -250.00    -4000.00
04634            -202.00    -5600.00
04635             -42.00    -4800.00
04636             250.00    -4600.00
04637             134.00    -6000.00
04638            -250.00    -4600.00
04639             -10.00    -6400.00
04640             110.00    -5800.00
04641             250.00    -5800.00
04642             -98.00    -6800.00
04643            -250.00    -5800.00
04644             174.00    -7200.00
04645             206.00    -6400.00
04646              22.00    -6800.00
04647            -192.00    -7400.00
04648            -134.00    -6800.00
04649             214.00    -7800.00
04650             180.00    -7200.00
04651            -100.00    -7600.00
04652            -152.00    -8000.00
04653               2.00    -7800.00
04654             172.00    -8200.00
04655              60.00    -8000.00
04656             -94.00    -8400.00
04657             -68.00    -8400.00
04658              66.00    -8800.00
04659             134.00    -8800.00
04660             -36.00    -9000.00
04661             -82.00    -9000.00
04662              12.00    -9200.00
04663              76.00    -9200.00
04664              62.00    -9200.00
04665             -30.00    -9400.00
04666             -44.00    -9600.00
04667              34.00    -9800.00
04668              60.00    -9800.00
04669              10.00    -9800.00
04670              -4.00   -10000.00
04671               2.00   -10000.00
04672              38.00   -10200.00
04673              30.00   -10400.00
04674              -4.00   -10400.00
04675              -6.00   -10400.00
04676              18.00   -10600.00
04677              36.00   -10800.00
04678              26.00   -10800.00
04679               2.00   -10600.00
04680               0.00   -10800.00
04681              20.00   -11000.00
04682              28.00   -11000.00
04683              18.00   -11200.00
04684              10.00   -11000.00
04685              18.00   -11400.00
04686              16.00   -11400.00
04687              20.00   -11400.00
04688              18.00   -11400.00
04689               6.00   -11400.00
04690              22.00   -11600.00
04691              28.00   -11400.00
04692              20.00   -11400.00
04693              14.00   -11600.00
04694              10.00   -11600.00
04695              22.00   -11600.00
04696              26.00   -11600.00
04697              18.00   -11600.00
04698              18.00   -11600.00
04699              26.00   -11600.00
04700              24.00   -11800.00
04701              18.00   -12000.00
04702              14.00   -11600.00
04703              18.00   -11600.00
04704              26.00   -11600.00
04705              30.00   -12000.00
04706              18.00   -11800.00
04707              12.00   -11800.00
04708              14.00   -11800.00
04709              26.00   -11800.00
04710              28.00   -11800.00
04711              22.00   -11600.00
04712              20.00   -11600.00
04713              20.00   -11600.00
04714              22.00   -11600.00
04715              20.00   -11600.00
04716              22.00   -11400.00
04717              20.00   -11600.00
04718              22.00   -11400.00
04719              20.00   -11400.00
04720              22.00   -11400.00
04721              20.00   -11400.00
04722              18.00   -11000.00
04723              22.00   -11200.00
04724              26.00   -11000.00
04725              26.00   -11000.00
04726              18.00   -11200.00
04727              14.00   -10800.00
04728              18.00   -11000.00
04729              24.00   -10800.00
04730              20.00   -10800.00
04731              20.00   -10600.00
04732              18.00   -10600.00
04733              20.00   -10400.00
04734              18.00   -10400.00
04735              14.00   -10200.00
04736              18.00   -10000.00
04737              22.00   -10000.00
04738              20.00   -10000.00
04739              18.00    -9800.00
04740              12.00    -9800.00
04741              18.00    -9600.00
04742              18.00    -9600.00
04743              18.00    -9600.00
04744              12.00    -9200.00
04745              20.00    -9200.00
04746              18.00    -9000.00
04747              14.00    -9000.00
04748              14.00    -8800.00
04749              14.00    -8800.00
04750              18.00    -8400.00
04751              20.00    -8400.00
04752              12.00    -8200.00
04753              12.00    -8200.00
04754              18.00    -8000.00
04755              18.00    -7800.00
04756              14.00    -7600.00
04757              12.00    -7600.00
04758              12.00    -7400.00
04759              20.00    -7200.00
04760              18.00    -7000.00
04761              10.00    -6800.00
04762              10.00    -6800.00
04763              10.00    -6800.00
04764              12.00    -6400.00
04765              18.00    -6400.00
04766              14.00    -6000.00
04767              12.00    -6000.00
04768              10.00    -5800.00
04769              10.00    -5600.00
04770              14.00    -5600.00
04771              14.00    -5200.00
04772              10.00    -5000.00
04773              10.00    -5000.00
04774              10.00    -4800.00
04775              10.00    -4600.00
04776               8.00    -4400.00
04777               6.00    -4200.00
04778              12.00    -4000.00
04779              14.00    -4000.00
04780               8.00    -3600.00
04781               4.00    -3600.00
04782               4.00    -3400.00
04783              10.00    -3200.00
04784              10.00    -3000.00
04785               8.00    -2800.00
04786               8.00    -2600.00
04787              10.00    -2400.00
04788               6.00    -2400.00
04789               2.00    -2000.00
04790               4.00    -1800.00
04791              10.00    -1600.00
04792              10.00    -1400.00
04793               2.00    -1200.00
04794              -2.00    -1000.00
04795               2.00     -800.00
04796               6.00     -800.00
04797               4.00     -400.00
04798               2.00     -400.00
04799               0.00     -200.00
04800               4.00        0.00
04801              10.00      400.00
04802              26.00      400.00
04803              26.00      600.00
04804             -12.00      600.00
04805             -26.00      800.00
04806               6.00     1200.00
04807              34.00     1200.00
04808              38.00     1600.00
04809             146.00     1800.00
04810             250.00     2000.00
04811            -196.00     2200.00
04812            -250.00     2400.00
04813            -140.00     2400.00
04814             250.00     2400.00
04815             250.00     2800.00
04816             242.00     3200.00
04817            -250.00     3200.00
04818            -250.00     3400.00
04819             250.00     3600.00
04820             250.00     3600.00
04821            -250.00     4200.00
04822            -236.00     4000.00
04823             116.00     4400.00
04824             250.00     4600.00
04825              70.00     4600.00
04826            -250.00     5200.00
04827            -204.00     4800.00
04828             250.00     5400.00
04829             250.00     5600.00
04830            -128.00     5400.00
04831            -250.00     6000.00
04832             -10.00     5600.00
04833             250.00     6200.00
04834              82.00     6400.00
04835            -236.00     6200.00
04836            -142.00     6800.00
04837             182.00     6800.00
04838             154.00     7000.00
04839            -130.00     7200.00
04840            -190.00     7200.00
04841             -26.00     7600.00
04842             204.00     7400.00
04843              82.00     7800.00
04844            -198.00     7800.00
04845            -112.00     8000.00
04846              76.00     8200.00
04847              98.00     8200.00
04848             -36.00     8400.00
04849            -132.00     8600.00
04850             -34.00     8600.00
04851             106.00     8800.00
04852              26.00     9000.00
04853            -110.00     9000.00
04854             -76.00     9200.00
04855              34.00     9200.00
04856              74.00     9400.00
04857             -20.00     9600.00
04858            -108.00     9600.00
04859             -60.00     9800.00
04860              42.00     9800.00
04861              36.00    10000.00
04862             -38.00    10000.00
04863             -62.00    10000.00
04864             -30.00    10200.00
04865              14.00    10400.00
04866             -10.00    10400.00
04867             -46.00    10400.00
04868             -28.00    10600.00
04869              -2.00    10800.00
04870              -2.00    10800.00
04871             -26.00    11000.00
04872             -58.00    10800.00
04873             -36.00    11000.00
04874               4.00    11000.00
04875               4.00    11000.00
04876             -20.00    11200.00
04877             -46.00    11200.00
04878             -46.00    11400.00
04879             -20.00    11400.00
04880              -4.00    11600.00
04881             -14.00    11600.00
04882             -28.00    11400.00
04883             -28.00    11600.00
04884             -22.00    11600.00
04885             -26.00    11600.00
04886             -28.00    11800.00
04887             -22.00    11800.00
04888             -18.00    11800.00
04889             -18.00    11800.00
04890             -26.00    11800.00
04891             -34.00    11800.00
04892             -30.00    11800.00
04893             -22.00    11800.00
04894             -18.00    12000.00
04895             -26.00    11800.00
04896             -28.00    11800.00
04897             -22.00    11800.00
04898             -20.00    11800.00
04899             -22.00    11800.00
04900             -30.00    11800.00
04901             -28.00    11800.00
04902             -18.00    11800.00
04903             -18.00    11800.00
04904             -24.00    11800.00
04905             -28.00    11800.00
04906             -30.00    11600.00
04907             -26.00    11600.00
04908             -22.00    11600.00
04909             -22.00    11600.00
04910             -26.00    11400.00
04911             -22.00    11400.00
04912             -22.00    11400.00
04913             -28.00    11200.00
04914             -28.00    11200.00
04915             -28.00    11200.00
04916             -20.00    11000.00
04917             -18.00    11200.00
04918             -26.00    10800.00
04919             -28.00    11000.00
04920             -28.00    11000.00
04921             -26.00    10800.00
04922             -22.00    10800.00
04923             -20.00    10800.00
04924             -22.00    10400.00
04925             -26.00    10400.00
04926             -28.00    10400.00
04927             -28.00    10200.00
04928             -28.00    10200.00
04929             -22.00    10000.00
04930             -20.00    10000.00
04931             -22.00    10000.00
04932             -22.00     9600.00
04933             -26.00     9600.00
04934             -28.00     9600.00
04935             -26.00     9400.00
04936             -22.00     9200.00
04937             -20.00     9200.00
04938             -20.00     9200.00
04939             -26.00     9000.00
04940             -30.00     8800.00
04941             -26.00     8600.00
04942             -20.00     8600.00
04943             -18.00     8400.00
04944             -18.00     8400.00
04945             -22.00     8200.00
04946             -28.00     7800.00
04947             -24.00     7800.00
04948             -22.00     7600.00
04949             -18.00     7600.00
04950             -16.00     7400.00
04951             -20.00     7200.00
04952             -22.00     7000.00
04953             -22.00     7000.00
04954             -22.00     6800.00
04955             -14.00     6800.00
04956             -18.00     6400.00
04957             -18.00     6200.00
04958             -18.00     6200.00
04959             -18.00     6000.00
04960             -18.00     5800.00
04961             -18.00     5600.00
04962             -12.00     5600.00
04963             -12.00     5400.00
04964             -14.00     5200.00
04965             -16.00     5000.00
04966             -14.00     4800.00
04967             -18.00     4600.00
04968             -14.00     4400.00
04969             -14.00     4000.00
04970             -12.00     4000.00
04971              -6.00     3800.00
04972             -12.00     3600.00
04973             -20.00     3600.00
04974             -16.00     3200.00
04975             -12.00     3200.00
04976             -10.00     3000.00
04977              -4.00     2800.00
04978             -12.00     2600.00
04979             -12.00     2400.00
04980             -12.00     2200.00
04981             -10.00     2000.00
04982             -10.00     1800.00
04983              -6.00     1600.00
04984              -6.00     1400.00
04985             -10.00     1200.00
04986             -10.00     1000.00
04987             -12.00      800.00
04988             -10.00      600.00
04989              -6.00      400.00
04990              -4.00      400.00
04991              -2.00        0.00
04992              -4.00     -200.00
04993              -6.00     -400.00
04994              18.00     -400.00
04995              22.00     -600.00
04996             -12.00     -800.00
04997             -30.00    -1000.00
04998               0.00    -1200.00
04999              22.00    -1200.00
05000              92.00    -1600.00
