Unit:(mV)
                     CH1         CH2
Frequency              ?           ?
00001               0.00    -2600.00
00002               0.00    -2800.00
00003              -6.00    -2800.00
00004              -2.00    -2600.00
00005              -2.00    -2800.00
00006              -2.00    -2400.00
00007               2.00    -2600.00
00008               2.00    -2400.00
00009              -2.00    -2400.00
00010              -6.00    -2400.00
00011              -8.00    -2200.00
00012              -2.00    -2200.00
00013               6.00    -2200.00
00014               0.00    -2000.00
00015              -4.00    -2000.00
00016              -4.00    -2000.00
00017              -8.00    -2000.00
00018              -6.00    -2000.00
00019               0.00    -1600.00
00020               2.00    -1600.00
00021               2.00    -1600.00
00022              -4.00    -1400.00
00023              -8.00    -1600.00
00024              -4.00    -1400.00
00025               0.00    -1200.00
00026              -2.00    -1200.00
00027               0.00    -1400.00
00028               0.00    -1000.00
00029              -6.00    -1200.00
00030              -4.00    -1000.00
00031              -6.00    -1000.00
00032              -2.00     -800.00
00033               2.00     -800.00
00034               0.00     -800.00
00035              -8.00     -600.00
00036              -6.00     -800.00
00037               0.00     -600.00
00038               2.00     -400.00
00039               0.00     -600.00
00040              -4.00     -400.00
00041              -6.00     -400.00
00042               0.00     -200.00
00043               0.00     -200.00
00044              -6.00     -200.00
00045               0.00        0.00
00046               0.00        0.00
00047              -6.00        0.00
00048              -8.00      200.00
00049               0.00      200.00
00050              12.00      400.00
00051              12.00      400.00
00052               6.00      400.00
00053              -6.00      400.00
00054              -4.00      600.00
00055               0.00      400.00
00056               4.00      600.00
00057               6.00      800.00
00058              58.00      800.00
00059             194.00      800.00
00060             -18.00     1000.00
00061            -254.00      800.00
00062            -224.00     1000.00
00063             246.00     1200.00
00064             246.00     1200.00
00065            -254.00      800.00
00066            -254.00     1200.00
00067             246.00     1600.00
00068             246.00     1400.00
00069            -254.00     1200.00
00070            -254.00     1800.00
00071             246.00     1600.00
00072              82.00     1400.00
00073            -186.00     1600.00
00074              48.00     2000.00
00075            -120.00     1800.00
00076             -38.00     1800.00
00077             246.00     2000.00
00078             -48.00     2000.00
00079            -218.00     2000.00
00080              90.00     2200.00
00081              44.00     2400.00
00082             -30.00     2200.00
00083              86.00     2400.00
00084            -154.00     2400.00
00085             -64.00     2400.00
00086             246.00     2600.00
00087             -84.00     2400.00
00088            -190.00     2600.00
00089             154.00     2800.00
00090              18.00     2600.00
00091             -94.00     2800.00
00092              62.00     3000.00
00093             -48.00     2800.00
00094             -22.00     2800.00
00095              88.00     3200.00
00096             -66.00     3000.00
00097             -24.00     3200.00
00098              32.00     3200.00
00099             -48.00     3200.00
00100              42.00     3400.00
00101              24.00     3400.00
00102             -86.00     3200.00
00103              22.00     3400.00
00104              26.00     3400.00
00105             -38.00     3400.00
00106              16.00     3600.00
00107               6.00     3600.00
00108             -24.00     3600.00
00109              -6.00     3600.00
00110             -10.00     3600.00
00111              10.00     3600.00
00112              10.00     3800.00
00113             -30.00     3800.00
00114              -2.00     3800.00
00115              10.00     3600.00
00116             -18.00     3800.00
00117              -2.00     4000.00
00118               8.00     4000.00
00119             -16.00     4000.00
00120              -8.00     4000.00
00121              14.00     4200.00
00122              -6.00     4000.00
00123             -16.00     4000.00
00124              -6.00     4200.00
00125               0.00     4000.00
00126               4.00     4200.00
00127             -10.00     4200.00
00128             -16.00     4000.00
00129               2.00     4000.00
00130              -8.00     4200.00
00131             -10.00     4200.00
00132               6.00     4200.00
00133              -8.00     4400.00
00134             -18.00     4200.00
00135              -2.00     4200.00
00136               0.00     4400.00
00137              -6.00     4200.00
00138              -4.00     4200.00
00139              -6.00     4400.00
00140              -2.00     4400.00
00141              -8.00     4200.00
00142             -14.00     4400.00
00143              -6.00     4200.00
00144              -2.00     4400.00
00145              -8.00     4400.00
00146              -2.00     4200.00
00147              -6.00     4400.00
00148             -14.00     4200.00
00149              -8.00     4400.00
00150               0.00     4400.00
00151              -4.00     4200.00
00152              -2.00     4200.00
00153              -6.00     4400.00
00154             -10.00     4200.00
00155             -10.00     4200.00
00156              -6.00     4200.00
00157               0.00     4200.00
00158               0.00     4200.00
00159              -2.00     4000.00
00160              -8.00     4200.00
00161              -8.00     4000.00
00162             -10.00     4200.00
00163              -8.00     4200.00
00164               2.00     4000.00
00165              -2.00     4000.00
00166              -6.00     4000.00
00167              -6.00     4000.00
00168              -8.00     4000.00
00169              -8.00     4000.00
00170              -6.00     4000.00
00171               0.00     4000.00
00172               0.00     4000.00
00173              -6.00     3800.00
00174              -8.00     3800.00
00175              -6.00     3800.00
00176              -6.00     3800.00
00177              -6.00     3600.00
00178               0.00     3800.00
00179              -2.00     3600.00
00180              -6.00     3600.00
00181              -6.00     3600.00
00182              -6.00     3600.00
00183              -4.00     3600.00
00184              -2.00     3600.00
00185               0.00     3400.00
00186              -2.00     3400.00
00187              -6.00     3200.00
00188             -10.00     3400.00
00189              -4.00     3200.00
00190              -2.00     3400.00
00191              -2.00     3200.00
00192              -2.00     3200.00
00193              -6.00     3200.00
00194              -8.00     3200.00
00195              -8.00     3000.00
00196              -6.00     2800.00
00197              -2.00     3000.00
00198              -8.00     2800.00
00199              -6.00     2600.00
00200              -2.00     2600.00
00201              -8.00     2600.00
00202              -6.00     2600.00
00203              -2.00     2600.00
00204              -2.00     2400.00
00205              -2.00     2400.00
00206              -4.00     2400.00
00207              -4.00     2400.00
00208             -10.00     2400.00
00209              -8.00     2200.00
00210              -2.00     2200.00
00211              -2.00     2000.00
00212              -2.00     2000.00
00213              -6.00     1800.00
00214              -6.00     1800.00
00215              -6.00     1800.00
00216              -6.00     1800.00
00217              -6.00     1600.00
00218              -6.00     1600.00
00219              -2.00     1600.00
00220              -6.00     1600.00
00221              -6.00     1600.00
00222              -8.00     1400.00
00223              -6.00     1200.00
00224               0.00     1200.00
00225               2.00     1200.00
00226              -6.00     1200.00
00227              -8.00     1000.00
00228              -8.00     1000.00
00229              -4.00      800.00
00230              -2.00     1000.00
00231              -6.00      800.00
00232               0.00      800.00
00233               0.00      800.00
00234              -2.00      800.00
00235              -6.00      600.00
00236              -4.00      400.00
00237              -2.00      400.00
00238              -2.00      400.00
00239              -8.00      200.00
00240              -2.00      400.00
00241               0.00        0.00
00242               2.00      200.00
00243               4.00        0.00
00244              14.00        0.00
00245               0.00        0.00
00246             -10.00        0.00
00247             -10.00     -200.00
00248               0.00     -400.00
00249              16.00     -400.00
00250              70.00     -400.00
00251             158.00     -600.00
00252             -34.00     -800.00
00253            -254.00     -800.00
00254            -240.00     -400.00
00255             246.00     -600.00
00256             246.00     -800.00
00257            -254.00    -1000.00
00258            -254.00     -600.00
00259             246.00    -1000.00
00260             246.00    -1000.00
00261            -254.00    -1200.00
00262            -254.00    -1000.00
00263             218.00    -1200.00
00264             230.00    -1400.00
00265              30.00    -1200.00
00266            -110.00    -1600.00
00267            -250.00    -1400.00
00268              24.00    -1600.00
00269             246.00    -1800.00
00270             -18.00    -1600.00
00271            -254.00    -1800.00
00272             -32.00    -2000.00
00273             192.00    -2000.00
00274              72.00    -2000.00
00275             -58.00    -2200.00
00276            -152.00    -2200.00
00277              -6.00    -2200.00
00278             192.00    -2200.00
00279             -22.00    -2400.00
00280            -160.00    -2200.00
00281              22.00    -2400.00
00282             102.00    -2400.00
00283             -16.00    -2400.00
00284             -32.00    -2400.00
00285             -38.00    -2800.00
00286               6.00    -2600.00
00287              52.00    -2800.00
00288              -6.00    -2800.00
00289             -50.00    -2800.00
00290              -2.00    -2800.00
00291              36.00    -3000.00
00292               4.00    -3000.00
00293             -22.00    -2800.00
00294             -26.00    -3000.00
00295              14.00    -3000.00
00296              24.00    -3200.00
00297             -10.00    -3200.00
00298             -28.00    -3200.00
00299              10.00    -3200.00
00300              16.00    -3200.00
00301             -14.00    -3200.00
00302              -8.00    -3200.00
00303               2.00    -3400.00
00304               2.00    -3200.00
00305               2.00    -3400.00
00306              -2.00    -3400.00
00307             -10.00    -3600.00
00308              -2.00    -3600.00
00309               6.00    -3600.00
00310               8.00    -3600.00
00311              -6.00    -3600.00
00312             -10.00    -3600.00
00313               0.00    -3800.00
00314               6.00    -3600.00
00315              -8.00    -3800.00
00316               0.00    -3800.00
00317               8.00    -3800.00
00318              -2.00    -3800.00
00319              -8.00    -3800.00
00320              -2.00    -3800.00
00321               0.00    -3800.00
00322              -2.00    -3800.00
00323               0.00    -4000.00
00324               6.00    -3800.00
00325               2.00    -3800.00
00326              -6.00    -3800.00
00327             -10.00    -4000.00
00328               0.00    -3800.00
00329              -2.00    -3800.00
00330              -2.00    -4000.00
00331               4.00    -3800.00
00332               0.00    -4000.00
00333               0.00    -4000.00
00334               0.00    -4000.00
00335              -2.00    -4000.00
00336              -2.00    -3800.00
00337               0.00    -4000.00
00338               4.00    -3800.00
00339               2.00    -4000.00
00340              -6.00    -4000.00
00341             -10.00    -4000.00
00342               0.00    -3800.00
00343               2.00    -4000.00
00344               6.00    -4000.00
00345               2.00    -3800.00
00346              -2.00    -4000.00
00347             -10.00    -3800.00
00348              -8.00    -3800.00
00349               0.00    -4000.00
00350               2.00    -4000.00
00351               2.00    -3800.00
00352               0.00    -3800.00
00353              -2.00    -4000.00
00354              -8.00    -3800.00
00355              -6.00    -3800.00
00356               2.00    -3600.00
00357               2.00    -3600.00
00358               2.00    -3600.00
00359              -2.00    -3600.00
00360              -8.00    -3600.00
00361              -4.00    -3600.00
00362               2.00    -3600.00
00363               6.00    -3600.00
00364               2.00    -3600.00
00365              -2.00    -3600.00
00366              -4.00    -3400.00
00367              -2.00    -3400.00
00368              -2.00    -3400.00
00369               0.00    -3200.00
00370               4.00    -3400.00
00371               0.00    -3200.00
00372              -2.00    -3200.00
00373              -4.00    -3200.00
00374               0.00    -3200.00
00375               0.00    -3200.00
00376               0.00    -3000.00
00377               0.00    -3000.00
00378               0.00    -3000.00
00379              -4.00    -3000.00
00380              -6.00    -3000.00
00381               0.00    -2800.00
00382               0.00    -2800.00
00383              -2.00    -2800.00
00384               0.00    -2800.00
00385               0.00    -2800.00
00386              -6.00    -2800.00
00387              -2.00    -2400.00
00388               0.00    -2400.00
00389               0.00    -2600.00
00390              -2.00    -2400.00
00391              -2.00    -2400.00
00392               0.00    -2400.00
00393              -2.00    -2400.00
00394              -2.00    -2400.00
00395              -2.00    -2200.00
00396               0.00    -2200.00
00397              -2.00    -2200.00
00398               0.00    -2000.00
00399               0.00    -2000.00
00400               0.00    -2000.00
00401              -6.00    -2000.00
00402              -6.00    -2000.00
00403              -2.00    -1800.00
00404               0.00    -1600.00
00405               0.00    -1600.00
00406               0.00    -1400.00
00407              -6.00    -1600.00
00408              -8.00    -1400.00
00409              -6.00    -1400.00
00410               0.00    -1400.00
00411               2.00    -1200.00
00412               0.00    -1200.00
00413              -6.00    -1000.00
00414              -6.00    -1000.00
00415              -2.00    -1000.00
00416               0.00     -800.00
00417              -2.00     -800.00
00418               0.00     -800.00
00419               0.00     -600.00
00420              -2.00     -600.00
00421              -4.00     -600.00
00422              -2.00     -400.00
00423               0.00     -400.00
00424              -2.00     -400.00
00425              -6.00     -400.00
00426              -6.00     -200.00
00427              -2.00        0.00
00428               0.00        0.00
00429               2.00        0.00
00430              -2.00        0.00
00431              -8.00      200.00
00432               0.00      200.00
00433               6.00      400.00
00434               6.00      400.00
00435               6.00      400.00
00436               2.00      400.00
00437              -8.00      600.00
00438             -14.00      400.00
00439              -2.00      800.00
00440              10.00      600.00
00441              70.00      800.00
00442             194.00     1000.00
00443              -2.00      800.00
00444            -254.00      800.00
00445            -254.00      800.00
00446             246.00     1200.00
00447             246.00     1400.00
00448            -254.00     1000.00
00449            -254.00     1200.00
00450             246.00     1600.00
00451             246.00     1400.00
00452            -254.00     1200.00
00453            -254.00     1600.00
00454             246.00     1800.00
00455             112.00     1600.00
00456            -186.00     1600.00
00457              36.00     2000.00
00458            -118.00     1600.00
00459             -48.00     1800.00
00460             246.00     2000.00
00461             -12.00     2000.00
00462            -232.00     2000.00
00463              70.00     2200.00
00464              54.00     2400.00
00465             -32.00     2000.00
00466              86.00     2600.00
00467            -146.00     2200.00
00468             -90.00     2400.00
00469             246.00     2600.00
00470             -54.00     2400.00
00471            -196.00     2600.00
00472             154.00     2800.00
00473              44.00     2600.00
00474             -98.00     2600.00
00475              54.00     2800.00
00476             -56.00     2800.00
00477             -46.00     2800.00
00478              86.00     3200.00
00479             -50.00     2800.00
00480             -22.00     3200.00
00481              40.00     3200.00
00482             -48.00     3200.00
00483              34.00     3200.00
00484              30.00     3400.00
00485             -88.00     3200.00
00486              10.00     3200.00
00487              30.00     3400.00
00488             -40.00     3400.00
00489              16.00     3600.00
00490               8.00     3400.00
00491             -22.00     3600.00
00492              -4.00     3600.00
00493             -10.00     3600.00
00494              10.00     3600.00
00495              10.00     3600.00
00496             -34.00     3800.00
00497             -14.00     3800.00
00498               8.00     4000.00
00499             -10.00     4000.00
00500               4.00     3600.00
00501              16.00     4000.00
00502             -10.00     4000.00
00503             -16.00     4000.00
00504               8.00     4000.00
00505             -10.00     4000.00
00506             -16.00     4000.00
00507              -2.00     4200.00
00508               2.00     4000.00
00509               2.00     4200.00
00510              -6.00     4200.00
00511             -12.00     4000.00
00512               6.00     4000.00
00513              -6.00     4200.00
00514             -16.00     4200.00
00515              10.00     4200.00
00516               0.00     4200.00
00517             -16.00     4200.00
00518              -6.00     4200.00
00519              -6.00     4200.00
00520              -4.00     4200.00
00521               2.00     4200.00
00522              -2.00     4200.00
00523              -6.00     4200.00
00524             -10.00     4200.00
00525             -16.00     4200.00
00526              -6.00     4400.00
00527               0.00     4200.00
00528              -6.00     4400.00
00529              -2.00     4200.00
00530              -2.00     4200.00
00531              -8.00     4400.00
00532              -8.00     4400.00
00533              -2.00     4200.00
00534              -8.00     4200.00
00535              -8.00     4200.00
00536              -8.00     4200.00
00537              -6.00     4200.00
00538               0.00     4200.00
00539              -2.00     4400.00
00540             -12.00     4200.00
00541             -12.00     4000.00
00542               0.00     4200.00
00543              10.00     4200.00
00544               0.00     4200.00
00545             -22.00     4200.00
00546             -24.00     4000.00
00547               0.00     4200.00
00548              14.00     4000.00
00549               8.00     4200.00
00550              -6.00     4000.00
00551             -16.00     4000.00
00552             -10.00     3800.00
00553              -4.00     3800.00
00554               0.00     4000.00
00555              -6.00     3800.00
00556             -10.00     3800.00
00557              -6.00     3800.00
00558               6.00     3800.00
00559              -2.00     3800.00
00560             -10.00     3600.00
00561              -8.00     3600.00
00562              -2.00     3600.00
00563              -2.00     3600.00
00564               0.00     3600.00
00565              -8.00     3600.00
00566             -10.00     3400.00
00567              -6.00     3400.00
00568               0.00     3400.00
00569               2.00     3600.00
00570              -2.00     3400.00
00571             -12.00     3200.00
00572              -8.00     3200.00
00573              -2.00     3200.00
00574              -2.00     3200.00
00575              -2.00     3200.00
00576              -2.00     3200.00
00577              -8.00     3000.00
00578              -2.00     3200.00
00579               0.00     3000.00
00580               0.00     2800.00
00581             -10.00     2800.00
00582              -6.00     2800.00
00583              -6.00     2600.00
00584               0.00     2600.00
00585              -2.00     2600.00
00586              -2.00     2600.00
00587              -6.00     2400.00
00588              -8.00     2400.00
00589              -6.00     2400.00
00590              -2.00     2400.00
00591              -6.00     2200.00
00592              -6.00     2000.00
00593              -6.00     2000.00
00594              -8.00     2000.00
00595              -6.00     2000.00
00596               0.00     1800.00
00597               0.00     1800.00
00598             -10.00     1800.00
00599             -12.00     1600.00
00600              -6.00     1600.00
00601              -2.00     1600.00
00602              -4.00     1600.00
00603               0.00     1600.00
00604               0.00     1600.00
00605              -8.00     1400.00
00606             -14.00     1200.00
00607             -20.00     1200.00
00608              -8.00     1200.00
00609              14.00     1200.00
00610              16.00     1000.00
00611               0.00     1000.00
00612             -32.00      800.00
00613             -34.00      800.00
00614              10.00      800.00
00615              38.00      800.00
00616               8.00      800.00
00617             -32.00      600.00
00618             -32.00      400.00
00619              -2.00      400.00
00620              26.00      600.00
00621              14.00      400.00
00622             -16.00      200.00
00623             -24.00      200.00
00624              -2.00      200.00
00625              16.00      200.00
00626              16.00        0.00
00627               2.00        0.00
00628             -10.00        0.00
00629             -14.00        0.00
00630               0.00     -200.00
00631              10.00     -400.00
00632              22.00     -400.00
00633              58.00     -400.00
00634             150.00     -600.00
00635             -24.00     -800.00
00636            -254.00     -800.00
00637            -254.00     -400.00
00638             246.00     -600.00
00639             246.00     -800.00
00640            -254.00    -1000.00
00641            -254.00     -800.00
00642             246.00    -1200.00
00643             246.00    -1000.00
00644            -254.00    -1200.00
00645            -254.00    -1200.00
00646             192.00    -1400.00
00647             246.00    -1200.00
00648              54.00    -1400.00
00649             -98.00    -1800.00
00650            -254.00    -1600.00
00651             -10.00    -1600.00
00652             246.00    -1600.00
00653              24.00    -1600.00
00654            -254.00    -1800.00
00655             -56.00    -2000.00
00656             178.00    -1800.00
00657              68.00    -1800.00
00658             -46.00    -2200.00
00659            -144.00    -2200.00
00660              -8.00    -2000.00
00661             192.00    -2200.00
00662             -10.00    -2400.00
00663            -168.00    -2200.00
00664               4.00    -2400.00
00665             102.00    -2400.00
00666              -6.00    -2600.00
00667             -22.00    -2600.00
00668             -32.00    -2800.00
00669              -2.00    -2600.00
00670              38.00    -2800.00
00671              -8.00    -2800.00
00672             -46.00    -2600.00
00673               6.00    -2800.00
00674              38.00    -2800.00
00675               2.00    -3000.00
00676             -26.00    -3000.00
00677             -26.00    -3200.00
00678              14.00    -3000.00
00679              32.00    -3000.00
00680              -2.00    -3200.00
00681             -30.00    -3000.00
00682               6.00    -3200.00
00683              14.00    -3200.00
00684             -14.00    -3200.00
00685              -8.00    -3200.00
00686               8.00    -3200.00
00687               0.00    -3200.00
00688              -6.00    -3200.00
00689               0.00    -3400.00
00690              -2.00    -3600.00
00691               2.00    -3600.00
00692               2.00    -3600.00
00693              -2.00    -3600.00
00694              -8.00    -3600.00
00695               0.00    -3600.00
00696              10.00    -3600.00
00697              10.00    -3800.00
00698             -10.00    -3800.00
00699              -8.00    -3800.00
00700               6.00    -3800.00
00701               6.00    -3600.00
00702               0.00    -3800.00
00703               0.00    -3800.00
00704               0.00    -3800.00
00705              -8.00    -3600.00
00706              -6.00    -3800.00
00707               2.00    -3800.00
00708               6.00    -3800.00
00709               0.00    -3800.00
00710              -2.00    -3800.00
00711               2.00    -4000.00
00712               0.00    -3800.00
00713              -2.00    -4000.00
00714               0.00    -4000.00
00715              -6.00    -4000.00
00716              -8.00    -4000.00
00717               2.00    -4000.00
00718               8.00    -4000.00
00719               2.00    -3800.00
00720              -6.00    -4000.00
00721             -10.00    -4000.00
00722              -2.00    -4000.00
00723               2.00    -4000.00
00724               0.00    -3800.00
00725               4.00    -3800.00
00726              -2.00    -4000.00
00727              -4.00    -3800.00
00728              -6.00    -4000.00
00729              -2.00    -3800.00
00730              -6.00    -4000.00
00731               0.00    -3800.00
00732               6.00    -3800.00
00733               4.00    -3800.00
00734              -2.00    -3800.00
00735             -10.00    -3800.00
00736             -10.00    -3800.00
00737              -2.00    -3800.00
00738               0.00    -3800.00
00739               8.00    -3800.00
00740               2.00    -3600.00
00741              -2.00    -3600.00
00742              -8.00    -3800.00
00743              -2.00    -3800.00
00744              -2.00    -3600.00
00745               0.00    -3600.00
00746               0.00    -3600.00
00747               0.00    -3600.00
00748               0.00    -3400.00
00749              -2.00    -3600.00
00750              -6.00    -3400.00
00751              -8.00    -3400.00
00752               0.00    -3200.00
00753               6.00    -3400.00
00754               6.00    -3200.00
00755               2.00    -3200.00
00756              -6.00    -3200.00
00757             -10.00    -3200.00
00758              -4.00    -3000.00
00759               6.00    -3000.00
00760               6.00    -3200.00
00761               6.00    -3000.00
00762              -2.00    -3200.00
00763              -8.00    -3000.00
00764              -2.00    -2800.00
00765               2.00    -2800.00
00766               4.00    -2800.00
00767               2.00    -2800.00
00768              -2.00    -2800.00
00769              -4.00    -2800.00
00770               0.00    -2800.00
00771              -2.00    -2600.00
00772              -2.00    -2400.00
00773               2.00    -2400.00
00774               0.00    -2400.00
00775              -2.00    -2200.00
00776              -2.00    -2400.00
00777               0.00    -2200.00
00778               0.00    -2200.00
00779              -2.00    -2200.00
00780              -6.00    -2000.00
00781              -2.00    -2200.00
00782              -2.00    -2000.00
00783              -2.00    -2000.00
00784               0.00    -2000.00
00785               0.00    -1800.00
00786              -2.00    -1600.00
00787              -6.00    -1600.00
00788              -2.00    -1600.00
00789               0.00    -1600.00
00790              -6.00    -1400.00
00791              -6.00    -1400.00
00792               0.00    -1400.00
00793               0.00    -1200.00
00794               0.00    -1200.00
00795              -6.00    -1000.00
00796              -2.00    -1200.00
00797              -2.00    -1000.00
00798              -6.00    -1000.00
00799              -2.00     -800.00
00800               0.00     -800.00
00801               0.00     -800.00
00802              -2.00     -600.00
00803              -8.00     -600.00
00804              -4.00     -600.00
00805              -2.00     -400.00
00806              -2.00     -400.00
00807               0.00     -400.00
00808              -2.00     -400.00
00809              -8.00     -200.00
00810              -6.00     -200.00
00811               0.00        0.00
00812               2.00        0.00
00813              -4.00      200.00
00814              -6.00      200.00
00815              -2.00      200.00
00816               2.00      200.00
00817               2.00      200.00
00818               4.00      400.00
00819               6.00      400.00
00820              -2.00      400.00
00821              -6.00      400.00
00822              -2.00      400.00
00823               2.00      800.00
00824              50.00      800.00
00825             184.00      800.00
00826              20.00     1000.00
00827            -254.00      800.00
00828            -254.00     1000.00
00829             246.00     1200.00
00830             246.00     1600.00
00831            -254.00      800.00
00832            -254.00     1200.00
00833             246.00     1600.00
00834             246.00     1200.00
00835            -254.00     1200.00
00836            -254.00     1600.00
00837             246.00     1800.00
00838             148.00     1600.00
00839            -182.00     1600.00
00840              34.00     2000.00
00841            -104.00     1800.00
00842             -66.00     1800.00
00843             246.00     2000.00
00844              10.00     2000.00
00845            -246.00     2000.00
00846              62.00     2200.00
00847              70.00     2400.00
00848             -34.00     2200.00
00849              90.00     2400.00
00850            -130.00     2400.00
00851            -102.00     2400.00
00852             246.00     2600.00
00853             -32.00     2400.00
00854            -218.00     2600.00
00855             134.00     2800.00
00856              56.00     2600.00
00857             -96.00     2800.00
00858              54.00     3000.00
00859             -40.00     2800.00
00860             -48.00     2800.00
00861              90.00     3200.00
00862             -46.00     3000.00
00863             -32.00     3000.00
00864              38.00     3200.00
00865             -50.00     3200.00
00866              30.00     3200.00
00867              38.00     3400.00
00868             -84.00     3200.00
00869               8.00     3400.00
00870              34.00     3400.00
00871             -38.00     3400.00
00872              10.00     3600.00
00873              10.00     3600.00
00874             -26.00     3400.00
00875              -8.00     3800.00
00876             -10.00     3600.00
00877               8.00     3600.00
00878              16.00     3800.00
00879             -28.00     3600.00
00880             -10.00     3800.00
00881              10.00     4000.00
00882             -16.00     3800.00
00883              -4.00     4000.00
00884              14.00     4000.00
00885             -14.00     4000.00
00886             -16.00     4000.00
00887               8.00     4000.00
00888              -2.00     4000.00
00889             -14.00     4000.00
00890              -2.00     4000.00
00891               0.00     4000.00
00892               2.00     4200.00
00893              -8.00     4200.00
00894             -14.00     4200.00
00895               4.00     4000.00
00896              -6.00     4200.00
00897             -16.00     4000.00
00898               8.00     4200.00
00899               0.00     4200.00
00900             -14.00     4400.00
00901              -6.00     4200.00
00902              -4.00     4200.00
00903              -6.00     4400.00
00904               0.00     4200.00
00905              -2.00     4200.00
00906              -2.00     4400.00
00907              -8.00     4200.00
00908             -14.00     4200.00
00909              -2.00     4200.00
00910              -2.00     4400.00
00911              -6.00     4200.00
00912              -4.00     4400.00
00913              -2.00     4200.00
00914             -10.00     4200.00
00915              -8.00     4400.00
00916              -2.00     4200.00
00917              -2.00     4200.00
00918               0.00     4200.00
00919              -2.00     4400.00
00920              -8.00     4200.00
00921             -10.00     4200.00
00922             -10.00     4200.00
00923              -6.00     4200.00
00924               0.00     4200.00
00925              -2.00     4200.00
00926              -8.00     4200.00
00927              -6.00     4200.00
00928             -12.00     4000.00
00929              -6.00     4200.00
00930               0.00     4000.00
00931              -2.00     4200.00
00932              -6.00     4000.00
00933              -8.00     4000.00
00934              -6.00     4000.00
00935              -8.00     4000.00
00936              -8.00     4000.00
00937              -2.00     4000.00
00938              -2.00     3800.00
00939              -6.00     3800.00
00940              -8.00     4000.00
00941              -8.00     3800.00
00942              -6.00     3800.00
00943              -6.00     3600.00
00944               0.00     3800.00
00945              -2.00     3600.00
00946              -8.00     3600.00
00947             -10.00     3600.00
00948              -8.00     3400.00
00949              -2.00     3600.00
00950              -2.00     3600.00
00951               0.00     3600.00
00952              -2.00     3400.00
00953              -6.00     3200.00
00954             -10.00     3200.00
00955              -4.00     3400.00
00956              -2.00     3200.00
00957              -6.00     3200.00
00958              -2.00     3200.00
00959              -2.00     3000.00
00960              -6.00     3000.00
00961              -2.00     3000.00
00962              -8.00     3000.00
00963              -2.00     3000.00
00964              -2.00     2800.00
00965              -6.00     2800.00
00966              -8.00     2800.00
00967               0.00     2600.00
00968              -8.00     2800.00
00969              -6.00     2600.00
00970               0.00     2600.00
00971               2.00     2400.00
00972              -2.00     2400.00
00973              -6.00     2200.00
00974             -10.00     2200.00
00975             -10.00     2200.00
00976              -6.00     2000.00
00977               6.00     2000.00
00978               0.00     2000.00
00979              -2.00     1800.00
00980             -16.00     2000.00
00981             -20.00     1600.00
00982              -2.00     1600.00
00983              10.00     1600.00
00984              10.00     1600.00
00985              -6.00     1600.00
00986             -18.00     1600.00
00987             -14.00     1400.00
00988              -2.00     1400.00
00989               2.00     1200.00
00990               2.00     1200.00
00991              -6.00     1200.00
00992             -18.00     1200.00
00993             -16.00     1200.00
00994               6.00     1000.00
00995              14.00     1000.00
00996               4.00      800.00
00997             -18.00      600.00
00998             -18.00      800.00
00999              -6.00      400.00
01000               6.00      600.00
01001               0.00      400.00
01002              -6.00      400.00
01003             -10.00      400.00
01004              -6.00      400.00
01005               0.00      200.00
01006              -2.00      400.00
01007              -2.00      200.00
01008              -2.00      200.00
01009               0.00        0.00
01010               2.00        0.00
01011              -2.00        0.00
01012              -8.00        0.00
01013               0.00     -400.00
01014               8.00        0.00
01015               8.00     -400.00
01016              48.00     -400.00
01017             152.00     -600.00
01018               2.00     -800.00
01019            -254.00     -800.00
01020            -254.00     -600.00
01021             246.00     -600.00
01022             246.00     -800.00
01023            -254.00    -1000.00
01024            -254.00     -800.00
01025             246.00    -1200.00
01026             246.00    -1000.00
01027            -254.00    -1000.00
01028            -254.00    -1200.00
01029             162.00    -1200.00
01030             246.00    -1000.00
01031              48.00    -1400.00
01032             -88.00    -1600.00
01033            -248.00    -1600.00
01034             -22.00    -1400.00
01035             246.00    -1800.00
01036              38.00    -1800.00
01037            -254.00    -1800.00
01038             -66.00    -2000.00
01039             194.00    -1800.00
01040              78.00    -2000.00
01041             -42.00    -2200.00
01042            -152.00    -2000.00
01043             -26.00    -2000.00
01044             192.00    -2400.00
01045               6.00    -2400.00
01046            -170.00    -2200.00
01047               2.00    -2400.00
01048             112.00    -2400.00
01049              -8.00    -2400.00
01050             -32.00    -2400.00
01051             -40.00    -2600.00
01052               2.00    -2600.00
01053              50.00    -2800.00
01054               6.00    -2800.00
01055             -54.00    -2800.00
01056              -8.00    -2800.00
01057              30.00    -3000.00
01058               8.00    -3000.00
01059             -14.00    -3000.00
01060             -26.00    -3000.00
01061               6.00    -3200.00
01062              18.00    -3000.00
01063              -6.00    -3200.00
01064             -26.00    -3200.00
01065               8.00    -3200.00
01066              14.00    -3200.00
01067             -18.00    -3200.00
01068             -14.00    -3200.00
01069              10.00    -3200.00
01070               8.00    -3200.00
01071               2.00    -3400.00
01072              -2.00    -3600.00
01073              -8.00    -3400.00
01074              -6.00    -3400.00
01075               0.00    -3600.00
01076               4.00    -3600.00
01077               2.00    -3600.00
01078               2.00    -3600.00
01079              -6.00    -3600.00
01080             -10.00    -3800.00
01081              -6.00    -3600.00
01082              10.00    -3600.00
01083              16.00    -3800.00
01084              -8.00    -3600.00
01085             -22.00    -3800.00
01086               2.00    -3800.00
01087              22.00    -3600.00
01088               0.00    -3800.00
01089             -20.00    -3800.00
01090             -12.00    -3800.00
01091              14.00    -3800.00
01092              16.00    -3800.00
01093              -6.00    -4000.00
01094             -22.00    -3800.00
01095             -10.00    -4000.00
01096               8.00    -4000.00
01097              18.00    -4000.00
01098               8.00    -4000.00
01099             -14.00    -3800.00
01100             -12.00    -3800.00
01101               2.00    -4000.00
01102               2.00    -4000.00
01103               0.00    -4000.00
01104               0.00    -4000.00
01105               6.00    -4200.00
01106               6.00    -4000.00
01107              -8.00    -3800.00
01108             -16.00    -3800.00
01109              -2.00    -4000.00
01110              16.00    -4000.00
01111              14.00    -3800.00
01112             -10.00    -4000.00
01113             -26.00    -3800.00
01114             -10.00    -3800.00
01115              18.00    -4000.00
01116              18.00    -3800.00
01117               0.00    -3800.00
01118             -14.00    -3800.00
01119             -16.00    -3800.00
01120              -8.00    -3800.00
01121               6.00    -3800.00
01122               8.00    -3600.00
01123               0.00    -3600.00
01124              -6.00    -3600.00
01125             -10.00    -3600.00
01126              -2.00    -3600.00
01127              -2.00    -3600.00
01128               0.00    -3600.00
01129               0.00    -3600.00
01130               0.00    -3800.00
01131              -2.00    -3600.00
01132              -2.00    -3600.00
01133              -6.00    -3600.00
01134              -8.00    -3400.00
01135               0.00    -3200.00
01136               8.00    -3600.00
01137               0.00    -3200.00
01138              -6.00    -3200.00
01139             -10.00    -3400.00
01140              -6.00    -3200.00
01141               4.00    -3000.00
01142               4.00    -3000.00
01143               0.00    -3000.00
01144              -2.00    -3000.00
01145              -4.00    -3000.00
01146              -2.00    -2800.00
01147               0.00    -3000.00
01148               0.00    -3000.00
01149              -2.00    -2800.00
01150               0.00    -3000.00
01151               2.00    -2800.00
01152              -2.00    -2800.00
01153              -6.00    -2800.00
01154              -8.00    -2600.00
01155               0.00    -2400.00
01156               2.00    -2600.00
01157               2.00    -2400.00
01158              -2.00    -2400.00
01159              -2.00    -2400.00
01160              -8.00    -2200.00
01161              -2.00    -2000.00
01162               0.00    -2000.00
01163               2.00    -2000.00
01164               2.00    -2200.00
01165              -6.00    -2000.00
01166              -6.00    -2000.00
01167              -6.00    -1800.00
01168               0.00    -1600.00
01169               4.00    -1800.00
01170               2.00    -1600.00
01171              -4.00    -1600.00
01172              -6.00    -1600.00
01173              -6.00    -1400.00
01174              -4.00    -1400.00
01175               0.00    -1400.00
01176               0.00    -1400.00
01177              -2.00    -1200.00
01178              -6.00    -1200.00
01179              -4.00    -1000.00
01180               0.00    -1000.00
01181              -2.00    -1000.00
01182              -2.00     -800.00
01183              -2.00     -800.00
01184              -4.00     -800.00
01185              -6.00     -800.00
01186              -2.00     -800.00
01187              -2.00     -600.00
01188              -2.00     -400.00
01189              -6.00     -400.00
01190              -2.00     -400.00
01191              -2.00     -400.00
01192               0.00     -400.00
01193              -4.00        0.00
01194              -2.00        0.00
01195              -2.00        0.00
01196              -2.00        0.00
01197              -6.00      200.00
01198               0.00      200.00
01199               0.00      200.00
01200               0.00      200.00
01201               0.00      400.00
01202               8.00      400.00
01203               0.00      400.00
01204              -6.00      400.00
01205             -10.00      600.00
01206               0.00      600.00
01207              46.00      800.00
01208             184.00     1000.00
01209              40.00     1200.00
01210            -254.00      800.00
01211            -254.00      800.00
01212             246.00     1200.00
01213             246.00     1400.00
01214            -254.00     1000.00
01215            -254.00     1000.00
01216             246.00     1400.00
01217             246.00     1600.00
01218            -254.00     1200.00
01219            -254.00     1600.00
01220             246.00     1800.00
01221             176.00     1400.00
01222            -182.00     1600.00
01223              26.00     2000.00
01224             -90.00     1800.00
01225             -80.00     1800.00
01226             242.00     2000.00
01227              36.00     2000.00
01228            -250.00     2000.00
01229              48.00     2200.00
01230              82.00     2400.00
01231             -34.00     2400.00
01232              90.00     2600.00
01233            -114.00     2400.00
01234            -120.00     2400.00
01235             240.00     2600.00
01236             -10.00     2600.00
01237            -228.00     2600.00
01238             122.00     2800.00
01239              72.00     2600.00
01240            -104.00     2800.00
01241              54.00     3000.00
01242             -32.00     2800.00
01243             -56.00     2800.00
01244              94.00     3200.00
01245             -36.00     3000.00
01246             -38.00     3000.00
01247              38.00     3200.00
01248             -50.00     3200.00
01249              22.00     3200.00
01250              46.00     3400.00
01251             -80.00     3200.00
01252               4.00     3400.00
01253              38.00     3400.00
01254             -40.00     3400.00
01255               6.00     3400.00
01256              14.00     3600.00
01257             -24.00     3400.00
01258              -8.00     3600.00
01259             -14.00     3600.00
01260               8.00     3600.00
01261              16.00     3600.00
01262             -26.00     3600.00
01263             -18.00     3800.00
01264              10.00     3800.00
01265             -10.00     4000.00
01266              -2.00     3800.00
01267              12.00     4000.00
01268             -16.00     4000.00
01269             -16.00     4000.00
01270              14.00     4000.00
01271               0.00     4000.00
01272             -16.00     4000.00
01273              -8.00     4200.00
01274              -2.00     4000.00
01275               6.00     4000.00
01276              -2.00     4200.00
01277             -14.00     4200.00
01278               0.00     4200.00
01279              -4.00     4200.00
01280             -12.00     4200.00
01281               8.00     4200.00
01282               0.00     4200.00
01283             -14.00     4200.00
01284              -2.00     4200.00
01285              -2.00     4200.00
01286             -10.00     4200.00
01287             -10.00     4400.00
01288              -4.00     4200.00
01289               2.00     4200.00
01290               0.00     4400.00
01291              -8.00     4400.00
01292              -8.00     4200.00
01293              -6.00     4400.00
01294              -6.00     4200.00
01295               0.00     4200.00
01296               0.00     4400.00
01297             -10.00     4200.00
01298              -8.00     4200.00
01299               0.00     4200.00
01300              -2.00     4400.00
01301              -6.00     4200.00
01302              -6.00     4400.00
01303             -10.00     4200.00
01304             -10.00     4200.00
01305              -6.00     4200.00
01306               2.00     4200.00
01307               2.00     4000.00
01308             -10.00     4200.00
01309             -10.00     4200.00
01310             -10.00     4200.00
01311             -10.00     4200.00
01312              -4.00     4000.00
01313               0.00     4000.00
01314               0.00     4000.00
01315              -6.00     4000.00
01316             -10.00     4000.00
01317             -10.00     4000.00
01318             -10.00     4000.00
01319              -2.00     4000.00
01320               0.00     4000.00
01321              -6.00     3800.00
01322             -10.00     4000.00
01323              -8.00     3800.00
01324              -2.00     3600.00
01325              -6.00     3800.00
01326              -8.00     3600.00
01327              -4.00     3600.00
01328              -8.00     3600.00
01329             -10.00     3600.00
01330              -6.00     3600.00
01331              -2.00     3600.00
01332              -2.00     3600.00
01333              -4.00     3400.00
01334              -6.00     3400.00
01335              -6.00     3400.00
01336              -6.00     3400.00
01337              -8.00     3400.00
01338              -6.00     3200.00
01339              -6.00     3200.00
01340              -6.00     3000.00
01341              -2.00     3200.00
01342              -6.00     3200.00
01343              -6.00     2800.00
01344              -2.00     3000.00
01345              -2.00     2800.00
01346               0.00     2800.00
01347              -8.00     2800.00
01348              -8.00     2800.00
01349              -6.00     2800.00
01350              -6.00     2600.00
01351              -6.00     2800.00
01352               0.00     2600.00
01353              -2.00     2600.00
01354              -2.00     2600.00
01355              -4.00     2400.00
01356              -6.00     2400.00
01357             -10.00     2200.00
01358              -6.00     2400.00
01359              -2.00     2200.00
01360               0.00     2000.00
01361              -2.00     2000.00
01362              -6.00     2000.00
01363              -8.00     2000.00
01364              -6.00     1800.00
01365              -2.00     1800.00
01366               0.00     1800.00
01367              -2.00     1600.00
01368              -6.00     1600.00
01369             -10.00     1600.00
01370              -6.00     1600.00
01371              -2.00     1400.00
01372              -2.00     1200.00
01373              -2.00     1400.00
01374              -4.00     1200.00
01375              -4.00     1200.00
01376              -6.00     1000.00
01377              -2.00     1000.00
01378              -2.00     1000.00
01379              -8.00      800.00
01380              -8.00      800.00
01381              -2.00      800.00
01382               0.00      800.00
01383              -2.00      800.00
01384              -8.00      400.00
01385              -6.00      400.00
01386              -2.00      400.00
01387              -4.00      200.00
01388              -6.00      400.00
01389              -2.00      200.00
01390               0.00      200.00
01391               0.00        0.00
01392               0.00        0.00
01393               6.00        0.00
01394               2.00        0.00
01395              -6.00     -200.00
01396              -8.00     -400.00
01397               0.00     -400.00
01398              14.00     -200.00
01399              50.00     -400.00
01400             158.00     -400.00
01401              18.00     -800.00
01402            -254.00     -800.00
01403            -254.00     -600.00
01404             246.00     -600.00
01405             246.00     -600.00
01406            -254.00    -1000.00
01407            -254.00     -800.00
01408             246.00    -1200.00
01409             246.00    -1000.00
01410            -254.00    -1200.00
01411            -254.00    -1000.00
01412             144.00    -1400.00
01413             246.00    -1200.00
01414              54.00    -1400.00
01415             -82.00    -1600.00
01416            -246.00    -1400.00
01417             -38.00    -1400.00
01418             246.00    -1600.00
01419              72.00    -1600.00
01420            -254.00    -1600.00
01421             -90.00    -2000.00
01422             196.00    -2000.00
01423              88.00    -2000.00
01424             -32.00    -2200.00
01425            -150.00    -2200.00
01426             -38.00    -2000.00
01427             190.00    -2200.00
01428              24.00    -2400.00
01429            -170.00    -2200.00
01430              -8.00    -2200.00
01431             110.00    -2600.00
01432              -6.00    -2400.00
01433             -30.00    -2400.00
01434             -34.00    -2600.00
01435               0.00    -2800.00
01436              46.00    -2600.00
01437               6.00    -2800.00
01438             -50.00    -2800.00
01439              -6.00    -2800.00
01440              26.00    -2800.00
01441               6.00    -2800.00
01442             -16.00    -3000.00
01443             -18.00    -3000.00
01444              10.00    -3000.00
01445              18.00    -3200.00
01446             -10.00    -3200.00
01447             -30.00    -3200.00
01448              14.00    -3200.00
01449              18.00    -3200.00
01450             -20.00    -3200.00
01451             -16.00    -3200.00
01452              14.00    -3400.00
01453              10.00    -3200.00
01454              -2.00    -3400.00
01455             -14.00    -3400.00
01456             -10.00    -3600.00
01457               2.00    -3600.00
01458               8.00    -3600.00
01459               2.00    -3600.00
01460             -10.00    -3600.00
01461             -10.00    -3800.00
01462               6.00    -3600.00
01463               8.00    -3800.00
01464              -8.00    -3800.00
01465             -10.00    -3600.00
01466               4.00    -3800.00
01467               6.00    -3600.00
01468               0.00    -3800.00
01469              -2.00    -3800.00
01470              -8.00    -3800.00
01471              -2.00    -3800.00
01472               6.00    -3800.00
01473               8.00    -4000.00
01474               6.00    -3600.00
01475              -2.00    -4000.00
01476             -10.00    -4000.00
01477              -6.00    -4000.00
01478               0.00    -4000.00
01479               4.00    -3800.00
01480              16.00    -3800.00
01481               8.00    -4000.00
01482             -14.00    -3800.00
01483             -18.00    -4000.00
01484              -6.00    -4000.00
01485              10.00    -3800.00
01486              16.00    -4000.00
01487               2.00    -4000.00
01488              -8.00    -4000.00
01489             -10.00    -3800.00
01490              -6.00    -3800.00
01491               8.00    -3800.00
01492              14.00    -3800.00
01493               2.00    -3800.00
01494              -6.00    -3800.00
01495             -10.00    -3800.00
01496              -8.00    -4000.00
01497               6.00    -3800.00
01498               6.00    -3800.00
01499               0.00    -3800.00
01500              -2.00    -3800.00
01501              -4.00    -3800.00
01502              -2.00    -3800.00
01503               0.00    -3800.00
01504              -2.00    -3800.00
01505               0.00    -3800.00
01506              -2.00    -3800.00
01507               0.00    -3800.00
01508               0.00    -3600.00
01509               0.00    -3600.00
01510              -6.00    -3600.00
01511              -4.00    -3600.00
01512              -2.00    -3400.00
01513               0.00    -3600.00
01514               2.00    -3600.00
01515               0.00    -3400.00
01516              -8.00    -3600.00
01517              -6.00    -3400.00
01518              -4.00    -3200.00
01519               0.00    -3400.00
01520               0.00    -3200.00
01521               0.00    -3200.00
01522              -2.00    -3200.00
01523              -4.00    -3200.00
01524              -6.00    -3200.00
01525              -2.00    -3200.00
01526               0.00    -3000.00
01527               0.00    -3000.00
01528              -2.00    -3000.00
01529              -2.00    -2800.00
01530               0.00    -3000.00
01531               0.00    -2800.00
01532               0.00    -2800.00
01533               0.00    -3000.00
01534               0.00    -2600.00
01535              -8.00    -2800.00
01536             -10.00    -2400.00
01537               0.00    -2600.00
01538               6.00    -2600.00
01539               0.00    -2400.00
01540              -2.00    -2200.00
01541              -6.00    -2400.00
01542              -2.00    -2400.00
01543               2.00    -2200.00
01544               0.00    -2000.00
01545               0.00    -2000.00
01546              -2.00    -2000.00
01547              -6.00    -2000.00
01548              -2.00    -2000.00
01549               0.00    -2000.00
01550               0.00    -1800.00
01551               0.00    -1800.00
01552               2.00    -1800.00
01553               0.00    -1600.00
01554              -2.00    -1600.00
01555              -2.00    -1400.00
01556              -6.00    -1400.00
01557              -2.00    -1400.00
01558               0.00    -1400.00
01559               0.00    -1000.00
01560               0.00    -1200.00
01561              -2.00    -1000.00
01562              -2.00    -1000.00
01563              -6.00    -1000.00
01564              -2.00     -800.00
01565              -2.00     -800.00
01566               2.00     -800.00
01567              -2.00     -800.00
01568              -6.00     -600.00
01569              -6.00     -600.00
01570              -6.00     -600.00
01571              -6.00     -400.00
01572              -2.00     -400.00
01573               2.00     -400.00
01574               2.00     -400.00
01575              -2.00     -400.00
01576              -8.00     -200.00
01577              -8.00     -200.00
01578              -2.00        0.00
01579              -2.00        0.00
01580              -2.00      200.00
01581               0.00      200.00
01582               0.00      200.00
01583               0.00      200.00
01584               2.00      400.00
01585               8.00      400.00
01586               0.00      400.00
01587              -8.00      600.00
01588              -6.00      600.00
01589               0.00      400.00
01590              42.00      800.00
01591             178.00      800.00
01592              58.00     1000.00
01593            -254.00      800.00
01594            -254.00      800.00
01595             246.00     1200.00
01596             246.00     1400.00
01597            -254.00     1000.00
01598            -254.00     1200.00
01599             246.00     1600.00
01600             246.00     1600.00
01601            -254.00     1200.00
01602            -254.00     1600.00
01603             246.00     1800.00
01604             206.00     1600.00
01605            -182.00     1600.00
01606              18.00     2000.00
01607             -76.00     1800.00
01608             -94.00     1800.00
01609             230.00     2000.00
01610              64.00     2000.00
01611            -254.00     2000.00
01612              34.00     2400.00
01613              86.00     2200.00
01614             -42.00     2400.00
01615              88.00     2400.00
01616             -96.00     2400.00
01617            -134.00     2400.00
01618             232.00     2600.00
01619              14.00     2600.00
01620            -238.00     2600.00
01621             108.00     2800.00
01622              88.00     2800.00
01623            -104.00     2600.00
01624              50.00     3000.00
01625             -24.00     2800.00
01626             -58.00     3000.00
01627              90.00     3200.00
01628             -26.00     3000.00
01629             -44.00     3200.00
01630              40.00     3200.00
01631             -48.00     3200.00
01632              10.00     3200.00
01633              50.00     3400.00
01634             -80.00     3200.00
01635              -2.00     3400.00
01636              42.00     3400.00
01637             -38.00     3400.00
01638               0.00     3600.00
01639              14.00     3400.00
01640             -24.00     3600.00
01641             -10.00     3600.00
01642             -10.00     3600.00
01643               4.00     3600.00
01644              16.00     3800.00
01645             -26.00     3600.00
01646             -14.00     4000.00
01647               8.00     4000.00
01648             -16.00     3800.00
01649             -10.00     3800.00
01650              14.00     4000.00
01651             -10.00     4000.00
01652             -18.00     4000.00
01653               2.00     4000.00
01654              -6.00     4000.00
01655             -16.00     4000.00
01656              -2.00     4200.00
01657               0.00     4000.00
01658               0.00     4200.00
01659             -10.00     4200.00
01660             -14.00     4000.00
01661               2.00     4200.00
01662              -2.00     4000.00
01663             -14.00     4200.00
01664               6.00     4400.00
01665               0.00     4200.00
01666             -16.00     4400.00
01667              -8.00     4400.00
01668              -2.00     4200.00
01669              -6.00     4400.00
01670              -2.00     4400.00
01671               0.00     4400.00
01672              -2.00     4200.00
01673              -8.00     4200.00
01674             -12.00     4400.00
01675              -2.00     4200.00
01676               0.00     4400.00
01677              -6.00     4200.00
01678              -2.00     4200.00
01679              -2.00     4400.00
01680             -10.00     4200.00
01681              -8.00     4200.00
01682              -2.00     4400.00
01683              -2.00     4400.00
01684              -4.00     4400.00
01685              -2.00     4400.00
01686              -2.00     4200.00
01687             -10.00     4200.00
01688             -10.00     4200.00
01689               0.00     4000.00
01690               2.00     4200.00
01691              -2.00     4200.00
01692              -8.00     4200.00
01693              -6.00     4200.00
01694             -10.00     4200.00
01695              -8.00     4000.00
01696               0.00     4000.00
01697               0.00     4000.00
01698              -8.00     4000.00
01699              -8.00     4000.00
01700              -6.00     4000.00
01701             -10.00     4000.00
01702              -6.00     4000.00
01703              -2.00     3800.00
01704               0.00     4000.00
01705              -8.00     4000.00
01706              -8.00     4000.00
01707              -8.00     4000.00
01708              -8.00     3600.00
01709             -10.00     3800.00
01710              -6.00     3600.00
01711              -2.00     3600.00
01712              -4.00     3600.00
01713              -8.00     3600.00
01714             -10.00     3600.00
01715             -10.00     3400.00
01716              -6.00     3600.00
01717               0.00     3400.00
01718              -2.00     3400.00
01719              -8.00     3400.00
01720             -10.00     3400.00
01721              -6.00     3200.00
01722              -2.00     3200.00
01723              -6.00     3200.00
01724              -2.00     3200.00
01725              -2.00     3200.00
01726             -10.00     3200.00
01727              -6.00     3200.00
01728              -2.00     3000.00
01729              -4.00     2800.00
01730              -8.00     2800.00
01731              -6.00     2800.00
01732              -2.00     2800.00
01733              -4.00     2800.00
01734              -6.00     2600.00
01735              -2.00     2600.00
01736               0.00     2600.00
01737              -2.00     2600.00
01738              -6.00     2400.00
01739              -2.00     2400.00
01740              -8.00     2200.00
01741              -6.00     2400.00
01742              -2.00     2000.00
01743               0.00     2000.00
01744              -2.00     2000.00
01745              -2.00     2000.00
01746              -2.00     1800.00
01747              -2.00     1800.00
01748              -6.00     1800.00
01749              -6.00     1800.00
01750               2.00     1800.00
01751              -2.00     1600.00
01752              -6.00     1600.00
01753              -6.00     1600.00
01754              -8.00     1400.00
01755              -2.00     1400.00
01756              -2.00     1200.00
01757               0.00     1200.00
01758               0.00     1200.00
01759              -4.00     1000.00
01760              -2.00     1000.00
01761              -6.00      800.00
01762              -8.00      800.00
01763              -6.00      800.00
01764              -2.00      800.00
01765               2.00      600.00
01766              -6.00      800.00
01767             -10.00      400.00
01768              -6.00      400.00
01769              -2.00      400.00
01770              -2.00      400.00
01771              -6.00      400.00
01772              -6.00      200.00
01773               0.00      200.00
01774               2.00        0.00
01775              -2.00      200.00
01776               2.00        0.00
01777               0.00     -200.00
01778              -2.00     -200.00
01779              -6.00     -200.00
01780              -2.00     -400.00
01781               6.00     -400.00
01782              46.00     -400.00
01783             150.00     -400.00
01784              38.00     -800.00
01785            -254.00     -800.00
01786            -254.00     -600.00
01787             246.00     -600.00
01788             246.00     -800.00
01789            -254.00    -1000.00
01790            -254.00     -800.00
01791             246.00    -1000.00
01792             246.00    -1000.00
01793            -226.00    -1200.00
01794            -254.00    -1200.00
01795             112.00    -1200.00
01796             246.00    -1400.00
01797              58.00    -1400.00
01798             -74.00    -1600.00
01799            -238.00    -1400.00
01800             -60.00    -1400.00
01801             246.00    -1600.00
01802             100.00    -1800.00
01803            -254.00    -1800.00
01804            -106.00    -2000.00
01805             192.00    -2000.00
01806              94.00    -2000.00
01807             -26.00    -2000.00
01808            -148.00    -2000.00
01809             -46.00    -2000.00
01810             182.00    -2200.00
01811              38.00    -2400.00
01812            -174.00    -2200.00
01813             -16.00    -2200.00
01814             118.00    -2400.00
01815               6.00    -2400.00
01816             -30.00    -2400.00
01817             -40.00    -2600.00
01818              -8.00    -2600.00
01819              48.00    -2600.00
01820              18.00    -2600.00
01821             -48.00    -2800.00
01822             -12.00    -2800.00
01823              26.00    -2800.00
01824              10.00    -3000.00
01825             -10.00    -3000.00
01826             -22.00    -3000.00
01827               2.00    -3000.00
01828              22.00    -3200.00
01829              -6.00    -3000.00
01830             -32.00    -3200.00
01831              12.00    -3200.00
01832              22.00    -3200.00
01833             -18.00    -3200.00
01834             -18.00    -3400.00
01835               8.00    -3400.00
01836               8.00    -3400.00
01837              10.00    -3200.00
01838              -8.00    -3400.00
01839             -22.00    -3600.00
01840              -2.00    -3400.00
01841               6.00    -3600.00
01842              10.00    -3600.00
01843               0.00    -3600.00
01844             -18.00    -3600.00
01845              -2.00    -3600.00
01846              10.00    -3600.00
01847              -8.00    -3600.00
01848              -8.00    -3800.00
01849               6.00    -3600.00
01850               6.00    -3800.00
01851               0.00    -3600.00
01852              -6.00    -3800.00
01853              -6.00    -4000.00
01854               2.00    -3800.00
01855               0.00    -3800.00
01856              -2.00    -4000.00
01857               6.00    -3800.00
01858              -2.00    -3800.00
01859              -8.00    -4000.00
01860               2.00    -4000.00
01861               0.00    -3800.00
01862              -2.00    -4000.00
01863               0.00    -4000.00
01864              -2.00    -4000.00
01865              -6.00    -3800.00
01866               0.00    -3800.00
01867               0.00    -3800.00
01868               2.00    -4000.00
01869               2.00    -3800.00
01870              -6.00    -4000.00
01871               0.00    -3800.00
01872               0.00    -4000.00
01873              -2.00    -4000.00
01874               0.00    -3800.00
01875               0.00    -4000.00
01876              -2.00    -3800.00
01877               2.00    -3800.00
01878               0.00    -4000.00
01879              -6.00    -4000.00
01880               0.00    -3800.00
01881               0.00    -4000.00
01882               2.00    -3800.00
01883               0.00    -3800.00
01884              -2.00    -3800.00
01885               0.00    -3600.00
01886               0.00    -3600.00
01887              -6.00    -3600.00
01888              -2.00    -3800.00
01889               2.00    -3600.00
01890               6.00    -3600.00
01891               2.00    -3800.00
01892              -2.00    -3800.00
01893             -10.00    -3600.00
01894              -6.00    -3600.00
01895               0.00    -3600.00
01896               8.00    -3600.00
01897               0.00    -3600.00
01898              -2.00    -3600.00
01899              -6.00    -3600.00
01900              -6.00    -3400.00
01901              -2.00    -3600.00
01902               2.00    -3200.00
01903               4.00    -3200.00
01904               0.00    -3200.00
01905              -6.00    -3200.00
01906              -8.00    -3200.00
01907              -2.00    -3000.00
01908               0.00    -3200.00
01909               2.00    -3200.00
01910               0.00    -3000.00
01911              -2.00    -3000.00
01912              -6.00    -3000.00
01913              -2.00    -2800.00
01914               0.00    -3000.00
01915              -2.00    -2800.00
01916               0.00    -2800.00
01917               0.00    -2800.00
01918              -2.00    -2800.00
01919              -2.00    -2800.00
01920              -2.00    -2600.00
01921              -2.00    -2400.00
01922               0.00    -2400.00
01923               0.00    -2400.00
01924               0.00    -2200.00
01925              -2.00    -2200.00
01926              -2.00    -2200.00
01927               0.00    -2400.00
01928               0.00    -2200.00
01929               0.00    -2000.00
01930               0.00    -2000.00
01931               0.00    -2000.00
01932              -2.00    -2000.00
01933              -2.00    -1800.00
01934               0.00    -1600.00
01935               0.00    -1600.00
01936               0.00    -1600.00
01937              -2.00    -1600.00
01938               0.00    -1400.00
01939               0.00    -1400.00
01940              -4.00    -1400.00
01941              -2.00    -1200.00
01942               0.00    -1400.00
01943               0.00    -1000.00
01944               0.00    -1000.00
01945              -2.00    -1200.00
01946              -6.00    -1000.00
01947              -2.00     -800.00
01948              -2.00     -800.00
01949               0.00     -800.00
01950               0.00     -800.00
01951               0.00     -800.00
01952              -2.00     -600.00
01953              -2.00     -600.00
01954              -2.00     -400.00
01955              -2.00     -400.00
01956               0.00     -400.00
01957              -2.00     -400.00
01958              -4.00     -200.00
01959              -6.00        0.00
01960              -2.00        0.00
01961              -2.00        0.00
01962               0.00        0.00
01963              -6.00      200.00
01964              -2.00      200.00
01965               2.00      200.00
01966               0.00      400.00
01967               2.00      200.00
01968               8.00      400.00
01969               0.00      400.00
01970              -8.00      400.00
01971             -10.00      600.00
01972               2.00      800.00
01973              34.00      800.00
01974             174.00     1000.00
01975              78.00     1000.00
01976            -254.00      800.00
01977            -254.00      800.00
01978             246.00     1200.00
01979             246.00     1200.00
01980            -254.00     1000.00
01981            -254.00     1000.00
01982             246.00     1600.00
01983             246.00     1600.00
01984            -254.00     1000.00
01985            -254.00     1600.00
01986             246.00     1800.00
01987             232.00     1600.00
01988            -178.00     1600.00
01989               6.00     2000.00
01990             -58.00     1800.00
01991            -112.00     1600.00
01992             216.00     2000.00
01993              88.00     2000.00
01994            -254.00     2000.00
01995              20.00     2200.00
01996              94.00     2400.00
01997             -42.00     2200.00
01998              90.00     2400.00
01999             -78.00     2400.00
02000            -158.00     2400.00
02001             214.00     2400.00
02002              42.00     2400.00
02003            -234.00     2600.00
02004              96.00     2800.00
02005              94.00     2600.00
02006            -110.00     2800.00
02007              50.00     3200.00
02008              -8.00     2800.00
02009             -72.00     2800.00
02010              82.00     3000.00
02011             -20.00     3000.00
02012             -42.00     3000.00
02013              54.00     3200.00
02014             -46.00     3200.00
02015              -6.00     3400.00
02016              50.00     3200.00
02017             -66.00     3200.00
02018               2.00     3400.00
02019              48.00     3400.00
02020             -44.00     3400.00
02021              -8.00     3600.00
02022              22.00     3600.00
02023             -18.00     3600.00
02024             -10.00     3600.00
02025             -14.00     3600.00
02026               6.00     3600.00
02027              22.00     3600.00
02028             -22.00     3800.00
02029             -24.00     3600.00
02030               6.00     3800.00
02031             -12.00     3800.00
02032              -8.00     3800.00
02033              14.00     3800.00
02034             -10.00     4000.00
02035             -18.00     4000.00
02036               8.00     4000.00
02037              -2.00     4000.00
02038             -18.00     4000.00
02039             -10.00     4000.00
02040               2.00     4000.00
02041               8.00     4000.00
02042              -2.00     4200.00
02043             -20.00     4200.00
02044              -8.00     4200.00
02045              -4.00     4200.00
02046             -10.00     4200.00
02047               8.00     4200.00
02048               2.00     4200.00
02049             -18.00     4200.00
02050              -8.00     4200.00
02051              -2.00     4200.00
02052              -6.00     4200.00
02053              -2.00     4200.00
02054               0.00     4400.00
02055              -2.00     4200.00
02056              -6.00     4200.00
02057             -14.00     4400.00
02058              -6.00     4400.00
02059              -2.00     4200.00
02060             -10.00     4200.00
02061               0.00     4200.00
02062               2.00     4400.00
02063              -6.00     4400.00
02064             -10.00     4200.00
02065              -6.00     4200.00
02066              -6.00     4200.00
02067               0.00     4200.00
02068               2.00     4200.00
02069              -2.00     4200.00
02070             -10.00     4200.00
02071             -14.00     4200.00
02072              -6.00     4200.00
02073               6.00     4000.00
02074               0.00     4200.00
02075              -2.00     4200.00
02076             -10.00     4000.00
02077             -10.00     4200.00
02078              -6.00     4000.00
02079               2.00     4200.00
02080              -2.00     4000.00
02081              -8.00     4200.00
02082              -6.00     4000.00
02083              -2.00     4000.00
02084              -8.00     4000.00
02085              -8.00     4000.00
02086              -2.00     4000.00
02087               0.00     3800.00
02088              -2.00     3800.00
02089              -8.00     4000.00
02090             -10.00     3800.00
02091             -10.00     3600.00
02092              -2.00     3600.00
02093               0.00     3600.00
02094               0.00     3600.00
02095              -8.00     3400.00
02096             -14.00     3600.00
02097              -8.00     3400.00
02098              -6.00     3400.00
02099               0.00     3400.00
02100               0.00     3400.00
02101              -6.00     3200.00
02102              -8.00     3400.00
02103             -10.00     3400.00
02104              -6.00     3400.00
02105              -6.00     3200.00
02106              -6.00     3200.00
02107              -2.00     3200.00
02108              -6.00     3000.00
02109              -8.00     3000.00
02110             -10.00     3000.00
02111              -2.00     2800.00
02112              -6.00     2800.00
02113              -6.00     2800.00
02114              -6.00     2800.00
02115              -2.00     2800.00
02116              -4.00     2800.00
02117              -8.00     2600.00
02118              -4.00     2600.00
02119              -2.00     2400.00
02120              -2.00     2400.00
02121              -2.00     2600.00
02122              -4.00     2400.00
02123              -8.00     2400.00
02124              -6.00     2000.00
02125              -4.00     2200.00
02126               0.00     2000.00
02127               0.00     2000.00
02128              -2.00     2000.00
02129              -2.00     1800.00
02130              -6.00     2000.00
02131              -6.00     1800.00
02132              -4.00     1600.00
02133               0.00     1800.00
02134              -2.00     1600.00
02135              -6.00     1600.00
02136              -6.00     1400.00
02137              -6.00     1400.00
02138              -6.00     1400.00
02139              -2.00     1200.00
02140               0.00     1200.00
02141              -2.00     1000.00
02142              -6.00     1000.00
02143              -6.00     1000.00
02144               0.00     1000.00
02145               0.00     1000.00
02146              -2.00      800.00
02147               0.00      800.00
02148              -2.00      800.00
02149              -6.00      800.00
02150              -6.00      600.00
02151              -4.00      400.00
02152               0.00      400.00
02153               2.00      400.00
02154              -8.00      200.00
02155              -8.00      200.00
02156               2.00      200.00
02157               2.00        0.00
02158               0.00        0.00
02159               8.00        0.00
02160               0.00        0.00
02161             -14.00        0.00
02162              -8.00     -400.00
02163               0.00     -200.00
02164              14.00     -400.00
02165              48.00     -400.00
02166             146.00     -600.00
02167              46.00     -800.00
02168            -254.00     -800.00
02169            -254.00     -400.00
02170             246.00     -600.00
02171             246.00     -800.00
02172            -254.00    -1200.00
02173            -254.00     -800.00
02174             210.00    -1200.00
02175             246.00    -1000.00
02176            -178.00    -1200.00
02177            -254.00    -1000.00
02178              78.00    -1400.00
02179             246.00    -1400.00
02180              64.00    -1400.00
02181             -72.00    -1600.00
02182            -238.00    -1400.00
02183             -80.00    -1600.00
02184             246.00    -1600.00
02185             132.00    -1800.00
02186            -254.00    -1600.00
02187            -130.00    -2000.00
02188             186.00    -2000.00
02189             102.00    -2000.00
02190             -18.00    -2200.00
02191            -150.00    -2000.00
02192             -62.00    -2000.00
02193             178.00    -2200.00
02194              62.00    -2400.00
02195            -174.00    -2200.00
02196             -30.00    -2400.00
02197             116.00    -2400.00
02198               8.00    -2400.00
02199             -32.00    -2400.00
02200             -40.00    -2800.00
02201              -6.00    -2600.00
02202              54.00    -2400.00
02203              22.00    -2800.00
02204             -56.00    -2800.00
02205             -22.00    -2800.00
02206              30.00    -2800.00
02207              22.00    -3000.00
02208              -8.00    -2800.00
02209             -26.00    -3000.00
02210              -6.00    -3000.00
02211              22.00    -3200.00
02212               2.00    -3200.00
02213             -22.00    -3200.00
02214               8.00    -3200.00
02215              16.00    -3200.00
02216             -16.00    -3200.00
02217             -22.00    -3200.00
02218               8.00    -3400.00
02219              14.00    -3400.00
02220               6.00    -3200.00
02221              -6.00    -3600.00
02222             -14.00    -3600.00
02223              -8.00    -3600.00
02224               2.00    -3600.00
02225               6.00    -3600.00
02226               2.00    -3600.00
02227              -6.00    -3600.00
02228              -2.00    -3800.00
02229               0.00    -3600.00
02230             -10.00    -3800.00
02231              -6.00    -3600.00
02232              14.00    -3800.00
02233               6.00    -3800.00
02234              -6.00    -3800.00
02235             -10.00    -3800.00
02236              -6.00    -3800.00
02237               2.00    -3800.00
02238               0.00    -4000.00
02239               0.00    -3800.00
02240               0.00    -4000.00
02241              -2.00    -3800.00
02242              -8.00    -4000.00
02243               0.00    -4000.00
02244               0.00    -3800.00
02245               0.00    -3800.00
02246               0.00    -4000.00
02247               0.00    -4000.00
02248             -10.00    -4000.00
02249              -6.00    -4000.00
02250               2.00    -4000.00
02251               6.00    -3800.00
02252               2.00    -4000.00
02253              -2.00    -3800.00
02254              -2.00    -4000.00
02255              -2.00    -4000.00
02256               0.00    -4000.00
02257               0.00    -3800.00
02258               2.00    -4000.00
02259              -2.00    -3800.00
02260              -2.00    -3800.00
02261              -2.00    -4000.00
02262              -2.00    -3800.00
02263               0.00    -3800.00
02264               2.00    -3800.00
02265               6.00    -3800.00
02266               0.00    -3800.00
02267               0.00    -3800.00
02268              -2.00    -3800.00
02269              -2.00    -3800.00
02270               0.00    -3800.00
02271               0.00    -3600.00
02272               2.00    -3600.00
02273               0.00    -3600.00
02274               0.00    -3600.00
02275               0.00    -3600.00
02276              -2.00    -3600.00
02277               0.00    -3600.00
02278               0.00    -3600.00
02279               2.00    -3600.00
02280               0.00    -3400.00
02281               0.00    -3600.00
02282              -2.00    -3400.00
02283              -2.00    -3400.00
02284               0.00    -3600.00
02285               2.00    -3400.00
02286               2.00    -3200.00
02287               0.00    -3400.00
02288              -2.00    -3200.00
02289              -6.00    -3200.00
02290              -2.00    -3200.00
02291              -2.00    -3200.00
02292               0.00    -3000.00
02293               0.00    -3000.00
02294              -2.00    -3000.00
02295              -2.00    -3000.00
02296              -2.00    -2800.00
02297              -2.00    -2800.00
02298               0.00    -2800.00
02299              -2.00    -2800.00
02300               0.00    -2800.00
02301              -6.00    -2800.00
02302              -2.00    -2800.00
02303              -2.00    -2600.00
02304              -2.00    -2400.00
02305              -2.00    -2400.00
02306               0.00    -2400.00
02307              -2.00    -2400.00
02308              -2.00    -2400.00
02309              -6.00    -2200.00
02310              -2.00    -2200.00
02311               0.00    -2200.00
02312              -2.00    -2000.00
02313               0.00    -2000.00
02314               0.00    -2000.00
02315              -2.00    -2000.00
02316              -6.00    -2000.00
02317               0.00    -1600.00
02318               0.00    -1600.00
02319               0.00    -1600.00
02320               0.00    -1600.00
02321              -2.00    -1600.00
02322              -6.00    -1400.00
02323              -6.00    -1400.00
02324              -2.00    -1400.00
02325               0.00    -1200.00
02326               2.00    -1000.00
02327              -2.00    -1000.00
02328              -2.00    -1000.00
02329              -4.00    -1000.00
02330              -2.00    -1000.00
02331               0.00     -800.00
02332               0.00     -800.00
02333              -2.00     -600.00
02334              -2.00     -600.00
02335              -6.00     -600.00
02336              -2.00     -600.00
02337              -2.00     -400.00
02338              -2.00     -400.00
02339               0.00     -200.00
02340               0.00     -400.00
02341              -2.00     -200.00
02342              -6.00        0.00
02343              -6.00        0.00
02344              -2.00        0.00
02345              -2.00        0.00
02346              -6.00        0.00
02347              -2.00      200.00
02348               0.00      200.00
02349              -2.00      200.00
02350               0.00      400.00
02351               6.00      400.00
02352               2.00      400.00
02353              -6.00      400.00
02354              -8.00      600.00
02355              -6.00      400.00
02356              30.00      800.00
02357             166.00     1000.00
02358              96.00     1000.00
02359            -254.00      800.00
02360            -254.00      800.00
02361             246.00     1200.00
02362             246.00     1200.00
02363            -254.00     1000.00
02364            -254.00      800.00
02365             246.00     1600.00
02366             246.00     1400.00
02367            -254.00     1200.00
02368            -254.00     1600.00
02369             246.00     1800.00
02370             246.00     1600.00
02371            -176.00     1600.00
02372             -10.00     2000.00
02373             -48.00     2000.00
02374            -120.00     1800.00
02375             208.00     2000.00
02376             112.00     2000.00
02377            -254.00     2000.00
02378               0.00     2000.00
02379             102.00     2400.00
02380             -42.00     2200.00
02381              82.00     2600.00
02382             -70.00     2400.00
02383            -166.00     2600.00
02384             210.00     2600.00
02385              62.00     2600.00
02386            -246.00     2600.00
02387              78.00     2800.00
02388             112.00     2800.00
02389            -106.00     2600.00
02390              38.00     3000.00
02391              -2.00     2800.00
02392             -72.00     2800.00
02393              86.00     3200.00
02394             -16.00     3200.00
02395             -58.00     3000.00
02396              42.00     3200.00
02397             -34.00     3200.00
02398               2.00     3200.00
02399              58.00     3400.00
02400             -74.00     3400.00
02401             -18.00     3400.00
02402              48.00     3600.00
02403             -30.00     3400.00
02404              -6.00     3600.00
02405              18.00     3600.00
02406             -24.00     3400.00
02407              -6.00     3600.00
02408             -10.00     3800.00
02409               0.00     3600.00
02410              22.00     3600.00
02411             -18.00     3600.00
02412             -16.00     3800.00
02413               8.00     3800.00
02414             -16.00     3800.00
02415             -10.00     3600.00
02416              16.00     4000.00
02417              -2.00     4000.00
02418             -24.00     4000.00
02419               0.00     4000.00
02420               0.00     4000.00
02421             -14.00     4000.00
02422              -6.00     4000.00
02423              -2.00     4000.00
02424               0.00     4000.00
02425              -8.00     4200.00
02426             -16.00     4000.00
02427               0.00     4000.00
02428               0.00     4200.00
02429             -16.00     4200.00
02430              -2.00     4200.00
02431               0.00     4200.00
02432             -14.00     4400.00
02433              -8.00     4400.00
02434              -2.00     4200.00
02435              -6.00     4200.00
02436              -6.00     4200.00
02437              -2.00     4200.00
02438               0.00     4200.00
02439              -6.00     4200.00
02440             -16.00     4400.00
02441              -8.00     4200.00
02442              -6.00     4200.00
02443              -2.00     4400.00
02444               2.00     4800.00
02445               0.00     4200.00
02446             -10.00     4200.00
02447             -14.00     4200.00
02448              -2.00     4200.00
02449               2.00     4400.00
02450              -2.00     4400.00
02451              -2.00     4400.00
02452              -8.00     4200.00
02453              -4.00     4200.00
02454              -2.00     4200.00
02455              -4.00     4200.00
02456              -4.00     4200.00
02457              -2.00     4200.00
02458              -6.00     4200.00
02459              -2.00     4000.00
02460             -10.00     4200.00
02461              -8.00     4000.00
02462               2.00     4200.00
02463               2.00     4200.00
02464             -10.00     4000.00
02465             -10.00     4000.00
02466              -6.00     3800.00
02467               0.00     4000.00
02468               0.00     4000.00
02469              -6.00     4000.00
02470              -8.00     4000.00
02471               2.00     3800.00
02472              -2.00     4000.00
02473             -10.00     3800.00
02474             -10.00     3800.00
02475             -10.00     3600.00
02476               4.00     3600.00
02477              16.00     3600.00
02478             -10.00     3600.00
02479             -16.00     3600.00
02480             -16.00     3400.00
02481              -8.00     3600.00
02482               4.00     3400.00
02483               6.00     3600.00
02484               2.00     3400.00
02485              -6.00     3400.00
02486             -14.00     3200.00
02487             -22.00     3200.00
02488              -8.00     3200.00
02489              10.00     3200.00
02490              14.00     3200.00
02491               0.00     3000.00
02492             -28.00     3000.00
02493             -30.00     3200.00
02494              -2.00     2800.00
02495              16.00     2800.00
02496              14.00     2800.00
02497              -8.00     2800.00
02498             -22.00     2600.00
02499             -20.00     2600.00
02500              -8.00     2600.00
02501               8.00     2600.00
02502               6.00     2400.00
02503               0.00     2400.00
02504             -14.00     2600.00
02505             -10.00     2400.00
02506              -2.00     2200.00
02507               0.00     2400.00
02508              -2.00     2200.00
02509              -6.00     2000.00
02510             -10.00     2000.00
02511              -6.00     1800.00
02512               0.00     1800.00
02513              -2.00     1800.00
02514              -6.00     1800.00
02515              -4.00     1800.00
02516              -6.00     1600.00
02517               6.00     1600.00
02518               0.00     1600.00
02519             -10.00     1600.00
02520             -16.00     1600.00
02521             -10.00     1400.00
02522              10.00     1400.00
02523              14.00     1200.00
02524              -2.00     1200.00
02525             -18.00     1000.00
02526             -16.00     1000.00
02527               2.00     1200.00
02528              10.00      800.00
02529               2.00      800.00
02530              -6.00      800.00
02531             -10.00      600.00
02532             -10.00      800.00
02533              -4.00      600.00
02534               6.00      400.00
02535               8.00      400.00
02536               0.00      400.00
02537             -14.00      200.00
02538             -16.00      200.00
02539              -6.00      200.00
02540               6.00      200.00
02541              12.00        0.00
02542              16.00        0.00
02543               0.00        0.00
02544             -18.00        0.00
02545             -18.00        0.00
02546              -2.00     -400.00
02547              18.00     -400.00
02548              48.00     -400.00
02549             144.00     -600.00
02550              56.00     -800.00
02551            -254.00     -800.00
02552            -254.00     -400.00
02553             246.00     -600.00
02554             246.00     -800.00
02555            -240.00     -800.00
02556            -254.00     -600.00
02557             134.00     -800.00
02558             246.00    -1200.00
02559            -120.00    -1200.00
02560            -254.00    -1000.00
02561              42.00    -1200.00
02562             246.00    -1400.00
02563              74.00    -1400.00
02564             -62.00    -1400.00
02565            -232.00    -1400.00
02566            -104.00    -1600.00
02567             246.00    -1600.00
02568             158.00    -1600.00
02569            -254.00    -1600.00
02570            -144.00    -2000.00
02571             182.00    -2000.00
02572             106.00    -1800.00
02573             -14.00    -2200.00
02574            -146.00    -2000.00
02575             -74.00    -2000.00
02576             168.00    -2200.00
02577              80.00    -2400.00
02578            -170.00    -2200.00
02579             -42.00    -2200.00
02580             106.00    -2400.00
02581              12.00    -2400.00
02582             -26.00    -2400.00
02583             -34.00    -2800.00
02584              -8.00    -2600.00
02585              42.00    -2600.00
02586              18.00    -2800.00
02587             -50.00    -2600.00
02588             -14.00    -2800.00
02589              32.00    -2800.00
02590              18.00    -3000.00
02591             -14.00    -3000.00
02592             -30.00    -3000.00
02593              -2.00    -3000.00
02594              26.00    -3000.00
02595               8.00    -3000.00
02596             -26.00    -3200.00
02597               0.00    -3200.00
02598              16.00    -3200.00
02599             -10.00    -3200.00
02600             -16.00    -3400.00
02601              10.00    -3200.00
02602              10.00    -3200.00
02603               0.00    -3200.00
02604              -8.00    -3400.00
02605             -10.00    -3600.00
02606               0.00    -3600.00
02607               8.00    -3600.00
02608               8.00    -3600.00
02609              -2.00    -3600.00
02610             -10.00    -3600.00
02611              -2.00    -3600.00
02612               6.00    -3600.00
02613              -8.00    -3600.00
02614              -8.00    -3800.00
02615               6.00    -3800.00
02616               2.00    -3800.00
02617              -6.00    -3800.00
02618              -8.00    -3800.00
02619              -2.00    -3800.00
02620               0.00    -3800.00
02621               0.00    -3800.00
02622               0.00    -3800.00
02623               6.00    -4000.00
02624               0.00    -4000.00
02625             -10.00    -3800.00
02626              -6.00    -3800.00
02627               0.00    -4000.00
02628               0.00    -4000.00
02629               4.00    -4000.00
02630               2.00    -3800.00
02631              -8.00    -4000.00
02632             -10.00    -4000.00
02633               0.00    -3800.00
02634               6.00    -3800.00
02635               6.00    -3800.00
02636               0.00    -3800.00
02637              -2.00    -4000.00
02638              -2.00    -4000.00
02639              -6.00    -3800.00
02640               0.00    -3800.00
02641               4.00    -4000.00
02642               2.00    -3800.00
02643              -2.00    -4000.00
02644               0.00    -4000.00
02645              -2.00    -4000.00
02646              -2.00    -3800.00
02647               0.00    -3800.00
02648               2.00    -3600.00
02649               2.00    -3800.00
02650               0.00    -3800.00
02651              -2.00    -3800.00
02652              -2.00    -3800.00
02653               0.00    -3800.00
02654               4.00    -3800.00
02655               2.00    -3600.00
02656               2.00    -3600.00
02657               0.00    -3800.00
02658              -2.00    -3600.00
02659              -2.00    -3600.00
02660               0.00    -3600.00
02661               0.00    -3600.00
02662               0.00    -3400.00
02663              -4.00    -3400.00
02664               0.00    -3600.00
02665               2.00    -3400.00
02666               2.00    -3400.00
02667              -2.00    -3200.00
02668              -2.00    -3200.00
02669              -6.00    -3200.00
02670               0.00    -3000.00
02671               2.00    -3200.00
02672               8.00    -3200.00
02673               2.00    -3000.00
02674              -6.00    -3000.00
02675             -10.00    -3000.00
02676               0.00    -3000.00
02677               2.00    -3000.00
02678               2.00    -3000.00
02679               0.00    -3000.00
02680              -4.00    -2800.00
02681              -8.00    -2800.00
02682              -2.00    -2800.00
02683              -2.00    -2800.00
02684              -2.00    -2800.00
02685               0.00    -2600.00
02686              -2.00    -2600.00
02687               0.00    -2400.00
02688              -4.00    -2400.00
02689              -6.00    -2400.00
02690              -6.00    -2400.00
02691              -2.00    -2200.00
02692               0.00    -2400.00
02693               0.00    -2200.00
02694               0.00    -2000.00
02695              -2.00    -2200.00
02696              -6.00    -2000.00
02697              -8.00    -2000.00
02698               0.00    -2000.00
02699               0.00    -2000.00
02700              -2.00    -1600.00
02701              -8.00    -1600.00
02702               0.00    -1600.00
02703               0.00    -1600.00
02704              -2.00    -1600.00
02705              -8.00    -1400.00
02706             -10.00    -1400.00
02707               0.00    -1200.00
02708               4.00    -1400.00
02709               0.00    -1200.00
02710              -2.00    -1000.00
02711              -8.00    -1200.00
02712             -10.00    -1000.00
02713               0.00    -1000.00
02714               4.00     -800.00
02715               0.00     -800.00
02716              -2.00     -800.00
02717              -6.00     -800.00
02718               0.00     -600.00
02719               0.00     -600.00
02720              -2.00     -400.00
02721               0.00     -400.00
02722               0.00     -400.00
02723               0.00     -200.00
02724              -6.00     -400.00
02725              -6.00        0.00
02726               0.00        0.00
02727               4.00        0.00
02728               0.00      200.00
02729              -8.00        0.00
02730              -4.00      200.00
02731               2.00      200.00
02732               6.00      400.00
02733               2.00      400.00
02734               6.00      400.00
02735              -2.00      400.00
02736              -8.00      600.00
02737              -6.00      600.00
02738               2.00      600.00
02739              28.00      800.00
02740             158.00     1000.00
02741             106.00     1000.00
02742            -254.00      800.00
02743            -254.00      800.00
02744             246.00     1200.00
02745             246.00     1400.00
02746            -254.00     1000.00
02747            -254.00     1000.00
02748             214.00     1600.00
02749             246.00     1400.00
02750            -254.00     1200.00
02751            -254.00     1600.00
02752             246.00     1800.00
02753             246.00     1600.00
02754            -168.00     1600.00
02755             -20.00     2000.00
02756             -34.00     1800.00
02757            -134.00     1800.00
02758             190.00     2000.00
02759             134.00     2000.00
02760            -254.00     2000.00
02761             -10.00     2200.00
02762             110.00     2400.00
02763             -48.00     2200.00
02764              74.00     2400.00
02765             -54.00     2400.00
02766            -174.00     2400.00
02767             198.00     2600.00
02768              82.00     2600.00
02769            -250.00     2600.00
02770              58.00     2800.00
02771             126.00     2800.00
02772            -104.00     2800.00
02773              26.00     3000.00
02774               2.00     2800.00
02775             -80.00     2800.00
02776              80.00     3200.00
02777              -2.00     3200.00
02778             -64.00     3000.00
02779              42.00     3400.00
02780             -32.00     3200.00
02781              -2.00     3400.00
02782              64.00     3400.00
02783             -66.00     3200.00
02784             -26.00     3400.00
02785              50.00     3400.00
02786             -26.00     3400.00
02787              -6.00     3600.00
02788              16.00     3600.00
02789             -24.00     3600.00
02790              -6.00     3600.00
02791              -6.00     3600.00
02792              -2.00     3600.00
02793              18.00     3800.00
02794             -10.00     4000.00
02795             -22.00     3800.00
02796               6.00     3800.00
02797             -10.00     4000.00
02798              -6.00     3800.00
02799              16.00     4000.00
02800              -6.00     4000.00
02801             -22.00     4000.00
02802               0.00     4000.00
02803               2.00     4000.00
02804             -10.00     4000.00
02805               0.00     4200.00
02806              -2.00     4000.00
02807             -12.00     4000.00
02808             -14.00     4200.00
02809             -10.00     4000.00
02810              14.00     4000.00
02811               8.00     4200.00
02812             -22.00     4000.00
02813             -10.00     4200.00
02814              -2.00     4200.00
02815             -10.00     4400.00
02816               0.00     4200.00
02817               0.00     4200.00
02818             -14.00     4200.00
02819             -18.00     4400.00
02820              -6.00     4200.00
02821               8.00     4400.00
02822              12.00     4400.00
02823              -8.00     4400.00
02824             -22.00     4400.00
02825             -16.00     4400.00
02826              -8.00     4400.00
02827               6.00     4400.00
02828               8.00     4200.00
02829             -10.00     4400.00
02830             -18.00     4200.00
02831              -6.00     4400.00
02832               0.00     4200.00
02833              -2.00     4200.00
02834              -2.00     4400.00
02835              -8.00     4200.00
02836             -10.00     4200.00
02837             -10.00     4200.00
02838              -8.00     4200.00
02839               2.00     4400.00
02840               4.00     4200.00
02841               0.00     4200.00
02842              -4.00     4200.00
02843             -14.00     4200.00
02844             -16.00     4000.00
02845              -8.00     4000.00
02846               2.00     4000.00
02847               6.00     4000.00
02848               2.00     4200.00
02849              -8.00     4000.00
02850             -16.00     4000.00
02851             -10.00     4000.00
02852               2.00     4200.00
02853               8.00     4000.00
02854              -4.00     3800.00
02855             -14.00     3800.00
02856             -10.00     4000.00
02857              -6.00     3800.00
02858               0.00     3600.00
02859               2.00     3600.00
02860               0.00     3800.00
02861             -10.00     3600.00
02862             -14.00     3600.00
02863             -10.00     3600.00
02864              -2.00     3600.00
02865               0.00     3400.00
02866               0.00     3400.00
02867              -4.00     3400.00
02868             -10.00     3400.00
02869             -10.00     3200.00
02870              -2.00     3200.00
02871               0.00     3200.00
02872              -6.00     3200.00
02873              -6.00     3200.00
02874              -6.00     3200.00
02875             -10.00     3200.00
02876              -4.00     3000.00
02877              -4.00     2800.00
02878              -6.00     2800.00
02879              -6.00     2800.00
02880              -8.00     2800.00
02881              -2.00     2600.00
02882              -6.00     2600.00
02883             -10.00     2600.00
02884              -8.00     2600.00
02885              -2.00     2600.00
02886              -2.00     2400.00
02887              -4.00     2400.00
02888              -6.00     2200.00
02889             -10.00     2400.00
02890              -8.00     2200.00
02891              -2.00     2200.00
02892               0.00     2000.00
02893              -8.00     2000.00
02894              -6.00     2000.00
02895              -2.00     1800.00
02896              -2.00     2000.00
02897              -8.00     1800.00
02898              -6.00     1800.00
02899               0.00     1600.00
02900              -2.00     1600.00
02901              -6.00     1600.00
02902              -6.00     1600.00
02903              -6.00     1200.00
02904              -8.00     1200.00
02905              -2.00     1400.00
02906               0.00     1400.00
02907              -2.00     1200.00
02908              -6.00     1000.00
02909              -6.00     1000.00
02910              -2.00      800.00
02911              -2.00      800.00
02912              -4.00      800.00
02913              -4.00      800.00
02914               0.00      800.00
02915              -2.00      800.00
02916              -2.00      600.00
02917              -2.00      400.00
02918              -2.00      600.00
02919              -6.00      400.00
02920             -10.00      200.00
02921              -6.00      200.00
02922              10.00      200.00
02923               6.00      200.00
02924              -2.00      200.00
02925              -2.00        0.00
02926               0.00        0.00
02927              -2.00        0.00
02928              -2.00        0.00
02929               0.00     -200.00
02930               2.00     -400.00
02931              32.00     -400.00
02932             144.00     -400.00
02933              86.00     -600.00
02934            -254.00     -800.00
02935            -254.00     -600.00
02936             246.00     -600.00
02937             246.00     -800.00
02938            -160.00    -1000.00
02939            -254.00     -800.00
02940              66.00    -1200.00
02941             246.00    -1200.00
02942             -70.00    -1000.00
02943            -254.00    -1200.00
02944              10.00    -1400.00
02945             246.00    -1400.00
02946              82.00    -1400.00
02947             -58.00    -1400.00
02948            -230.00    -1400.00
02949            -122.00    -1400.00
02950             246.00    -1600.00
02951             190.00    -1800.00
02952            -254.00    -1600.00
02953            -168.00    -2000.00
02954             170.00    -2000.00
02955             112.00    -1800.00
02956              -2.00    -2000.00
02957            -136.00    -2400.00
02958             -78.00    -2000.00
02959             158.00    -2200.00
02960              82.00    -2400.00
02961            -170.00    -2200.00
02962             -48.00    -2400.00
02963             116.00    -2600.00
02964              24.00    -2400.00
02965             -30.00    -2400.00
02966             -42.00    -2800.00
02967             -16.00    -2400.00
02968              40.00    -2600.00
02969              26.00    -2800.00
02970             -48.00    -2800.00
02971             -18.00    -2800.00
02972              26.00    -2800.00
02973              18.00    -3000.00
02974             -12.00    -3000.00
02975             -26.00    -3000.00
02976               2.00    -3000.00
02977              26.00    -3200.00
02978               8.00    -3000.00
02979             -28.00    -3200.00
02980               0.00    -3200.00
02981              22.00    -3200.00
02982              -8.00    -3200.00
02983             -20.00    -3200.00
02984               8.00    -3200.00
02985              12.00    -3400.00
02986               2.00    -3200.00
02987              -4.00    -3400.00
02988             -10.00    -3600.00
02989              -6.00    -3400.00
02990               6.00    -3600.00
02991               8.00    -3600.00
02992               2.00    -3600.00
02993              -8.00    -3600.00
02994              -6.00    -3600.00
02995               2.00    -3600.00
02996              -2.00    -3600.00
02997               0.00    -3800.00
02998               8.00    -3800.00
02999               0.00    -3800.00
03000              -8.00    -3800.00
03001              -8.00    -3800.00
03002               8.00    -3800.00
03003               6.00    -3800.00
03004             -10.00    -3800.00
03005              -6.00    -3800.00
03006              10.00    -3800.00
03007               8.00    -4000.00
03008             -10.00    -3800.00
03009             -16.00    -3600.00
03010              -2.00    -4000.00
03011              18.00    -4000.00
03012              16.00    -3800.00
03013             -10.00    -4000.00
03014             -26.00    -4000.00
03015              -8.00    -4000.00
03016              22.00    -3800.00
03017              16.00    -4000.00
03018             -10.00    -3800.00
03019             -22.00    -4000.00
03020              -6.00    -4000.00
03021               8.00    -4000.00
03022               8.00    -3800.00
03023               0.00    -4000.00
03024              -8.00    -3800.00
03025              -2.00    -3800.00
03026               0.00    -3800.00
03027              -2.00    -3800.00
03028              -2.00    -3800.00
03029               0.00    -4000.00
03030               8.00    -3800.00
03031               6.00    -3800.00
03032              -8.00    -3800.00
03033             -16.00    -3800.00
03034              -2.00    -3800.00
03035              12.00    -3800.00
03036               2.00    -3800.00
03037             -10.00    -3800.00
03038             -10.00    -3800.00
03039               6.00    -3600.00
03040              12.00    -3600.00
03041               0.00    -3800.00
03042             -10.00    -3600.00
03043             -10.00    -3600.00
03044               0.00    -3600.00
03045              10.00    -3400.00
03046               6.00    -3400.00
03047              -4.00    -3600.00
03048              -8.00    -3400.00
03049              -8.00    -3400.00
03050               0.00    -3200.00
03051               6.00    -3400.00
03052               6.00    -3200.00
03053               0.00    -3200.00
03054              -2.00    -3200.00
03055              -6.00    -3200.00
03056              -2.00    -3200.00
03057               0.00    -3200.00
03058               0.00    -3000.00
03059               0.00    -3000.00
03060               2.00    -3000.00
03061              -2.00    -3000.00
03062              -2.00    -2800.00
03063              -6.00    -3000.00
03064              -6.00    -2800.00
03065               4.00    -2800.00
03066               2.00    -2800.00
03067              -2.00    -2800.00
03068              -8.00    -2600.00
03069              -6.00    -2800.00
03070               0.00    -2400.00
03071               6.00    -2400.00
03072               0.00    -2400.00
03073              -2.00    -2400.00
03074              -8.00    -2400.00
03075              -6.00    -2400.00
03076               0.00    -2200.00
03077              -2.00    -2200.00
03078               0.00    -2000.00
03079              -2.00    -2000.00
03080              -2.00    -2000.00
03081              -2.00    -2000.00
03082              -2.00    -2000.00
03083              -2.00    -1600.00
03084               0.00    -1800.00
03085               0.00    -1600.00
03086              -2.00    -1600.00
03087              -2.00    -1400.00
03088              -2.00    -1400.00
03089              -4.00    -1400.00
03090              -4.00    -1400.00
03091              -2.00    -1200.00
03092               0.00    -1000.00
03093              -2.00    -1200.00
03094              -4.00    -1000.00
03095              -6.00    -1000.00
03096              -2.00     -800.00
03097              -2.00    -1000.00
03098               0.00     -800.00
03099               0.00     -800.00
03100              -2.00     -800.00
03101              -6.00     -600.00
03102              -2.00     -600.00
03103              -2.00     -400.00
03104              -2.00     -400.00
03105               0.00     -400.00
03106               0.00     -400.00
03107              -6.00     -400.00
03108              -2.00        0.00
03109              -2.00        0.00
03110              -2.00        0.00
03111               0.00        0.00
03112              -2.00        0.00
03113              -4.00      200.00
03114               6.00      200.00
03115               0.00      400.00
03116               2.00      400.00
03117               8.00      400.00
03118               0.00      400.00
03119              -6.00      600.00
03120             -10.00      600.00
03121               0.00      800.00
03122              26.00      800.00
03123             150.00     1000.00
03124             124.00     1000.00
03125            -254.00      800.00
03126            -254.00      800.00
03127             246.00     1200.00
03128             246.00     1400.00
03129            -214.00     1000.00
03130            -254.00      800.00
03131             138.00     1600.00
03132             246.00     1600.00
03133            -214.00     1200.00
03134            -254.00     1400.00
03135             230.00     1800.00
03136             246.00     1600.00
03137            -162.00     1600.00
03138             -42.00     1800.00
03139             -18.00     1800.00
03140            -136.00     1600.00
03141             176.00     2000.00
03142             158.00     2200.00
03143            -254.00     2000.00
03144             -32.00     2000.00
03145             120.00     2200.00
03146             -40.00     2000.00
03147              72.00     2400.00
03148             -38.00     2200.00
03149            -190.00     2400.00
03150             182.00     2600.00
03151             110.00     2600.00
03152            -248.00     2600.00
03153              38.00     2800.00
03154             136.00     2600.00
03155            -104.00     2600.00
03156              20.00     3000.00
03157               8.00     2800.00
03158             -80.00     2800.00
03159              82.00     3200.00
03160              12.00     3200.00
03161             -66.00     3200.00
03162              34.00     3200.00
03163             -32.00     3200.00
03164              -8.00     3200.00
03165              70.00     3400.00
03166             -64.00     3200.00
03167             -34.00     3400.00
03168              48.00     3600.00
03169             -22.00     3400.00
03170             -10.00     3200.00
03171              22.00     3800.00
03172             -24.00     3600.00
03173             -14.00     3400.00
03174              -8.00     3800.00
03175               2.00     3600.00
03176              24.00     3600.00
03177             -10.00     3600.00
03178             -22.00     4000.00
03179               8.00     3800.00
03180             -14.00     3800.00
03181             -10.00     3800.00
03182              16.00     4000.00
03183               2.00     4000.00
03184             -16.00     3800.00
03185               0.00     4000.00
03186              -2.00     4000.00
03187             -16.00     4200.00
03188              -2.00     4000.00
03189               8.00     4200.00
03190               2.00     4000.00
03191              -8.00     4000.00
03192             -16.00     4200.00
03193              -2.00     4200.00
03194               2.00     4200.00
03195             -10.00     4200.00
03196               4.00     4200.00
03197               4.00     4200.00
03198             -16.00     4400.00
03199             -12.00     4200.00
03200              -2.00     4200.00
03201              -8.00     4400.00
03202              -2.00     4200.00
03203               0.00     4200.00
03204              -2.00     4400.00
03205             -10.00     4200.00
03206             -10.00     4200.00
03207              -6.00     4200.00
03208               0.00     4400.00
03209              -6.00     4200.00
03210              -8.00     4200.00
03211              -2.00     4400.00
03212             -10.00     4400.00
03213             -10.00     4200.00
03214              -2.00     4400.00
03215              -2.00     4200.00
03216              -6.00     4200.00
03217              -2.00     4400.00
03218              -6.00     4200.00
03219             -10.00     4200.00
03220             -10.00     4200.00
03221              -6.00     4200.00
03222              -2.00     4200.00
03223              -4.00     4200.00
03224              -8.00     4000.00
03225              -4.00     4000.00
03226              -8.00     4000.00
03227             -10.00     4000.00
03228              -2.00     4200.00
03229              -2.00     4200.00
03230              -4.00     4000.00
03231              -6.00     4200.00
03232              -8.00     4000.00
03233              -8.00     4000.00
03234              -6.00     4000.00
03235              -2.00     4000.00
03236               0.00     4000.00
03237              -6.00     3800.00
03238              -8.00     3800.00
03239              -6.00     3800.00
03240              -6.00     3800.00
03241              -8.00     3600.00
03242              -2.00     3800.00
03243               0.00     3600.00
03244              -6.00     3600.00
03245             -10.00     3600.00
03246             -10.00     3400.00
03247              -4.00     3600.00
03248               0.00     3400.00
03249               2.00     3400.00
03250              -2.00     3400.00
03251              -8.00     3400.00
03252             -10.00     3200.00
03253              -8.00     3400.00
03254               0.00     3200.00
03255              -2.00     3400.00
03256               0.00     3200.00
03257               0.00     3200.00
03258             -10.00     3000.00
03259              -8.00     3000.00
03260              -8.00     2800.00
03261              -2.00     2800.00
03262              -2.00     3000.00
03263              -6.00     2800.00
03264              -6.00     2800.00
03265              -8.00     2600.00
03266             -10.00     2400.00
03267              -2.00     2600.00
03268              -2.00     2600.00
03269              -6.00     2400.00
03270              -8.00     2400.00
03271              -2.00     2400.00
03272              -6.00     2200.00
03273              -8.00     2200.00
03274             -10.00     2200.00
03275              -2.00     2000.00
03276               0.00     2000.00
03277              -2.00     1800.00
03278             -10.00     1800.00
03279             -12.00     1800.00
03280              -8.00     1800.00
03281               2.00     1800.00
03282               4.00     1800.00
03283              -2.00     1600.00
03284             -10.00     1400.00
03285             -10.00     1600.00
03286              -6.00     1400.00
03287              -2.00     1400.00
03288              -2.00     1400.00
03289               0.00     1200.00
03290              -2.00     1200.00
03291              -2.00     1000.00
03292              -6.00     1000.00
03293              -2.00     1000.00
03294              -6.00      800.00
03295             -10.00      800.00
03296              -6.00      800.00
03297               0.00      600.00
03298               6.00      800.00
03299               4.00      600.00
03300              -2.00      600.00
03301             -10.00      400.00
03302             -14.00      400.00
03303              -4.00      400.00
03304               6.00      200.00
03305              10.00      200.00
03306               0.00        0.00
03307              -8.00        0.00
03308               0.00        0.00
03309               8.00        0.00
03310               6.00        0.00
03311              -2.00     -200.00
03312              -6.00     -400.00
03313               0.00     -400.00
03314              32.00     -400.00
03315             138.00     -400.00
03316              98.00     -800.00
03317            -254.00     -800.00
03318            -254.00     -600.00
03319             246.00     -400.00
03320             246.00     -800.00
03321             -76.00    -1200.00
03322            -254.00     -800.00
03323              -2.00    -1000.00
03324             246.00    -1000.00
03325               0.00    -1000.00
03326            -254.00    -1000.00
03327             -32.00    -1200.00
03328             246.00    -1400.00
03329              96.00    -1400.00
03330             -48.00    -1600.00
03331            -218.00    -1600.00
03332            -144.00    -1400.00
03333             246.00    -1800.00
03334             218.00    -1600.00
03335            -254.00    -1800.00
03336            -184.00    -2000.00
03337             156.00    -2000.00
03338             118.00    -1600.00
03339               8.00    -2200.00
03340            -128.00    -2000.00
03341             -90.00    -2000.00
03342             144.00    -2200.00
03343             100.00    -2400.00
03344            -166.00    -2200.00
03345             -62.00    -2400.00
03346             110.00    -2400.00
03347              30.00    -2400.00
03348             -30.00    -2400.00
03349             -40.00    -2600.00
03350             -14.00    -2400.00
03351              38.00    -2800.00
03352              30.00    -2800.00
03353             -50.00    -2800.00
03354             -30.00    -2800.00
03355              24.00    -2800.00
03356              26.00    -2800.00
03357              -6.00    -3000.00
03358             -26.00    -3000.00
03359              -8.00    -3000.00
03360              18.00    -3000.00
03361               8.00    -3000.00
03362             -26.00    -3200.00
03363               0.00    -3200.00
03364              22.00    -3200.00
03365              -6.00    -3200.00
03366             -24.00    -3200.00
03367               2.00    -3200.00
03368              10.00    -3400.00
03369               4.00    -3200.00
03370               0.00    -3600.00
03371             -10.00    -3400.00
03372              -6.00    -3400.00
03373              10.00    -3600.00
03374               6.00    -3600.00
03375               0.00    -3600.00
03376             -10.00    -3600.00
03377               0.00    -3600.00
03378               8.00    -3800.00
03379              -4.00    -3600.00
03380              -8.00    -3600.00
03381               8.00    -3800.00
03382               8.00    -3600.00
03383              -2.00    -3800.00
03384              -8.00    -3800.00
03385              -2.00    -3600.00
03386               2.00    -3800.00
03387               2.00    -3800.00
03388               0.00    -3800.00
03389               2.00    -3800.00
03390               0.00    -4000.00
03391              -8.00    -3800.00
03392              -2.00    -4000.00
03393               0.00    -4000.00
03394               0.00    -4000.00
03395               2.00    -4000.00
03396               0.00    -4000.00
03397             -10.00    -4000.00
03398              -8.00    -4000.00
03399               0.00    -4000.00
03400               4.00    -4000.00
03401               2.00    -4000.00
03402               2.00    -4000.00
03403              -2.00    -3800.00
03404              -4.00    -4000.00
03405              -2.00    -4000.00
03406              -2.00    -3800.00
03407               2.00    -4000.00
03408               2.00    -4000.00
03409              -2.00    -4000.00
03410              -4.00    -3800.00
03411              -6.00    -3800.00
03412              -6.00    -3800.00
03413               2.00    -4000.00
03414               6.00    -3800.00
03415               0.00    -3800.00
03416              -2.00    -3800.00
03417              -2.00    -3800.00
03418              -6.00    -3800.00
03419              -2.00    -3800.00
03420               0.00    -3600.00
03421               2.00    -3600.00
03422               2.00    -3600.00
03423              -2.00    -3600.00
03424              -2.00    -3600.00
03425              -2.00    -3600.00
03426               0.00    -3600.00
03427               0.00    -3600.00
03428               4.00    -3600.00
03429              -2.00    -3600.00
03430               0.00    -3400.00
03431              -6.00    -3600.00
03432              -2.00    -3400.00
03433              -2.00    -3400.00
03434               2.00    -3600.00
03435               2.00    -3200.00
03436               0.00    -3200.00
03437              -2.00    -3200.00
03438              -2.00    -3200.00
03439              -2.00    -3200.00
03440               0.00    -3000.00
03441               0.00    -3000.00
03442               0.00    -3000.00
03443              -2.00    -3000.00
03444              -2.00    -3000.00
03445              -2.00    -2800.00
03446               2.00    -2800.00
03447              -2.00    -2800.00
03448               0.00    -2800.00
03449               0.00    -2800.00
03450              -4.00    -2600.00
03451              -2.00    -2800.00
03452              -2.00    -2400.00
03453              -2.00    -2400.00
03454               0.00    -2600.00
03455               0.00    -2400.00
03456               0.00    -2400.00
03457              -2.00    -2200.00
03458              -2.00    -2400.00
03459              -2.00    -2200.00
03460              -2.00    -2200.00
03461              -2.00    -2000.00
03462              -2.00    -2000.00
03463              -2.00    -2000.00
03464              -2.00    -2000.00
03465              -6.00    -1800.00
03466              -4.00    -1800.00
03467               0.00    -1800.00
03468               0.00    -1600.00
03469              -2.00    -1600.00
03470              -2.00    -1600.00
03471              -4.00    -1400.00
03472              -6.00    -1400.00
03473              -2.00    -1400.00
03474               0.00    -1200.00
03475               0.00    -1000.00
03476              -2.00    -1000.00
03477              -6.00    -1000.00
03478              -6.00    -1000.00
03479              -6.00     -800.00
03480              -4.00     -800.00
03481              -2.00     -800.00
03482               0.00     -800.00
03483              -2.00     -800.00
03484              -6.00     -800.00
03485              -6.00     -600.00
03486              -6.00     -400.00
03487              -2.00     -400.00
03488               0.00     -200.00
03489               0.00     -400.00
03490              -2.00     -400.00
03491              -6.00     -400.00
03492              -6.00        0.00
03493               0.00        0.00
03494               0.00        0.00
03495              -2.00        0.00
03496               0.00        0.00
03497               2.00      200.00
03498               2.00      200.00
03499               6.00      400.00
03500               6.00      400.00
03501               2.00      400.00
03502              -4.00      400.00
03503              -6.00      400.00
03504               0.00      600.00
03505              22.00      800.00
03506             144.00      800.00
03507             142.00     1000.00
03508            -254.00      800.00
03509            -254.00      800.00
03510             246.00     1000.00
03511             246.00     1400.00
03512            -110.00     1200.00
03513            -254.00      800.00
03514              54.00     1600.00
03515             246.00     1600.00
03516            -128.00     1200.00
03517            -254.00     1600.00
03518             182.00     1800.00
03519             246.00     1600.00
03520            -148.00     1200.00
03521             -48.00     1800.00
03522              -2.00     1800.00
03523            -148.00     1800.00
03524             158.00     1800.00
03525             176.00     2000.00
03526            -254.00     2000.00
03527             -42.00     2000.00
03528             126.00     2400.00
03529             -40.00     2000.00
03530              66.00     2400.00
03531             -24.00     2200.00
03532            -194.00     2400.00
03533             166.00     2600.00
03534             130.00     2600.00
03535            -246.00     2600.00
03536              20.00     2600.00
03537             144.00     2600.00
03538             -98.00     2600.00
03539              16.00     2800.00
03540              22.00     2800.00
03541             -86.00     2800.00
03542              70.00     3000.00
03543              16.00     3200.00
03544             -72.00     3000.00
03545              38.00     3200.00
03546             -26.00     3200.00
03547             -16.00     3200.00
03548              68.00     3400.00
03549             -58.00     3200.00
03550             -34.00     3400.00
03551              56.00     3600.00
03552             -18.00     3400.00
03553             -16.00     3400.00
03554              20.00     3600.00
03555             -20.00     3600.00
03556              -8.00     3600.00
03557              -8.00     3600.00
03558              -6.00     3600.00
03559              22.00     3600.00
03560             -10.00     3600.00
03561             -22.00     3800.00
03562               8.00     4000.00
03563             -10.00     3800.00
03564             -14.00     4000.00
03565              18.00     4000.00
03566               0.00     4000.00
03567             -22.00     4000.00
03568              -2.00     4000.00
03569               0.00     4000.00
03570              -8.00     4000.00
03571              -6.00     4000.00
03572               0.00     4000.00
03573              -2.00     4000.00
03574              -8.00     4200.00
03575             -12.00     4200.00
03576               0.00     4200.00
03577               0.00     4200.00
03578             -16.00     4200.00
03579               0.00     4200.00
03580               8.00     4000.00
03581             -14.00     4200.00
03582             -10.00     4200.00
03583              -6.00     4400.00
03584              -8.00     4200.00
03585              -2.00     4400.00
03586               0.00     4200.00
03587              -2.00     4200.00
03588              -8.00     4400.00
03589             -14.00     4200.00
03590              -8.00     4200.00
03591               0.00     4400.00
03592              -8.00     4400.00
03593              -6.00     4200.00
03594               0.00     4400.00
03595              -8.00     4200.00
03596             -12.00     4200.00
03597              -6.00     4400.00
03598              -6.00     4200.00
03599              -2.00     4200.00
03600              -2.00     4200.00
03601              -6.00     4400.00
03602             -10.00     4200.00
03603             -10.00     4200.00
03604              -8.00     4000.00
03605               0.00     4400.00
03606              -2.00     4200.00
03607             -10.00     4200.00
03608              -6.00     4000.00
03609              -8.00     4000.00
03610             -10.00     4200.00
03611              -4.00     4000.00
03612               0.00     4000.00
03613              -8.00     4000.00
03614              -6.00     4000.00
03615              -6.00     4000.00
03616              -8.00     4200.00
03617              -8.00     4000.00
03618              -4.00     4000.00
03619              -2.00     3800.00
03620              -2.00     4000.00
03621              -6.00     3800.00
03622              -6.00     3800.00
03623              -8.00     3600.00
03624              -8.00     3600.00
03625              -2.00     3600.00
03626               0.00     3600.00
03627              -8.00     3800.00
03628              -8.00     3600.00
03629              -8.00     3400.00
03630              -6.00     3600.00
03631              -4.00     3400.00
03632              -2.00     3600.00
03633              -2.00     3400.00
03634              -2.00     3200.00
03635              -8.00     3200.00
03636              -6.00     3400.00
03637              -6.00     3200.00
03638              -6.00     3200.00
03639              -2.00     3200.00
03640               0.00     3200.00
03641              -6.00     3000.00
03642              -8.00     2800.00
03643              -6.00     3000.00
03644              -4.00     2800.00
03645              -2.00     2800.00
03646              -4.00     2800.00
03647              -2.00     2600.00
03648              -6.00     2800.00
03649              -8.00     2600.00
03650              -2.00     2600.00
03651               0.00     2400.00
03652              -2.00     2400.00
03653              -2.00     2400.00
03654              -6.00     2200.00
03655              -8.00     2200.00
03656              -8.00     2400.00
03657              -6.00     2000.00
03658              -2.00     2000.00
03659              -2.00     2000.00
03660              -6.00     2000.00
03661              -6.00     1800.00
03662              -4.00     1800.00
03663             -10.00     1600.00
03664              -4.00     1800.00
03665              -2.00     1600.00
03666              -6.00     1600.00
03667              -4.00     1600.00
03668              -6.00     1600.00
03669              -6.00     1200.00
03670              -6.00     1400.00
03671              -6.00     1200.00
03672              -2.00     1200.00
03673              -2.00     1200.00
03674              -6.00     1000.00
03675              -6.00     1000.00
03676              -2.00     1000.00
03677              -6.00      800.00
03678              -6.00      800.00
03679              -2.00      800.00
03680               0.00      600.00
03681              -2.00      800.00
03682              -6.00      600.00
03683              -8.00      400.00
03684              -2.00      400.00
03685              -2.00      400.00
03686              -8.00      400.00
03687              -2.00      200.00
03688               0.00      200.00
03689               0.00      200.00
03690              -2.00        0.00
03691               6.00        0.00
03692               6.00        0.00
03693              -2.00        0.00
03694              -8.00     -200.00
03695              -6.00     -200.00
03696               2.00     -400.00
03697              30.00     -200.00
03698             134.00     -400.00
03699             106.00     -600.00
03700            -254.00     -800.00
03701            -254.00     -600.00
03702             246.00     -600.00
03703             246.00     -800.00
03704               6.00    -1200.00
03705            -254.00     -800.00
03706             -74.00    -1000.00
03707             246.00    -1000.00
03708              62.00    -1000.00
03709            -254.00    -1000.00
03710             -74.00    -1200.00
03711             246.00    -1400.00
03712             106.00    -1400.00
03713             -38.00    -1400.00
03714            -208.00    -1600.00
03715            -160.00    -1400.00
03716             246.00    -1600.00
03717             242.00    -1800.00
03718            -254.00    -1600.00
03719            -202.00    -2000.00
03720             152.00    -2000.00
03721             130.00    -1800.00
03722              10.00    -2000.00
03723            -130.00    -2200.00
03724            -106.00    -2000.00
03725             134.00    -2400.00
03726             122.00    -2400.00
03727            -160.00    -2200.00
03728             -74.00    -2200.00
03729             104.00    -2400.00
03730              36.00    -2400.00
03731             -30.00    -2600.00
03732             -42.00    -2600.00
03733             -22.00    -2800.00
03734              34.00    -2800.00
03735              36.00    -2800.00
03736             -42.00    -2800.00
03737             -26.00    -2800.00
03738              20.00    -3000.00
03739              22.00    -3000.00
03740             -10.00    -3000.00
03741             -26.00    -3000.00
03742              -6.00    -3200.00
03743              24.00    -3200.00
03744               8.00    -3200.00
03745             -28.00    -3200.00
03746              -8.00    -3200.00
03747              18.00    -3200.00
03748              -2.00    -3200.00
03749             -18.00    -3200.00
03750               6.00    -3400.00
03751              14.00    -3200.00
03752               0.00    -3400.00
03753              -8.00    -3200.00
03754             -12.00    -3600.00
03755              -6.00    -3600.00
03756               8.00    -3400.00
03757              10.00    -3400.00
03758               0.00    -3600.00
03759             -10.00    -3600.00
03760              -4.00    -3600.00
03761               6.00    -3800.00
03762              -2.00    -3800.00
03763              -8.00    -3800.00
03764               6.00    -3800.00
03765               8.00    -3600.00
03766              -2.00    -3800.00
03767              -8.00    -3800.00
03768              -2.00    -3800.00
03769               0.00    -3800.00
03770               2.00    -4000.00
03771               2.00    -3800.00
03772               6.00    -3800.00
03773              -2.00    -4000.00
03774             -10.00    -4000.00
03775              -6.00    -4000.00
03776               2.00    -3800.00
03777               4.00    -4000.00
03778               6.00    -4000.00
03779               0.00    -4000.00
03780             -10.00    -4000.00
03781             -10.00    -4000.00
03782               0.00    -4000.00
03783               6.00    -4000.00
03784               0.00    -3800.00
03785              -6.00    -4000.00
03786              -6.00    -4000.00
03787              -2.00    -4000.00
03788              -2.00    -4000.00
03789               0.00    -4000.00
03790               2.00    -4000.00
03791              -2.00    -3800.00
03792              -2.00    -4000.00
03793               0.00    -3800.00
03794              -2.00    -3800.00
03795              -2.00    -4000.00
03796              -2.00    -3800.00
03797               0.00    -4000.00
03798               0.00    -3800.00
03799               0.00    -3800.00
03800              -6.00    -3800.00
03801              -6.00    -3800.00
03802              -2.00    -3800.00
03803               0.00    -3800.00
03804               0.00    -3800.00
03805               0.00    -3600.00
03806              -2.00    -3800.00
03807              -6.00    -3600.00
03808              -2.00    -3600.00
03809               0.00    -3600.00
03810              -2.00    -3600.00
03811               2.00    -3600.00
03812               0.00    -3600.00
03813              -2.00    -3600.00
03814              -2.00    -3400.00
03815              -2.00    -3400.00
03816              -6.00    -3400.00
03817               8.00    -3400.00
03818               2.00    -3200.00
03819              -8.00    -3200.00
03820              -2.00    -3200.00
03821              -2.00    -3200.00
03822               2.00    -3200.00
03823               2.00    -3000.00
03824              -6.00    -3200.00
03825              -2.00    -3000.00
03826               8.00    -3000.00
03827              -6.00    -2800.00
03828              -4.00    -2800.00
03829              -2.00    -2800.00
03830              -2.00    -2800.00
03831               6.00    -2800.00
03832               0.00    -2800.00
03833              -6.00    -2800.00
03834              -2.00    -2600.00
03835               0.00    -2800.00
03836              -2.00    -2600.00
03837               0.00    -2400.00
03838               0.00    -2400.00
03839               0.00    -2400.00
03840               2.00    -2200.00
03841               0.00    -2200.00
03842              -4.00    -2400.00
03843              -2.00    -2200.00
03844              -2.00    -2000.00
03845               0.00    -2200.00
03846               6.00    -2000.00
03847               0.00    -2000.00
03848              -6.00    -1600.00
03849              -2.00    -2000.00
03850              -6.00    -2000.00
03851               0.00    -1600.00
03852               0.00    -1600.00
03853              -2.00    -1600.00
03854               0.00    -1600.00
03855              -2.00    -1400.00
03856              -8.00    -1000.00
03857               0.00    -1200.00
03858               0.00    -1200.00
03859              -2.00    -1200.00
03860              -2.00    -1000.00
03861              -2.00    -1000.00
03862              -6.00     -800.00
03863              -2.00     -800.00
03864              -2.00     -800.00
03865               0.00     -800.00
03866               0.00     -600.00
03867              -8.00     -600.00
03868              -2.00     -600.00
03869              -2.00     -600.00
03870              -6.00     -400.00
03871               4.00     -400.00
03872               2.00     -400.00
03873              -6.00     -400.00
03874             -16.00     -200.00
03875              -8.00     -200.00
03876               6.00        0.00
03877              10.00        0.00
03878              -6.00      200.00
03879             -14.00        0.00
03880              -2.00      200.00
03881               6.00      200.00
03882               8.00      200.00
03883               8.00      400.00
03884              -2.00      400.00
03885              -2.00      600.00
03886              -6.00      600.00
03887              -6.00      600.00
03888              12.00      600.00
03889             134.00     1000.00
03890             160.00     1000.00
03891            -254.00     1000.00
03892            -254.00      800.00
03893             246.00     1200.00
03894             246.00     1400.00
03895             -22.00     1200.00
03896            -254.00     1000.00
03897             -16.00     1600.00
03898             246.00     1600.00
03899             -64.00     1200.00
03900            -254.00     1400.00
03901             136.00     1800.00
03902             246.00     1600.00
03903            -138.00     1400.00
03904             -62.00     1800.00
03905              16.00     2000.00
03906            -150.00     1600.00
03907             136.00     2000.00
03908             194.00     2000.00
03909            -242.00     2000.00
03910             -64.00     2000.00
03911             126.00     2400.00
03912             -38.00     2200.00
03913              58.00     2400.00
03914              -2.00     2400.00
03915            -200.00     2400.00
03916             142.00     2600.00
03917             142.00     2600.00
03918            -240.00     2400.00
03919               6.00     2800.00
03920             160.00     2800.00
03921             -98.00     2600.00
03922              -8.00     2800.00
03923              24.00     2800.00
03924             -80.00     2800.00
03925              66.00     3200.00
03926              24.00     3000.00
03927             -78.00     3000.00
03928              32.00     3200.00
03929             -20.00     3200.00
03930             -24.00     3200.00
03931              68.00     3400.00
03932             -48.00     3200.00
03933             -44.00     3400.00
03934              52.00     3600.00
03935             -16.00     3400.00
03936             -24.00     3400.00
03937              20.00     3600.00
03938             -22.00     3600.00
03939             -16.00     3600.00
03940              -2.00     4000.00
03941              -2.00     3600.00
03942              22.00     3600.00
03943             -16.00     3800.00
03944             -26.00     3600.00
03945               8.00     3800.00
03946              -4.00     4000.00
03947             -14.00     3600.00
03948              12.00     4000.00
03949              -2.00     4000.00
03950             -26.00     4000.00
03951               0.00     4000.00
03952               8.00     4000.00
03953             -14.00     4000.00
03954             -10.00     4000.00
03955              -2.00     4000.00
03956               2.00     4200.00
03957              -2.00     4200.00
03958             -16.00     4200.00
03959              -6.00     4000.00
03960               2.00     4200.00
03961             -14.00     4200.00
03962               0.00     4200.00
03963               6.00     4200.00
03964             -14.00     4200.00
03965             -10.00     4200.00
03966              -2.00     4200.00
03967              -6.00     4400.00
03968              -6.00     4400.00
03969              -2.00     4400.00
03970              -2.00     4400.00
03971              -2.00     4400.00
03972             -10.00     4200.00
03973             -10.00     4200.00
03974               0.00     4400.00
03975              -2.00     4400.00
03976              -6.00     4200.00
03977               0.00     4400.00
03978              -6.00     4200.00
03979             -10.00     4400.00
03980              -8.00     4200.00
03981              -2.00     4200.00
03982              -2.00     4200.00
03983              -2.00     4200.00
03984              -6.00     4200.00
03985             -10.00     4200.00
03986             -10.00     4200.00
03987              -8.00     4200.00
03988              -2.00     4000.00
03989              -2.00     4200.00
03990              -6.00     4200.00
03991              -8.00     4200.00
03992             -10.00     4000.00
03993             -10.00     4200.00
03994              -2.00     4000.00
03995              -2.00     4200.00
03996              -6.00     4000.00
03997              -6.00     4000.00
03998              -6.00     4000.00
03999             -10.00     4000.00
04000              -8.00     4000.00
04001              -4.00     3800.00
04002              -2.00     4000.00
04003              -6.00     4000.00
04004              -8.00     3800.00
04005              -6.00     3800.00
04006              -6.00     3800.00
04007              -8.00     3600.00
04008              -6.00     3600.00
04009               0.00     3600.00
04010              -2.00     3600.00
04011              -6.00     3600.00
04012              -4.00     3600.00
04013              -6.00     3600.00
04014              -4.00     3400.00
04015              -6.00     3400.00
04016              -2.00     3400.00
04017              -6.00     3400.00
04018              -6.00     3400.00
04019              -8.00     3400.00
04020              -2.00     3200.00
04021              -6.00     3000.00
04022               0.00     3200.00
04023               0.00     3200.00
04024              -6.00     3200.00
04025              -6.00     3200.00
04026              -4.00     3200.00
04027              -6.00     2800.00
04028              -2.00     2800.00
04029              -6.00     2800.00
04030              -2.00     2600.00
04031              -4.00     2800.00
04032              -6.00     2600.00
04033              -6.00     2600.00
04034              -2.00     2400.00
04035              -2.00     2400.00
04036              -2.00     2400.00
04037              -2.00     2600.00
04038              -8.00     2400.00
04039              -8.00     2400.00
04040              -6.00     2200.00
04041              -2.00     2200.00
04042              -2.00     2000.00
04043              -2.00     2000.00
04044              -6.00     2000.00
04045              -8.00     1800.00
04046              -8.00     1800.00
04047              -6.00     1800.00
04048               0.00     1600.00
04049               0.00     1600.00
04050              -6.00     1600.00
04051              -6.00     1400.00
04052              -6.00     1400.00
04053              -8.00     1200.00
04054              -2.00     1400.00
04055              -2.00     1200.00
04056              -2.00     1200.00
04057              -6.00     1200.00
04058             -10.00     1000.00
04059              -2.00     1200.00
04060              -6.00     1000.00
04061              -6.00      800.00
04062               0.00      800.00
04063              -2.00      600.00
04064              -2.00      800.00
04065             -10.00      400.00
04066              -8.00      400.00
04067              -2.00      400.00
04068              -2.00      400.00
04069              -8.00      400.00
04070               0.00      200.00
04071              -2.00      200.00
04072              -4.00      200.00
04073               0.00        0.00
04074               8.00        0.00
04075              16.00        0.00
04076              -2.00        0.00
04077             -16.00        0.00
04078             -12.00     -400.00
04079               2.00     -400.00
04080              32.00     -400.00
04081             134.00     -400.00
04082             116.00     -600.00
04083            -254.00     -800.00
04084            -254.00     -600.00
04085             216.00     -400.00
04086             246.00     -800.00
04087              82.00    -1200.00
04088            -254.00     -800.00
04089            -142.00     -800.00
04090             246.00    -1000.00
04091             126.00    -1200.00
04092            -254.00    -1000.00
04093            -114.00    -1200.00
04094             246.00    -1200.00
04095             118.00    -1400.00
04096             -34.00    -1400.00
04097            -202.00    -1600.00
04098            -176.00    -1400.00
04099             246.00    -1600.00
04100             246.00    -1800.00
04101            -254.00    -1600.00
04102            -222.00    -2000.00
04103             144.00    -2000.00
04104             142.00    -1800.00
04105              18.00    -2200.00
04106            -130.00    -2200.00
04107            -112.00    -2000.00
04108             126.00    -2200.00
04109             136.00    -2400.00
04110            -150.00    -2400.00
04111             -88.00    -2200.00
04112              98.00    -2600.00
04113              46.00    -2400.00
04114             -26.00    -2400.00
04115             -42.00    -2600.00
04116             -26.00    -2600.00
04117              32.00    -2600.00
04118              40.00    -2800.00
04119             -42.00    -2800.00
04120             -32.00    -2800.00
04121              18.00    -2800.00
04122              24.00    -2800.00
04123              -6.00    -3000.00
04124             -24.00    -3000.00
04125             -10.00    -3000.00
04126              16.00    -3200.00
04127               8.00    -3200.00
04128             -30.00    -3200.00
04129              -8.00    -3200.00
04130              22.00    -3200.00
04131              -2.00    -3200.00
04132             -22.00    -3200.00
04133               6.00    -3400.00
04134               8.00    -3600.00
04135              -2.00    -3400.00
04136              -2.00    -3600.00
04137             -10.00    -3400.00
04138              -8.00    -3600.00
04139               2.00    -3600.00
04140               6.00    -3600.00
04141              -2.00    -3600.00
04142              -6.00    -3600.00
04143              -2.00    -3800.00
04144               8.00    -3600.00
04145              -4.00    -3800.00
04146             -12.00    -3800.00
04147               2.00    -3800.00
04148               8.00    -3800.00
04149              -2.00    -3800.00
04150              -4.00    -3800.00
04151              -2.00    -3800.00
04152               0.00    -3800.00
04153              -2.00    -3800.00
04154               0.00    -3800.00
04155               2.00    -4000.00
04156               0.00    -4000.00
04157             -10.00    -3800.00
04158              -8.00    -4000.00
04159               0.00    -4000.00
04160               0.00    -4000.00
04161               6.00    -4000.00
04162               6.00    -4000.00
04163              -2.00    -4000.00
04164             -10.00    -4000.00
04165              -2.00    -4000.00
04166               2.00    -4000.00
04167               2.00    -4000.00
04168               0.00    -4000.00
04169              -2.00    -4000.00
04170              -2.00    -4000.00
04171              -8.00    -3800.00
04172               0.00    -3800.00
04173               6.00    -3800.00
04174               0.00    -4000.00
04175               0.00    -4000.00
04176               0.00    -4000.00
04177              -6.00    -4000.00
04178              -6.00    -4000.00
04179               0.00    -4000.00
04180               2.00    -3800.00
04181               2.00    -3800.00
04182               0.00    -3800.00
04183              -6.00    -3800.00
04184              -6.00    -3800.00
04185              -2.00    -3800.00
04186               0.00    -3800.00
04187               0.00    -3800.00
04188               0.00    -3600.00
04189              -4.00    -3800.00
04190              -2.00    -3600.00
04191              -6.00    -3600.00
04192              -2.00    -3600.00
04193               0.00    -3600.00
04194               2.00    -3600.00
04195               0.00    -3600.00
04196               0.00    -3600.00
04197              -2.00    -3400.00
04198              -2.00    -3400.00
04199              -4.00    -3400.00
04200               0.00    -3200.00
04201               2.00    -3200.00
04202               0.00    -3400.00
04203               0.00    -3200.00
04204               0.00    -3200.00
04205              -2.00    -3200.00
04206               0.00    -3200.00
04207               0.00    -3200.00
04208               2.00    -3000.00
04209              -2.00    -3000.00
04210              -4.00    -3000.00
04211              -6.00    -3000.00
04212               0.00    -2800.00
04213               0.00    -2800.00
04214               2.00    -2800.00
04215               2.00    -2800.00
04216               0.00    -2800.00
04217              -6.00    -2800.00
04218              -2.00    -2600.00
04219               0.00    -2400.00
04220               0.00    -2400.00
04221               0.00    -2400.00
04222               0.00    -2200.00
04223               0.00    -2400.00
04224              -2.00    -2200.00
04225              -2.00    -2400.00
04226               0.00    -2000.00
04227               0.00    -2200.00
04228               2.00    -2200.00
04229               0.00    -2000.00
04230               0.00    -2000.00
04231              -8.00    -2000.00
04232              -6.00    -1600.00
04233               0.00    -1600.00
04234               2.00    -1600.00
04235               4.00    -1600.00
04236               0.00    -1400.00
04237              -2.00    -1600.00
04238              -2.00    -1400.00
04239              -2.00    -1400.00
04240               2.00    -1200.00
04241               2.00    -1200.00
04242              -2.00    -1000.00
04243              -8.00    -1200.00
04244             -10.00    -1400.00
04245              -6.00     -800.00
04246               0.00    -1000.00
04247               6.00     -800.00
04248               2.00     -800.00
04249              -8.00     -600.00
04250              -8.00     -800.00
04251              -4.00     -600.00
04252               0.00     -600.00
04253               0.00     -400.00
04254              -4.00     -400.00
04255              -2.00     -400.00
04256              -2.00     -200.00
04257              -2.00     -200.00
04258              -2.00        0.00
04259              -2.00        0.00
04260              -2.00        0.00
04261              -8.00        0.00
04262              -6.00      200.00
04263               0.00      200.00
04264               2.00      200.00
04265               0.00      400.00
04266               6.00      400.00
04267               0.00      400.00
04268              -6.00      400.00
04269              -8.00      800.00
04270              -2.00      600.00
04271              16.00      800.00
04272             126.00     1000.00
04273             160.00     1000.00
04274            -254.00      800.00
04275            -254.00      800.00
04276             224.00     1000.00
04277             246.00     1200.00
04278              72.00     1200.00
04279            -254.00      800.00
04280            -104.00     1400.00
04281             246.00     1600.00
04282              24.00     1200.00
04283            -254.00     1600.00
04284              84.00     2000.00
04285             246.00     1600.00
04286            -120.00     1600.00
04287             -74.00     2000.00
04288              22.00     2000.00
04289            -160.00     1600.00
04290             122.00     2000.00
04291             218.00     2000.00
04292            -230.00     2000.00
04293             -84.00     2000.00
04294             130.00     2400.00
04295             -30.00     2000.00
04296              50.00     2400.00
04297               8.00     2600.00
04298            -202.00     2200.00
04299             128.00     2600.00
04300             170.00     2600.00
04301            -238.00     2400.00
04302             -26.00     2800.00
04303             162.00     2800.00
04304             -82.00     2600.00
04305              -4.00     2800.00
04306              34.00     3000.00
04307             -90.00     2800.00
04308              50.00     3000.00
04309              34.00     3200.00
04310             -78.00     3000.00
04311              36.00     3200.00
04312             -16.00     3200.00
04313             -32.00     3200.00
04314              66.00     3400.00
04315             -44.00     3400.00
04316             -50.00     3400.00
04317              50.00     3400.00
04318             -14.00     3400.00
04319             -24.00     3200.00
04320              24.00     3800.00
04321             -18.00     3400.00
04322             -14.00     3600.00
04323             -10.00     3600.00
04324              -8.00     3600.00
04325              22.00     3600.00
04326             -10.00     3600.00
04327             -26.00     3600.00
04328               2.00     3800.00
04329              -6.00     4000.00
04330             -16.00     3800.00
04331              14.00     4000.00
04332               2.00     4000.00
04333             -22.00     4000.00
04334              -2.00     4000.00
04335               6.00     4000.00
04336             -14.00     4000.00
04337             -10.00     4000.00
04338               0.00     4200.00
04339               0.00     4000.00
04340              -2.00     4200.00
04341             -18.00     4200.00
04342              -8.00     4200.00
04343               2.00     4200.00
04344             -10.00     4200.00
04345               0.00     4200.00
04346               8.00     4200.00
04347             -10.00     4200.00
04348             -10.00     4200.00
04349               0.00     4400.00
04350              -6.00     4200.00
04351              -8.00     4200.00
04352              -2.00     4200.00
04353              -2.00     4400.00
04354              -6.00     4400.00
04355             -10.00     4400.00
04356              -8.00     4200.00
04357               0.00     4200.00
04358              -2.00     4400.00
04359              -6.00     4400.00
04360               0.00     4400.00
04361              -6.00     4200.00
04362             -10.00     4200.00
04363              -6.00     4200.00
04364               0.00     4400.00
04365              -6.00     4200.00
04366               0.00     4400.00
04367              -2.00     4200.00
04368              -8.00     4400.00
04369              -8.00     4200.00
04370              -6.00     4200.00
04371              -2.00     4000.00
04372              -2.00     4200.00
04373              -2.00     4200.00
04374             -10.00     4200.00
04375             -12.00     4200.00
04376              -8.00     4000.00
04377              -2.00     4200.00
04378               0.00     4000.00
04379              -8.00     4200.00
04380              -8.00     4000.00
04381             -10.00     4000.00
04382              -2.00     4000.00
04383               0.00     4000.00
04384              -6.00     4000.00
04385               0.00     3800.00
04386             -16.00     3800.00
04387             -22.00     3800.00
04388              -8.00     3600.00
04389               8.00     3600.00
04390              10.00     3800.00
04391              -2.00     3600.00
04392             -26.00     3600.00
04393             -26.00     3600.00
04394               6.00     3600.00
04395              22.00     3600.00
04396               2.00     3400.00
04397             -26.00     3400.00
04398             -32.00     3400.00
04399               0.00     3400.00
04400              22.00     3400.00
04401               8.00     3200.00
04402             -16.00     3400.00
04403             -26.00     3200.00
04404             -10.00     3200.00
04405              10.00     3200.00
04406              14.00     3000.00
04407              -8.00     3200.00
04408             -18.00     3200.00
04409             -14.00     3000.00
04410              -2.00     2800.00
04411               6.00     2800.00
04412               2.00     2800.00
04413              -2.00     2600.00
04414             -10.00     2800.00
04415             -18.00     2600.00
04416             -10.00     2800.00
04417               4.00     2600.00
04418               8.00     2600.00
04419               0.00     2400.00
04420              -2.00     2200.00
04421             -10.00     2400.00
04422             -10.00     2400.00
04423              -2.00     2000.00
04424              -4.00     2000.00
04425              -6.00     2000.00
04426             -14.00     2000.00
04427             -14.00     1800.00
04428              18.00     1800.00
04429              10.00     1800.00
04430               2.00     1800.00
04431             -16.00     1800.00
04432               0.00     1600.00
04433               4.00     1600.00
04434              -6.00     1600.00
04435             -26.00     1400.00
04436             -18.00     1200.00
04437              -8.00     1200.00
04438               6.00     1200.00
04439              10.00     1200.00
04440               6.00     1200.00
04441              10.00     1000.00
04442             -10.00     1000.00
04443             -26.00      800.00
04444             -18.00      800.00
04445              -2.00      800.00
04446               8.00      600.00
04447               6.00      800.00
04448              -8.00      600.00
04449              -6.00      400.00
04450             -10.00      400.00
04451             -10.00      400.00
04452               8.00      400.00
04453               8.00      200.00
04454              -8.00      200.00
04455             -14.00        0.00
04456             -14.00        0.00
04457              -2.00        0.00
04458              16.00        0.00
04459               2.00        0.00
04460              -2.00        0.00
04461               0.00     -400.00
04462              -2.00     -400.00
04463              22.00     -400.00
04464             118.00     -400.00
04465             118.00     -600.00
04466            -242.00     -800.00
04467            -254.00     -600.00
04468             160.00     -400.00
04469             246.00     -800.00
04470             174.00    -1000.00
04471            -254.00     -800.00
04472            -214.00    -1000.00
04473             246.00    -1200.00
04474             184.00    -1000.00
04475            -254.00    -1000.00
04476            -154.00    -1200.00
04477             246.00    -1400.00
04478             136.00    -1400.00
04479             -26.00    -1400.00
04480            -194.00    -1400.00
04481            -190.00    -1400.00
04482             230.00    -1600.00
04483             246.00    -1600.00
04484            -238.00    -1600.00
04485            -240.00    -1800.00
04486             122.00    -2000.00
04487             150.00    -2000.00
04488              30.00    -2000.00
04489            -114.00    -2200.00
04490            -118.00    -2000.00
04491             112.00    -2000.00
04492             146.00    -2400.00
04493            -142.00    -2200.00
04494             -90.00    -2400.00
04495              94.00    -2400.00
04496              48.00    -2400.00
04497             -32.00    -2400.00
04498             -34.00    -2600.00
04499             -22.00    -2600.00
04500              30.00    -2600.00
04501              40.00    -2800.00
04502             -44.00    -2800.00
04503             -34.00    -2800.00
04504              16.00    -3000.00
04505              26.00    -2800.00
04506              -8.00    -2800.00
04507             -24.00    -3000.00
04508             -14.00    -3000.00
04509              22.00    -3000.00
04510              12.00    -3200.00
04511             -26.00    -3200.00
04512             -10.00    -3200.00
04513              18.00    -3400.00
04514              -2.00    -3200.00
04515             -22.00    -3200.00
04516               0.00    -3400.00
04517              10.00    -3600.00
04518               2.00    -3400.00
04519              -4.00    -3400.00
04520             -12.00    -3600.00
04521              -8.00    -3600.00
04522               2.00    -3600.00
04523               6.00    -3600.00
04524               0.00    -3600.00
04525              -8.00    -3600.00
04526              -4.00    -3800.00
04527               8.00    -3600.00
04528              -4.00    -3800.00
04529             -10.00    -3800.00
04530               2.00    -3800.00
04531               6.00    -3800.00
04532              -6.00    -3800.00
04533              -8.00    -3800.00
04534               0.00    -3800.00
04535               6.00    -3800.00
04536               0.00    -4000.00
04537              -2.00    -4000.00
04538               0.00    -3800.00
04539               0.00    -3800.00
04540              -2.00    -4000.00
04541               0.00    -3800.00
04542               0.00    -3800.00
04543              -2.00    -4000.00
04544               2.00    -4000.00
04545               8.00    -4000.00
04546               0.00    -3800.00
04547              -6.00    -4000.00
04548              -4.00    -4000.00
04549               2.00    -4000.00
04550               0.00    -4000.00
04551               0.00    -4000.00
04552               0.00    -4000.00
04553               0.00    -4200.00
04554              -2.00    -4000.00
04555               0.00    -4000.00
04556               2.00    -4000.00
04557               0.00    -3800.00
04558               0.00    -4000.00
04559               2.00    -3800.00
04560              -4.00    -3800.00
04561              -6.00    -4000.00
04562               0.00    -3800.00
04563               6.00    -4000.00
04564               6.00    -3600.00
04565               2.00    -3800.00
04566              -4.00    -3800.00
04567              -6.00    -3800.00
04568              -2.00    -3800.00
04569               0.00    -3800.00
04570               2.00    -3600.00
04571               2.00    -3800.00
04572              -2.00    -3800.00
04573              -2.00    -3600.00
04574              -6.00    -3600.00
04575               0.00    -3600.00
04576               0.00    -3600.00
04577               4.00    -3600.00
04578              -2.00    -3600.00
04579              -2.00    -3600.00
04580              -6.00    -3400.00
04581              -2.00    -3600.00
04582               0.00    -3600.00
04583               2.00    -3400.00
04584               0.00    -3400.00
04585              -2.00    -3200.00
04586              -8.00    -3200.00
04587               0.00    -3200.00
04588               6.00    -3200.00
04589               2.00    -3000.00
04590             -10.00    -3200.00
04591              -8.00    -3200.00
04592               0.00    -3000.00
04593               2.00    -3000.00
04594               0.00    -2800.00
04595               4.00    -2800.00
04596              -2.00    -2800.00
04597              -8.00    -2800.00
04598              -6.00    -2800.00
04599              -2.00    -2800.00
04600               0.00    -2600.00
04601               4.00    -2400.00
04602               0.00    -2400.00
04603              -2.00    -2600.00
04604              -6.00    -2400.00
04605             -14.00    -2400.00
04606             -10.00    -2400.00
04607               6.00    -2400.00
04608              10.00    -2200.00
04609              10.00    -2000.00
04610              -8.00    -2000.00
04611             -16.00    -2200.00
04612             -10.00    -2000.00
04613               0.00    -2000.00
04614               8.00    -1800.00
04615               8.00    -1800.00
04616              -8.00    -1600.00
04617             -18.00    -1600.00
04618             -12.00    -1600.00
04619               8.00    -1400.00
04620              22.00    -1600.00
04621               4.00    -1400.00
04622             -18.00    -1400.00
04623             -18.00    -1400.00
04624               0.00    -1400.00
04625              12.00    -1000.00
04626               6.00    -1000.00
04627             -10.00    -1000.00
04628             -10.00    -1000.00
04629               2.00     -800.00
04630               8.00     -800.00
04631               2.00     -800.00
04632              -6.00     -600.00
04633             -12.00     -800.00
04634              -6.00     -600.00
04635              -6.00     -600.00
04636              -2.00     -400.00
04637               0.00     -400.00
04638               6.00     -400.00
04639               0.00     -200.00
04640              -6.00     -400.00
04641             -10.00        0.00
04642              -8.00        0.00
04643              -2.00        0.00
04644              -6.00        0.00
04645               0.00      200.00
04646               8.00      200.00
04647               0.00      200.00
04648              -8.00      400.00
04649               2.00      400.00
04650               8.00      400.00
04651               0.00      400.00
04652             -10.00      400.00
04653             -10.00      800.00
04654              14.00      600.00
04655             120.00      800.00
04656             170.00     1000.00
04657            -242.00      800.00
04658            -254.00      800.00
04659             176.00     1000.00
04660             246.00     1200.00
04661             152.00     1200.00
04662            -254.00      800.00
04663            -178.00     1600.00
04664             246.00     1600.00
04665             106.00     1200.00
04666            -254.00     1600.00
04667              30.00     2000.00
04668             246.00     1600.00
04669             -96.00     1600.00
04670             -90.00     1800.00
04671              24.00     1800.00
04672            -170.00     1800.00
04673             104.00     2000.00
04674             238.00     2000.00
04675            -216.00     2000.00
04676            -106.00     2200.00
04677             126.00     2200.00
04678             -22.00     2000.00
04679              42.00     2400.00
04680              18.00     2400.00
04681            -208.00     2400.00
04682             110.00     2600.00
04683             192.00     2600.00
04684            -224.00     2400.00
04685             -48.00     2800.00
04686             166.00     2800.00
04687             -74.00     2600.00
04688             -14.00     2800.00
04689              40.00     2800.00
04690             -90.00     2800.00
04691              40.00     3000.00
04692              46.00     3200.00
04693             -76.00     3200.00
04694              30.00     3200.00
04695             -10.00     3200.00
04696             -38.00     3200.00
04697              70.00     3400.00
04698             -34.00     3200.00
04699             -56.00     3200.00
04700              46.00     3400.00
04701             -10.00     3600.00
04702             -24.00     3400.00
04703              28.00     3600.00
04704             -12.00     3400.00
04705             -18.00     3600.00
04706             -14.00     3600.00
04707              -6.00     3600.00
04708              22.00     3600.00
04709              -6.00     3600.00
04710             -30.00     3600.00
04711               4.00     3800.00
04712              -6.00     3800.00
04713             -16.00     3800.00
04714              10.00     4000.00
04715               2.00     4000.00
04716             -20.00     4000.00
04717              -6.00     4000.00
04718               6.00     4000.00
04719             -10.00     4000.00
04720             -10.00     4000.00
04721               0.00     4000.00
04722               2.00     4200.00
04723               0.00     4000.00
04724             -14.00     4200.00
04725              -8.00     4000.00
04726               2.00     4400.00
04727             -10.00     4200.00
04728               0.00     4200.00
04729              14.00     4400.00
04730             -14.00     4200.00
04731             -18.00     4200.00
04732              -8.00     4400.00
04733              -6.00     4200.00
04734               2.00     4200.00
04735               6.00     4400.00
04736               0.00     4200.00
04737             -10.00     4400.00
04738             -16.00     4400.00
04739              -8.00     4200.00
04740               6.00     4400.00
04741               0.00     4200.00
04742              -8.00     4400.00
04743              -2.00     4400.00
04744              -6.00     4400.00
04745             -10.00     4200.00
04746              -2.00     4400.00
04747              -2.00     4200.00
04748              -6.00     4400.00
04749              -2.00     4400.00
04750              -4.00     4200.00
04751              -8.00     4200.00
04752             -10.00     4400.00
04753              -2.00     4200.00
04754              -2.00     4200.00
04755              -2.00     4200.00
04756              -2.00     4200.00
04757              -6.00     4200.00
04758             -10.00     4200.00
04759             -10.00     4000.00
04760              -4.00     4200.00
04761               0.00     4200.00
04762               0.00     4000.00
04763              -6.00     4000.00
04764              -6.00     4000.00
04765             -10.00     4000.00
04766             -10.00     4000.00
04767              -8.00     4000.00
04768               0.00     4000.00
04769              -2.00     3800.00
04770              -2.00     3800.00
04771              -6.00     3600.00
04772             -10.00     3600.00
04773             -10.00     3600.00
04774              -4.00     3800.00
04775               0.00     3600.00
04776               0.00     3600.00
04777              -8.00     3600.00
04778              -8.00     3600.00
04779              -6.00     3400.00
04780              -8.00     3400.00
04781              -2.00     3400.00
04782              -2.00     3400.00
04783              -6.00     3200.00
04784             -10.00     3400.00
04785              -8.00     3400.00
04786              -6.00     3400.00
04787              -8.00     3200.00
04788              -6.00     3200.00
04789               0.00     3200.00
04790              -6.00     3200.00
04791             -10.00     3000.00
04792              -8.00     3200.00
04793              -2.00     2800.00
04794              -2.00     2800.00
04795              -6.00     3000.00
04796              -4.00     2600.00
04797              -6.00     2600.00
04798             -10.00     2600.00
04799              -6.00     2600.00
04800               0.00     2600.00
04801              -2.00     2600.00
04802              -2.00     2600.00
04803              -6.00     2400.00
04804              -6.00     2400.00
04805              -8.00     2200.00
04806              -6.00     2000.00
04807              -2.00     2000.00
04808              -2.00     2000.00
04809              -2.00     2000.00
04810              -2.00     2000.00
04811              -2.00     1800.00
04812              -6.00     2000.00
04813              -6.00     1800.00
04814              -2.00     1600.00
04815              -2.00     1600.00
04816              -6.00     1600.00
04817              -4.00     1600.00
04818              -6.00     1600.00
04819              -6.00     1400.00
04820              -4.00     1200.00
04821               0.00     1200.00
04822               0.00     1200.00
04823              -2.00     1200.00
04824              -6.00     1000.00
04825              -6.00     1000.00
04826              -4.00     1000.00
04827              -6.00      800.00
04828              -2.00      800.00
04829              -2.00      800.00
04830              -2.00      600.00
04831              -8.00      600.00
04832              -8.00      400.00
04833              -2.00      600.00
04834               0.00      400.00
04835              -6.00      400.00
04836              -6.00      400.00
04837              -2.00      200.00
04838               0.00      200.00
04839              -2.00      200.00
04840               0.00        0.00
04841               6.00        0.00
04842              -6.00        0.00
04843              -8.00     -400.00
04844              -6.00     -200.00
04845               0.00     -400.00
04846              22.00     -400.00
04847             118.00     -400.00
04848             128.00     -600.00
04849            -212.00     -800.00
04850            -254.00     -800.00
04851             110.00     -600.00
04852             246.00     -800.00
04853             236.00    -1000.00
04854            -254.00    -1000.00
04855            -254.00     -800.00
04856             246.00    -1200.00
04857             246.00    -1000.00
04858            -254.00    -1200.00
04859            -198.00    -1200.00
04860             246.00    -1400.00
04861             136.00    -1400.00
04862             -18.00    -1600.00
04863            -182.00    -1600.00
04864            -202.00    -1400.00
04865             206.00    -1600.00
04866             246.00    -1800.00
04867            -214.00    -1600.00
04868            -242.00    -1800.00
04869             112.00    -2000.00
04870             150.00    -2000.00
04871              26.00    -2000.00
04872            -112.00    -2200.00
04873            -120.00    -2000.00
04874             102.00    -2200.00
04875             160.00    -2200.00
04876            -136.00    -2400.00
04877            -104.00    -2400.00
04878              86.00    -2400.00
04879              62.00    -2400.00
04880             -26.00    -2400.00
04881             -32.00    -2800.00
04882             -24.00    -2600.00
04883              30.00    -2600.00
04884              42.00    -2800.00
04885             -38.00    -2800.00
04886             -34.00    -2800.00
04887              20.00    -2800.00
04888              32.00    -2800.00
04889              -6.00    -2800.00
04890             -24.00    -3000.00
04891             -14.00    -3000.00
04892              22.00    -3000.00
04893              14.00    -3200.00
04894             -24.00    -3200.00
04895             -10.00    -3000.00
04896              24.00    -3200.00
04897               2.00    -3200.00
04898             -24.00    -3200.00
04899               0.00    -3400.00
04900               8.00    -3200.00
04901               2.00    -3400.00
04902               0.00    -3400.00
04903              -8.00    -3600.00
04904             -10.00    -3600.00
04905               2.00    -3600.00
04906               6.00    -3600.00
04907               0.00    -3600.00
04908              -6.00    -3600.00
04909              -4.00    -3600.00
04910               2.00    -3800.00
04911              -6.00    -3800.00
04912             -10.00    -3600.00
04913               6.00    -3800.00
04914               8.00    -3800.00
04915              -2.00    -3600.00
04916              -8.00    -3800.00
04917              -6.00    -3800.00
04918              -2.00    -3600.00
04919               2.00    -3800.00
04920               0.00    -3800.00
04921               4.00    -3800.00
04922               4.00    -3800.00
04923             -10.00    -3800.00
04924              -4.00    -3800.00
04925               0.00    -3800.00
04926               0.00    -3800.00
04927               6.00    -3800.00
04928               6.00    -4000.00
04929              -6.00    -3800.00
04930              -8.00    -3800.00
04931              -2.00    -4000.00
04932               2.00    -3800.00
04933               4.00    -4000.00
04934               2.00    -3800.00
04935              -2.00    -4000.00
04936               0.00    -3800.00
04937              -2.00    -4000.00
04938              -2.00    -3800.00
04939               4.00    -4000.00
04940               0.00    -4000.00
04941               0.00    -4000.00
04942               0.00    -3800.00
04943               0.00    -3800.00
04944              -2.00    -3800.00
04945               0.00    -3800.00
04946               2.00    -3600.00
04947               4.00    -3800.00
04948               0.00    -3800.00
04949              -2.00    -3800.00
04950               0.00    -3800.00
04951              -2.00    -3800.00
04952               0.00    -3600.00
04953               0.00    -3600.00
04954               2.00    -3600.00
04955               2.00    -3800.00
04956               0.00    -3600.00
04957              -8.00    -3600.00
04958              -8.00    -3600.00
04959               0.00    -3600.00
04960               8.00    -3600.00
04961               6.00    -3600.00
04962              -6.00    -3600.00
04963             -16.00    -3600.00
04964              -2.00    -3200.00
04965               8.00    -3400.00
04966               6.00    -3400.00
04967              -8.00    -3200.00
04968             -14.00    -3200.00
04969               0.00    -3200.00
04970              18.00    -3200.00
04971               0.00    -3200.00
04972             -20.00    -3000.00
04973             -14.00    -3200.00
04974               8.00    -3000.00
04975              22.00    -3000.00
04976              -2.00    -3000.00
04977             -26.00    -3000.00
04978             -16.00    -2800.00
04979               6.00    -2800.00
04980              16.00    -2800.00
04981               6.00    -2800.00
04982              -8.00    -2800.00
04983             -16.00    -2600.00
04984              -2.00    -2600.00
04985              -2.00    -2400.00
04986              -6.00    -2400.00
04987               0.00    -2400.00
04988               6.00    -2400.00
04989               8.00    -2400.00
04990              -2.00    -2200.00
04991             -18.00    -2200.00
04992             -10.00    -2200.00
04993              10.00    -2000.00
04994              16.00    -2000.00
04995               0.00    -2000.00
04996             -16.00    -2000.00
04997             -14.00    -1600.00
04998               8.00    -1800.00
04999              14.00    -1600.00
05000               0.00    -1600.00
