Unit:(mV)
                     CH1         CH2
Frequency              ?           ?
00001               4.00    -2400.00
00002               6.00    -2400.00
00003               6.00    -2400.00
00004               4.00    -2400.00
00005               6.00    -2200.00
00006               6.00    -2200.00
00007               2.00    -2200.00
00008               2.00    -2200.00
00009               4.00    -2200.00
00010               2.00    -2000.00
00011               4.00    -2000.00
00012               2.00    -2000.00
00013               0.00    -2000.00
00014               0.00    -1800.00
00015               0.00    -1600.00
00016               2.00    -1800.00
00017               4.00    -1600.00
00018               0.00    -1600.00
00019               2.00    -1600.00
00020               0.00    -1400.00
00021               0.00    -1400.00
00022              -2.00    -1200.00
00023               0.00    -1200.00
00024               2.00    -1200.00
00025               0.00    -1000.00
00026              -2.00    -1000.00
00027               0.00    -1200.00
00028              -2.00    -1000.00
00029              -2.00    -1000.00
00030               0.00     -800.00
00031               2.00     -800.00
00032              -2.00     -600.00
00033              -2.00     -600.00
00034               0.00     -600.00
00035              -2.00     -600.00
00036              -2.00     -400.00
00037              -2.00     -200.00
00038               0.00     -200.00
00039              -2.00     -200.00
00040              -6.00        0.00
00041              -2.00        0.00
00042              -2.00        0.00
00043              -2.00        0.00
00044              -2.00      200.00
00045               0.00      200.00
00046               0.00      200.00
00047               0.00      400.00
00048               0.00      200.00
00049               8.00      400.00
00050               0.00      400.00
00051              -4.00      600.00
00052              -8.00      600.00
00053               0.00      800.00
00054              22.00      800.00
00055             128.00     1000.00
00056              86.00     1200.00
00057            -254.00      800.00
00058            -254.00      800.00
00059             246.00     1200.00
00060             246.00     1400.00
00061            -254.00     1000.00
00062            -254.00     1200.00
00063             246.00     1600.00
00064             246.00     1600.00
00065            -254.00     1200.00
00066            -230.00     1600.00
00067             246.00     1800.00
00068              22.00     1600.00
00069            -254.00     1400.00
00070             142.00     2000.00
00071             200.00     2000.00
00072            -216.00     1600.00
00073               0.00     2000.00
00074             144.00     2000.00
00075            -130.00     1800.00
00076             -16.00     2200.00
00077              64.00     2400.00
00078             -54.00     2000.00
00079              22.00     2400.00
00080             -28.00     2400.00
00081             -70.00     2400.00
00082             118.00     2600.00
00083             -34.00     2600.00
00084            -150.00     2600.00
00085             114.00     2800.00
00086              26.00     2800.00
00087            -126.00     2600.00
00088              62.00     3000.00
00089               0.00     3200.00
00090             -72.00     2800.00
00091              58.00     3200.00
00092             -34.00     3200.00
00093             -46.00     3200.00
00094              48.00     3200.00
00095             -48.00     3200.00
00096             -18.00     3200.00
00097              40.00     3400.00
00098             -58.00     3400.00
00099             -10.00     3400.00
00100              24.00     3600.00
00101             -42.00     3400.00
00102              -6.00     3600.00
00103              10.00     3600.00
00104             -22.00     3600.00
00105             -16.00     3600.00
00106             -18.00     3600.00
00107               0.00     3600.00
00108               2.00     3600.00
00109             -32.00     3800.00
00110             -10.00     4000.00
00111               0.00     3800.00
00112             -28.00     4000.00
00113             -14.00     3800.00
00114               6.00     4000.00
00115             -10.00     4000.00
00116             -24.00     4000.00
00117              -6.00     4200.00
00118              -6.00     4000.00
00119             -22.00     4000.00
00120             -14.00     4200.00
00121              -2.00     4200.00
00122              -8.00     4000.00
00123             -18.00     4200.00
00124             -16.00     4200.00
00125              -6.00     4400.00
00126             -16.00     4200.00
00127             -22.00     4200.00
00128              -6.00     4200.00
00129              -6.00     4200.00
00130             -22.00     4400.00
00131             -14.00     4400.00
00132             -10.00     4400.00
00133             -14.00     4400.00
00134             -16.00     4200.00
00135              -8.00     4200.00
00136              -8.00     4400.00
00137             -16.00     4400.00
00138             -18.00     4400.00
00139             -10.00     4400.00
00140             -10.00     4200.00
00141             -16.00     4200.00
00142             -10.00     4400.00
00143              -8.00     4400.00
00144             -16.00     4200.00
00145             -18.00     4400.00
00146             -12.00     4200.00
00147             -10.00     4400.00
00148             -10.00     4400.00
00149             -10.00     4200.00
00150             -10.00     4200.00
00151             -16.00     4200.00
00152             -16.00     4200.00
00153             -14.00     4000.00
00154              -8.00     4200.00
00155             -14.00     4200.00
00156             -14.00     4000.00
00157             -12.00     4200.00
00158             -16.00     4200.00
00159             -16.00     4200.00
00160             -10.00     4200.00
00161             -10.00     4000.00
00162             -16.00     4000.00
00163             -10.00     4000.00
00164             -10.00     4000.00
00165             -16.00     4000.00
00166             -16.00     4000.00
00167             -10.00     4000.00
00168              -8.00     4000.00
00169             -10.00     4000.00
00170             -14.00     3800.00
00171             -10.00     4000.00
00172             -14.00     3800.00
00173             -14.00     4000.00
00174             -10.00     3800.00
00175             -10.00     3600.00
00176             -12.00     3600.00
00177             -10.00     3600.00
00178             -10.00     3600.00
00179             -14.00     3400.00
00180             -10.00     3400.00
00181             -10.00     3400.00
00182              -8.00     3400.00
00183             -12.00     3400.00
00184             -14.00     3400.00
00185              -8.00     3400.00
00186             -12.00     3200.00
00187             -10.00     3200.00
00188              -8.00     3200.00
00189              -8.00     3200.00
00190              -8.00     3200.00
00191             -14.00     3000.00
00192              -8.00     3000.00
00193             -10.00     2800.00
00194             -10.00     3000.00
00195              -8.00     2800.00
00196              -8.00     2800.00
00197             -10.00     2600.00
00198             -10.00     2600.00
00199             -10.00     2600.00
00200              -8.00     2600.00
00201             -10.00     2600.00
00202              -6.00     2400.00
00203              -8.00     2400.00
00204             -10.00     2400.00
00205             -14.00     2200.00
00206             -12.00     2000.00
00207              -6.00     2200.00
00208              -8.00     2000.00
00209              -8.00     2000.00
00210              -6.00     2000.00
00211             -10.00     1800.00
00212             -10.00     1800.00
00213              -8.00     1800.00
00214              -8.00     1600.00
00215              -8.00     1600.00
00216              -6.00     1600.00
00217              -2.00     1600.00
00218              -6.00     1600.00
00219              -8.00     1400.00
00220             -10.00     1200.00
00221              -6.00     1200.00
00222              -8.00     1200.00
00223              -8.00     1200.00
00224              -4.00     1000.00
00225              -6.00     1000.00
00226              -8.00     1000.00
00227             -10.00      800.00
00228              -6.00      800.00
00229              -6.00      800.00
00230              -2.00      800.00
00231              -6.00      400.00
00232              -6.00      400.00
00233              -2.00      400.00
00234              -6.00      400.00
00235              -8.00      400.00
00236              -2.00      200.00
00237               0.00      200.00
00238               0.00        0.00
00239              -2.00        0.00
00240               2.00        0.00
00241               6.00        0.00
00242              -2.00        0.00
00243              -6.00     -200.00
00244              -2.00     -400.00
00245               6.00     -400.00
00246              28.00     -400.00
00247             118.00     -400.00
00248              76.00     -600.00
00249            -250.00     -800.00
00250            -254.00     -400.00
00251             238.00     -400.00
00252             246.00     -800.00
00253            -190.00    -1000.00
00254            -254.00     -800.00
00255             246.00    -1200.00
00256             246.00    -1000.00
00257            -254.00    -1000.00
00258            -254.00    -1200.00
00259             246.00    -1400.00
00260             128.00    -1200.00
00261            -254.00    -1400.00
00262              34.00    -1600.00
00263              78.00    -1400.00
00264            -114.00    -1400.00
00265              92.00    -1600.00
00266             112.00    -1600.00
00267            -168.00    -1600.00
00268             -42.00    -2000.00
00269             158.00    -2000.00
00270             -18.00    -1800.00
00271             -68.00    -2200.00
00272               6.00    -2000.00
00273              24.00    -2000.00
00274              32.00    -2200.00
00275              -6.00    -2400.00
00276             -66.00    -2200.00
00277              24.00    -2400.00
00278              62.00    -2400.00
00279             -22.00    -2400.00
00280             -24.00    -2400.00
00281               6.00    -2800.00
00282              18.00    -2600.00
00283               8.00    -2800.00
00284             -10.00    -2600.00
00285             -14.00    -2800.00
00286              14.00    -2800.00
00287              16.00    -2800.00
00288               0.00    -3000.00
00289             -10.00    -3000.00
00290               0.00    -3000.00
00291              10.00    -3000.00
00292               8.00    -3200.00
00293               2.00    -3000.00
00294              -8.00    -3200.00
00295              10.00    -3200.00
00296              16.00    -3200.00
00297             -14.00    -3200.00
00298              -8.00    -3200.00
00299              30.00    -3200.00
00300              16.00    -3200.00
00301              -6.00    -3600.00
00302               6.00    -3200.00
00303              -2.00    -3600.00
00304               0.00    -3600.00
00305              -8.00    -3600.00
00306               8.00    -3600.00
00307              14.00    -3600.00
00308              20.00    -3600.00
00309              10.00    -3600.00
00310              10.00    -3600.00
00311               6.00    -3600.00
00312              -8.00    -3800.00
00313              -2.00    -3800.00
00314               6.00    -3800.00
00315               6.00    -3800.00
00316              10.00    -3800.00
00317              16.00    -3800.00
00318               6.00    -3800.00
00319              14.00    -3800.00
00320              14.00    -3800.00
00321               6.00    -4000.00
00322               0.00    -4000.00
00323               0.00    -3800.00
00324              -2.00    -4000.00
00325               6.00    -3800.00
00326              14.00    -4000.00
00327              14.00    -3800.00
00328              18.00    -4000.00
00329               2.00    -4000.00
00330               2.00    -3800.00
00331              14.00    -3800.00
00332               8.00    -4000.00
00333               0.00    -3800.00
00334               6.00    -3800.00
00335               8.00    -3800.00
00336               2.00    -4000.00
00337               2.00    -4000.00
00338               8.00    -3800.00
00339              18.00    -3800.00
00340              10.00    -3800.00
00341               0.00    -3800.00
00342               6.00    -4000.00
00343               6.00    -3800.00
00344              -2.00    -3800.00
00345              10.00    -3800.00
00346              16.00    -3800.00
00347               2.00    -3800.00
00348               6.00    -3800.00
00349               0.00    -3600.00
00350               6.00    -3800.00
00351              10.00    -3800.00
00352               8.00    -3800.00
00353               6.00    -3800.00
00354               6.00    -3600.00
00355               0.00    -3600.00
00356               2.00    -3800.00
00357              10.00    -3600.00
00358               8.00    -3600.00
00359              10.00    -3600.00
00360               0.00    -3600.00
00361              -6.00    -3600.00
00362               6.00    -3600.00
00363              18.00    -3600.00
00364              14.00    -3600.00
00365               0.00    -3400.00
00366              -2.00    -3200.00
00367               2.00    -3200.00
00368              10.00    -3200.00
00369               8.00    -3200.00
00370               2.00    -3200.00
00371               6.00    -3000.00
00372               6.00    -3000.00
00373               6.00    -3200.00
00374               6.00    -3000.00
00375               6.00    -3000.00
00376               4.00    -2800.00
00377               6.00    -3000.00
00378               0.00    -3000.00
00379               0.00    -2800.00
00380               6.00    -2800.00
00381               8.00    -2800.00
00382              10.00    -2800.00
00383               6.00    -2800.00
00384               2.00    -2800.00
00385               2.00    -2600.00
00386               0.00    -2400.00
00387               2.00    -2400.00
00388               6.00    -2400.00
00389               6.00    -2400.00
00390               4.00    -2200.00
00391               0.00    -2200.00
00392               6.00    -2000.00
00393               6.00    -2000.00
00394               6.00    -2000.00
00395               0.00    -2000.00
00396               0.00    -2000.00
00397               0.00    -1800.00
00398               2.00    -2000.00
00399               2.00    -1600.00
00400               6.00    -1600.00
00401               6.00    -1600.00
00402               0.00    -1600.00
00403               0.00    -1600.00
00404              -4.00    -1400.00
00405              -2.00    -1400.00
00406               6.00    -1200.00
00407               2.00    -1200.00
00408              -2.00    -1000.00
00409              -2.00    -1000.00
00410              -6.00    -1000.00
00411              -2.00    -1000.00
00412               2.00     -800.00
00413               2.00     -800.00
00414               2.00     -800.00
00415              -2.00     -800.00
00416              -6.00     -600.00
00417               0.00     -600.00
00418              -2.00     -600.00
00419              -2.00     -400.00
00420              -2.00     -400.00
00421               0.00     -400.00
00422              -2.00     -400.00
00423              -2.00        0.00
00424              -6.00        0.00
00425              -2.00        0.00
00426              -6.00      200.00
00427              -6.00      200.00
00428               0.00      200.00
00429               2.00        0.00
00430              -4.00      400.00
00431               0.00      200.00
00432               8.00      200.00
00433               4.00      400.00
00434               0.00      600.00
00435              -8.00      800.00
00436              -4.00      800.00
00437              16.00      800.00
00438             118.00      800.00
00439             102.00     1000.00
00440            -254.00      800.00
00441            -254.00      800.00
00442             246.00     1200.00
00443             246.00     1400.00
00444            -252.00     1000.00
00445            -254.00     1000.00
00446             246.00     1600.00
00447             246.00     1600.00
00448            -254.00     1200.00
00449            -254.00     1600.00
00450             246.00     2000.00
00451              84.00     1600.00
00452            -254.00     1600.00
00453              98.00     2000.00
00454             230.00     1800.00
00455            -204.00     1600.00
00456             -26.00     2000.00
00457             156.00     2000.00
00458            -120.00     2000.00
00459             -32.00     2200.00
00460              72.00     2400.00
00461             -48.00     2400.00
00462              16.00     2400.00
00463             -16.00     2400.00
00464             -78.00     2400.00
00465             112.00     2600.00
00466             -16.00     2400.00
00467            -158.00     2600.00
00468             102.00     2800.00
00469              46.00     2800.00
00470            -130.00     2800.00
00471              54.00     3000.00
00472              10.00     2800.00
00473             -78.00     3000.00
00474              56.00     3200.00
00475             -26.00     3000.00
00476             -54.00     3200.00
00477              48.00     3200.00
00478             -42.00     3200.00
00479             -24.00     3200.00
00480              46.00     3400.00
00481             -58.00     3200.00
00482             -16.00     3400.00
00483              26.00     3400.00
00484             -42.00     3400.00
00485             -10.00     3600.00
00486              16.00     3600.00
00487             -22.00     3600.00
00488             -18.00     3600.00
00489             -22.00     3600.00
00490              -2.00     3600.00
00491               6.00     3600.00
00492             -30.00     3800.00
00493             -14.00     3800.00
00494               2.00     4000.00
00495             -26.00     3800.00
00496             -16.00     4000.00
00497               4.00     4000.00
00498             -10.00     4000.00
00499             -22.00     4000.00
00500              -6.00     4000.00
00501              -6.00     4000.00
00502             -22.00     4000.00
00503             -16.00     4200.00
00504              -2.00     4000.00
00505              -6.00     4200.00
00506             -16.00     4200.00
00507             -18.00     4200.00
00508              -6.00     4000.00
00509             -14.00     4200.00
00510             -22.00     4200.00
00511               0.00     4200.00
00512              -4.00     4200.00
00513             -22.00     4200.00
00514             -16.00     4200.00
00515              -8.00     4200.00
00516             -10.00     4200.00
00517             -14.00     4400.00
00518              -8.00     4400.00
00519              -8.00     4400.00
00520             -16.00     4400.00
00521             -16.00     4400.00
00522             -10.00     4200.00
00523             -10.00     4400.00
00524             -14.00     4400.00
00525             -10.00     4400.00
00526              -8.00     4400.00
00527             -16.00     4400.00
00528             -16.00     4400.00
00529             -10.00     4400.00
00530             -12.00     4400.00
00531             -14.00     4400.00
00532              -8.00     4200.00
00533             -14.00     4200.00
00534             -16.00     4200.00
00535             -18.00     4400.00
00536             -14.00     4200.00
00537              -6.00     4200.00
00538             -10.00     4200.00
00539             -14.00     4200.00
00540             -14.00     4000.00
00541             -18.00     4200.00
00542             -14.00     4200.00
00543              -8.00     4000.00
00544             -14.00     4200.00
00545             -18.00     4000.00
00546             -12.00     4000.00
00547              -8.00     4000.00
00548             -14.00     4000.00
00549             -14.00     4000.00
00550             -10.00     4000.00
00551             -10.00     4000.00
00552             -14.00     4000.00
00553             -16.00     3800.00
00554             -10.00     4000.00
00555             -14.00     3800.00
00556             -16.00     3600.00
00557             -10.00     3800.00
00558             -10.00     3600.00
00559             -10.00     3600.00
00560             -14.00     3600.00
00561             -10.00     3600.00
00562             -14.00     3600.00
00563             -14.00     3400.00
00564             -10.00     3600.00
00565              -8.00     3400.00
00566             -10.00     3400.00
00567             -14.00     3400.00
00568             -10.00     3400.00
00569             -10.00     3400.00
00570             -10.00     3200.00
00571             -10.00     3200.00
00572             -10.00     3200.00
00573             -10.00     3200.00
00574             -12.00     3200.00
00575              -6.00     3000.00
00576             -10.00     2800.00
00577             -14.00     2800.00
00578             -10.00     2800.00
00579              -6.00     2800.00
00580              -8.00     2800.00
00581             -10.00     2600.00
00582             -10.00     2600.00
00583              -8.00     2600.00
00584             -10.00     2400.00
00585             -10.00     2600.00
00586              -8.00     2400.00
00587              -8.00     2400.00
00588             -10.00     2400.00
00589             -10.00     2200.00
00590              -8.00     2000.00
00591              -6.00     2000.00
00592              -8.00     2000.00
00593              -4.00     1800.00
00594              -8.00     2000.00
00595             -10.00     1800.00
00596             -10.00     1800.00
00597              -8.00     1600.00
00598              -6.00     1600.00
00599              -8.00     1600.00
00600              -6.00     1600.00
00601              -8.00     1400.00
00602             -10.00     1600.00
00603              -8.00     1400.00
00604              -4.00     1200.00
00605              -6.00     1200.00
00606              -8.00     1200.00
00607              -8.00     1000.00
00608              -6.00      800.00
00609              -8.00     1000.00
00610              -8.00      800.00
00611              -2.00      800.00
00612              -2.00      800.00
00613              -6.00      800.00
00614             -10.00      600.00
00615              -6.00      400.00
00616              -6.00      400.00
00617              -2.00      400.00
00618              -4.00      400.00
00619              -6.00      200.00
00620              -2.00      200.00
00621               0.00        0.00
00622              -2.00        0.00
00623               6.00        0.00
00624               6.00        0.00
00625              -2.00        0.00
00626              -6.00        0.00
00627               0.00        0.00
00628               4.00     -400.00
00629              24.00     -400.00
00630             110.00     -600.00
00631              86.00     -800.00
00632            -226.00     -800.00
00633            -254.00     -600.00
00634             200.00     -600.00
00635             246.00     -800.00
00636            -122.00    -1000.00
00637            -254.00     -800.00
00638             196.00    -1000.00
00639             246.00    -1200.00
00640            -254.00    -1000.00
00641            -254.00    -1000.00
00642             246.00    -1200.00
00643             172.00    -1200.00
00644            -254.00    -1400.00
00645              10.00    -1600.00
00646              90.00    -1600.00
00647            -114.00    -1400.00
00648              72.00    -1600.00
00649             130.00    -1600.00
00650            -160.00    -1600.00
00651             -62.00    -2000.00
00652             158.00    -2000.00
00653              -2.00    -2000.00
00654             -72.00    -2000.00
00655               2.00    -2200.00
00656              26.00    -2000.00
00657              30.00    -2200.00
00658               6.00    -2400.00
00659             -66.00    -2200.00
00660              18.00    -2400.00
00661              66.00    -2400.00
00662             -16.00    -2400.00
00663             -30.00    -2600.00
00664               6.00    -2600.00
00665              20.00    -2400.00
00666              12.00    -2800.00
00667              -6.00    -2800.00
00668             -14.00    -2800.00
00669              14.00    -2800.00
00670              16.00    -2800.00
00671               0.00    -3000.00
00672              -6.00    -3000.00
00673               2.00    -3000.00
00674              10.00    -3000.00
00675               8.00    -3000.00
00676               0.00    -3200.00
00677              -8.00    -3200.00
00678              14.00    -3200.00
00679              18.00    -3200.00
00680             -10.00    -3200.00
00681             -14.00    -3200.00
00682              22.00    -3400.00
00683              14.00    -3400.00
00684              -2.00    -3400.00
00685               6.00    -3600.00
00686               2.00    -3600.00
00687               0.00    -3600.00
00688               8.00    -3400.00
00689               6.00    -3800.00
00690               6.00    -3600.00
00691               6.00    -3600.00
00692               6.00    -3600.00
00693               8.00    -3800.00
00694               2.00    -3800.00
00695              -2.00    -3600.00
00696              16.00    -3800.00
00697              14.00    -3800.00
00698              -2.00    -3800.00
00699               4.00    -3800.00
00700              10.00    -3800.00
00701               2.00    -3800.00
00702               6.00    -3800.00
00703              10.00    -3800.00
00704               8.00    -3800.00
00705               6.00    -4000.00
00706               4.00    -3800.00
00707               6.00    -3600.00
00708              10.00    -3800.00
00709               8.00    -4000.00
00710               8.00    -4000.00
00711              14.00    -4000.00
00712               6.00    -3800.00
00713               2.00    -4000.00
00714               8.00    -4000.00
00715               6.00    -4000.00
00716               8.00    -3800.00
00717              14.00    -4000.00
00718               8.00    -4000.00
00719               8.00    -4000.00
00720               6.00    -3800.00
00721               6.00    -4000.00
00722              14.00    -4000.00
00723               8.00    -3800.00
00724               6.00    -4000.00
00725              10.00    -3800.00
00726               2.00    -3800.00
00727               2.00    -4000.00
00728              14.00    -3800.00
00729              10.00    -3800.00
00730               6.00    -3800.00
00731               2.00    -3800.00
00732               0.00    -4000.00
00733               6.00    -3800.00
00734              10.00    -3600.00
00735               8.00    -3800.00
00736               8.00    -3600.00
00737               0.00    -3600.00
00738               2.00    -3800.00
00739               6.00    -3600.00
00740               8.00    -3600.00
00741               4.00    -3600.00
00742               8.00    -3600.00
00743               6.00    -3600.00
00744               8.00    -3600.00
00745               6.00    -3600.00
00746               2.00    -3600.00
00747               6.00    -3400.00
00748               6.00    -3600.00
00749               6.00    -3400.00
00750               6.00    -3400.00
00751               6.00    -3200.00
00752               0.00    -3200.00
00753               4.00    -3000.00
00754               6.00    -3200.00
00755               6.00    -3200.00
00756               8.00    -3200.00
00757               6.00    -3200.00
00758               2.00    -3000.00
00759               2.00    -3000.00
00760               6.00    -3000.00
00761               4.00    -2800.00
00762               8.00    -2800.00
00763               2.00    -2800.00
00764               4.00    -2800.00
00765               0.00    -2800.00
00766               0.00    -2600.00
00767               6.00    -2600.00
00768               8.00    -2400.00
00769               6.00    -2400.00
00770               2.00    -2400.00
00771               0.00    -2400.00
00772               0.00    -2400.00
00773               2.00    -2200.00
00774               6.00    -2200.00
00775               6.00    -2200.00
00776               2.00    -2000.00
00777               0.00    -2000.00
00778               0.00    -2200.00
00779               2.00    -1800.00
00780               0.00    -1800.00
00781               2.00    -1800.00
00782               2.00    -1800.00
00783               4.00    -1600.00
00784               0.00    -1600.00
00785               0.00    -1600.00
00786               0.00    -1400.00
00787               0.00    -1400.00
00788               2.00    -1400.00
00789               2.00    -1200.00
00790               2.00    -1000.00
00791              -2.00    -1200.00
00792               0.00    -1000.00
00793               0.00    -1000.00
00794               0.00     -800.00
00795               0.00    -1000.00
00796              -2.00     -600.00
00797              -2.00     -800.00
00798              -2.00     -600.00
00799               0.00     -800.00
00800              -2.00     -600.00
00801              -2.00     -600.00
00802              -2.00     -400.00
00803              -4.00     -400.00
00804               0.00     -200.00
00805              -2.00     -200.00
00806              -2.00     -200.00
00807              -2.00        0.00
00808              -2.00        0.00
00809              -4.00        0.00
00810              -2.00      200.00
00811              -6.00      200.00
00812               0.00      200.00
00813               2.00      200.00
00814               0.00      400.00
00815               6.00      400.00
00816               0.00      400.00
00817              -8.00      400.00
00818              -6.00      600.00
00819              -2.00      600.00
00820              10.00      800.00
00821             112.00      800.00
00822             114.00     1000.00
00823            -248.00      800.00
00824            -254.00      800.00
00825             226.00     1200.00
00826             246.00     1600.00
00827            -176.00     1200.00
00828            -254.00     1000.00
00829             246.00     1600.00
00830             246.00     1600.00
00831            -254.00     1200.00
00832            -254.00     1600.00
00833             246.00     1800.00
00834             146.00     1600.00
00835            -254.00     1600.00
00836              54.00     2000.00
00837             246.00     2000.00
00838            -192.00     1800.00
00839             -50.00     2000.00
00840             166.00     2000.00
00841            -112.00     2000.00
00842             -48.00     2000.00
00843              80.00     2400.00
00844             -44.00     2200.00
00845               6.00     2400.00
00846              -2.00     2400.00
00847             -80.00     2400.00
00848             102.00     2600.00
00849               8.00     2600.00
00850            -162.00     2600.00
00851              86.00     2800.00
00852              70.00     2800.00
00853            -130.00     2600.00
00854              36.00     3000.00
00855              26.00     2800.00
00856             -80.00     2800.00
00857              54.00     3200.00
00858              -8.00     2800.00
00859             -64.00     3200.00
00860              46.00     3200.00
00861             -34.00     3200.00
00862             -30.00     3400.00
00863              50.00     3400.00
00864             -46.00     3400.00
00865             -32.00     3400.00
00866              22.00     3600.00
00867             -32.00     3400.00
00868             -10.00     3400.00
00869              18.00     3600.00
00870             -24.00     3600.00
00871             -24.00     3600.00
00872             -18.00     3800.00
00873               0.00     3600.00
00874               8.00     3600.00
00875             -26.00     3800.00
00876             -16.00     3600.00
00877              -2.00     3600.00
00878             -24.00     4000.00
00879             -16.00     4000.00
00880               6.00     4000.00
00881              -8.00     4000.00
00882             -24.00     4000.00
00883             -10.00     4000.00
00884              -2.00     4200.00
00885             -18.00     4000.00
00886             -22.00     4200.00
00887              -2.00     4200.00
00888              -8.00     4000.00
00889             -16.00     4200.00
00890             -16.00     4000.00
00891             -10.00     4200.00
00892             -16.00     4200.00
00893             -22.00     4200.00
00894              -2.00     4200.00
00895              -2.00     4400.00
00896             -16.00     4400.00
00897             -18.00     4200.00
00898             -10.00     4200.00
00899             -16.00     4400.00
00900             -14.00     4400.00
00901              -6.00     4400.00
00902              -6.00     4400.00
00903             -16.00     4200.00
00904             -20.00     4400.00
00905             -14.00     4200.00
00906             -10.00     4400.00
00907             -10.00     4200.00
00908              -6.00     4400.00
00909              -6.00     4400.00
00910             -14.00     4200.00
00911             -22.00     4400.00
00912             -16.00     4400.00
00913              -6.00     4400.00
00914              -8.00     4400.00
00915             -10.00     4200.00
00916             -14.00     4400.00
00917             -16.00     4200.00
00918             -18.00     4400.00
00919             -10.00     4200.00
00920              -8.00     4400.00
00921             -10.00     4400.00
00922             -10.00     4200.00
00923             -10.00     4200.00
00924             -16.00     4200.00
00925             -16.00     4200.00
00926             -10.00     4200.00
00927             -10.00     4000.00
00928             -16.00     4000.00
00929             -14.00     4000.00
00930             -10.00     4000.00
00931             -14.00     4000.00
00932             -16.00     4000.00
00933             -14.00     3800.00
00934             -14.00     4000.00
00935             -14.00     3800.00
00936             -10.00     3800.00
00937              -8.00     3800.00
00938             -18.00     3600.00
00939             -22.00     3600.00
00940             -18.00     3800.00
00941              -6.00     3800.00
00942              -6.00     3600.00
00943             -14.00     3600.00
00944             -16.00     3600.00
00945             -16.00     3600.00
00946             -16.00     3600.00
00947              -8.00     3400.00
00948              -8.00     3400.00
00949             -10.00     3400.00
00950             -14.00     3400.00
00951             -10.00     3400.00
00952             -14.00     3200.00
00953             -14.00     3200.00
00954             -12.00     3200.00
00955              -6.00     3200.00
00956              -6.00     3000.00
00957             -10.00     3200.00
00958             -16.00     3000.00
00959             -14.00     2800.00
00960              -8.00     2800.00
00961              -6.00     2800.00
00962             -10.00     2800.00
00963             -12.00     2600.00
00964             -14.00     2800.00
00965              -6.00     2600.00
00966              -6.00     2600.00
00967              -8.00     2600.00
00968             -10.00     2400.00
00969             -10.00     2400.00
00970              -8.00     2400.00
00971              -8.00     2200.00
00972              -6.00     2200.00
00973              -8.00     2200.00
00974              -8.00     2200.00
00975              -8.00     2000.00
00976              -6.00     2000.00
00977              -6.00     2000.00
00978              -8.00     1800.00
00979              -8.00     1800.00
00980              -6.00     1800.00
00981              -8.00     1800.00
00982              -6.00     1600.00
00983              -6.00     1600.00
00984              -8.00     1600.00
00985             -10.00     1600.00
00986              -8.00     1200.00
00987              -2.00     1400.00
00988              -2.00     1200.00
00989              -6.00     1200.00
00990             -10.00      800.00
00991             -10.00     1000.00
00992              -8.00     1000.00
00993              -6.00     1000.00
00994               0.00      800.00
00995               0.00      800.00
00996              -8.00      800.00
00997             -10.00      800.00
00998              -6.00      600.00
00999              -2.00      400.00
01000              -4.00      400.00
01001              -6.00      400.00
01002              -4.00      200.00
01003               0.00      200.00
01004               0.00      200.00
01005              -2.00        0.00
01006               2.00        0.00
01007               6.00        0.00
01008              -2.00        0.00
01009              -8.00     -400.00
01010              -6.00     -200.00
01011               0.00     -400.00
01012              22.00     -400.00
01013             104.00     -400.00
01014              96.00     -800.00
01015            -200.00     -800.00
01016            -254.00     -600.00
01017             160.00     -600.00
01018             246.00     -800.00
01019             -54.00    -1000.00
01020            -254.00     -800.00
01021             136.00     -800.00
01022             246.00    -1200.00
01023            -254.00    -1000.00
01024            -254.00    -1000.00
01025             246.00    -1400.00
01026             208.00    -1200.00
01027            -250.00    -1400.00
01028             -14.00    -1400.00
01029             102.00    -1600.00
01030            -106.00    -1400.00
01031              54.00    -1800.00
01032             144.00    -1600.00
01033            -150.00    -1800.00
01034             -78.00    -2000.00
01035             154.00    -2000.00
01036              14.00    -2000.00
01037             -76.00    -2000.00
01038              -6.00    -2200.00
01039              24.00    -2000.00
01040              32.00    -2200.00
01041              14.00    -2400.00
01042             -66.00    -2200.00
01043              14.00    -2400.00
01044              62.00    -2400.00
01045             -10.00    -2400.00
01046             -26.00    -2400.00
01047               6.00    -2600.00
01048              22.00    -2800.00
01049              10.00    -2600.00
01050              -6.00    -2600.00
01051             -14.00    -2800.00
01052              22.00    -2800.00
01053              16.00    -2800.00
01054               2.00    -3000.00
01055              -8.00    -3000.00
01056               0.00    -3000.00
01057              14.00    -3000.00
01058               8.00    -3000.00
01059               2.00    -3200.00
01060              -6.00    -3200.00
01061               8.00    -3200.00
01062              18.00    -3200.00
01063              -6.00    -3200.00
01064             -14.00    -3200.00
01065              24.00    -3200.00
01066              16.00    -3600.00
01067              -6.00    -3200.00
01068               0.00    -3200.00
01069               2.00    -3600.00
01070               0.00    -3600.00
01071              14.00    -3400.00
01072              10.00    -3600.00
01073               2.00    -3600.00
01074               2.00    -3600.00
01075               6.00    -3800.00
01076              10.00    -3600.00
01077               2.00    -3600.00
01078               0.00    -3800.00
01079              14.00    -3600.00
01080              16.00    -3800.00
01081               0.00    -3800.00
01082               0.00    -3800.00
01083               8.00    -3800.00
01084               6.00    -4000.00
01085               6.00    -3800.00
01086              10.00    -3800.00
01087               8.00    -4000.00
01088               8.00    -4000.00
01089               6.00    -4000.00
01090               2.00    -3800.00
01091               6.00    -4000.00
01092               6.00    -4000.00
01093               6.00    -3800.00
01094              14.00    -3800.00
01095               8.00    -4000.00
01096               0.00    -3800.00
01097               4.00    -4000.00
01098               8.00    -3800.00
01099               8.00    -4000.00
01100              10.00    -3800.00
01101               8.00    -4000.00
01102               2.00    -3800.00
01103               2.00    -4000.00
01104               6.00    -4000.00
01105              10.00    -3800.00
01106               8.00    -3800.00
01107               8.00    -4000.00
01108              10.00    -3800.00
01109               2.00    -3800.00
01110               6.00    -3800.00
01111               8.00    -3800.00
01112               6.00    -3800.00
01113              10.00    -3800.00
01114               6.00    -3800.00
01115               6.00    -3800.00
01116               8.00    -3800.00
01117               6.00    -3800.00
01118               0.00    -3800.00
01119              12.00    -3800.00
01120               6.00    -3600.00
01121               2.00    -3800.00
01122              10.00    -3800.00
01123               2.00    -3800.00
01124               0.00    -3600.00
01125               8.00    -3600.00
01126               6.00    -3600.00
01127               8.00    -3400.00
01128               6.00    -3600.00
01129               0.00    -3400.00
01130               6.00    -3200.00
01131               6.00    -3400.00
01132               2.00    -3400.00
01133               8.00    -3200.00
01134               6.00    -3200.00
01135               0.00    -3200.00
01136               2.00    -3200.00
01137               2.00    -3200.00
01138               2.00    -3200.00
01139               8.00    -3000.00
01140               6.00    -3000.00
01141               4.00    -3000.00
01142               2.00    -2800.00
01143              -2.00    -2800.00
01144              -2.00    -2800.00
01145               8.00    -2800.00
01146               8.00    -2800.00
01147               6.00    -2800.00
01148               2.00    -2600.00
01149               0.00    -2800.00
01150               2.00    -2600.00
01151               6.00    -2400.00
01152               6.00    -2600.00
01153               6.00    -2400.00
01154               4.00    -2400.00
01155               0.00    -2400.00
01156               0.00    -2400.00
01157               2.00    -2200.00
01158               6.00    -2000.00
01159               6.00    -2200.00
01160               2.00    -2000.00
01161               2.00    -2000.00
01162               2.00    -2000.00
01163               0.00    -2000.00
01164               0.00    -2000.00
01165               6.00    -1600.00
01166               2.00    -1600.00
01167               2.00    -1400.00
01168               0.00    -1600.00
01169               0.00    -1400.00
01170               0.00    -1400.00
01171               2.00    -1400.00
01172               2.00    -1400.00
01173               0.00    -1400.00
01174               0.00    -1000.00
01175               0.00    -1200.00
01176               2.00     -800.00
01177               2.00    -1000.00
01178              -2.00    -1000.00
01179              -2.00     -800.00
01180               0.00     -800.00
01181              -2.00     -600.00
01182               0.00     -600.00
01183               0.00     -400.00
01184              -2.00     -600.00
01185              -6.00     -400.00
01186               2.00     -400.00
01187              -2.00     -400.00
01188              -6.00     -400.00
01189              -6.00        0.00
01190              -2.00        0.00
01191               0.00        0.00
01192              -2.00        0.00
01193              -8.00        0.00
01194              -2.00        0.00
01195               2.00      400.00
01196              -2.00      400.00
01197               0.00      400.00
01198               8.00      400.00
01199               0.00      400.00
01200              -6.00      600.00
01201              -6.00      800.00
01202              -2.00      600.00
01203              14.00      800.00
01204             102.00     1000.00
01205             126.00     1200.00
01206            -218.00      800.00
01207            -254.00      800.00
01208             182.00     1200.00
01209             246.00     1200.00
01210            -106.00     1200.00
01211            -254.00      800.00
01212             198.00     1400.00
01213             246.00     1600.00
01214            -254.00     1200.00
01215            -254.00     1400.00
01216             246.00     1800.00
01217             206.00     1600.00
01218            -254.00     1400.00
01219               8.00     2000.00
01220             246.00     2000.00
01221            -174.00     1800.00
01222             -78.00     2000.00
01223             176.00     2000.00
01224             -96.00     1800.00
01225             -60.00     2200.00
01226              78.00     2400.00
01227             -42.00     2000.00
01228               2.00     2400.00
01229               4.00     2400.00
01230             -90.00     2400.00
01231              94.00     2800.00
01232              30.00     2600.00
01233            -168.00     2600.00
01234              72.00     2800.00
01235              84.00     2800.00
01236            -130.00     2800.00
01237              30.00     3000.00
01238              38.00     2800.00
01239             -84.00     2800.00
01240              44.00     3200.00
01241              -2.00     3200.00
01242             -66.00     3000.00
01243              48.00     3200.00
01244             -26.00     3200.00
01245             -38.00     3200.00
01246              50.00     3400.00
01247             -42.00     3400.00
01248             -32.00     3400.00
01249              32.00     3400.00
01250             -34.00     3400.00
01251             -22.00     3600.00
01252              18.00     3600.00
01253             -18.00     3400.00
01254             -16.00     3600.00
01255             -20.00     3600.00
01256              -6.00     3600.00
01257               8.00     3600.00
01258             -26.00     3600.00
01259             -18.00     3600.00
01260               6.00     4000.00
01261             -24.00     4000.00
01262             -18.00     3800.00
01263               2.00     4000.00
01264             -10.00     4000.00
01265             -24.00     4000.00
01266             -10.00     4000.00
01267              -6.00     4000.00
01268             -22.00     4000.00
01269             -20.00     4000.00
01270              -6.00     4200.00
01271              -6.00     4200.00
01272             -18.00     4200.00
01273             -18.00     4200.00
01274              -8.00     4200.00
01275             -12.00     4200.00
01276             -22.00     4200.00
01277              -8.00     4200.00
01278              -2.00     4200.00
01279             -20.00     4200.00
01280             -16.00     4200.00
01281             -10.00     4400.00
01282             -14.00     4200.00
01283             -12.00     4200.00
01284              -8.00     4400.00
01285              -8.00     4200.00
01286             -18.00     4400.00
01287             -24.00     4400.00
01288             -10.00     4200.00
01289              -2.00     4400.00
01290             -10.00     4400.00
01291             -14.00     4200.00
01292             -16.00     4400.00
01293             -16.00     4400.00
01294             -14.00     4400.00
01295             -14.00     4400.00
01296             -14.00     4400.00
01297             -10.00     4200.00
01298              -8.00     4400.00
01299             -10.00     4400.00
01300             -16.00     4400.00
01301             -18.00     4400.00
01302             -14.00     4200.00
01303              -8.00     4200.00
01304             -10.00     4200.00
01305             -14.00     4200.00
01306             -10.00     4200.00
01307             -18.00     4200.00
01308             -18.00     4200.00
01309              -6.00     4200.00
01310              -2.00     4200.00
01311             -10.00     4000.00
01312             -14.00     4000.00
01313             -18.00     4000.00
01314             -20.00     4000.00
01315             -18.00     4000.00
01316             -10.00     4000.00
01317              -2.00     4000.00
01318              -8.00     4000.00
01319             -14.00     3800.00
01320             -14.00     4000.00
01321             -10.00     3800.00
01322             -10.00     3800.00
01323             -10.00     3800.00
01324             -18.00     3600.00
01325             -24.00     3600.00
01326             -22.00     3600.00
01327             -16.00     3600.00
01328              -4.00     3600.00
01329               0.00     3400.00
01330               2.00     3400.00
01331              -2.00     3400.00
01332             -16.00     3400.00
01333             -24.00     3400.00
01334             -22.00     3400.00
01335             -22.00     3200.00
01336             -16.00     3200.00
01337              -4.00     3200.00
01338              -2.00     3200.00
01339              -2.00     3200.00
01340              -8.00     3000.00
01341             -16.00     2800.00
01342             -16.00     2800.00
01343             -18.00     2800.00
01344             -10.00     2800.00
01345              -2.00     2800.00
01346              -8.00     2800.00
01347             -10.00     2600.00
01348             -10.00     2600.00
01349              -8.00     2400.00
01350              -8.00     2600.00
01351              -4.00     2400.00
01352             -10.00     2600.00
01353              -8.00     2400.00
01354             -14.00     2400.00
01355             -14.00     2200.00
01356              -8.00     2000.00
01357              -8.00     2000.00
01358              -8.00     2000.00
01359              -6.00     2000.00
01360              -8.00     1800.00
01361             -10.00     2000.00
01362              -6.00     1800.00
01363              -6.00     1600.00
01364              -8.00     1600.00
01365             -10.00     1600.00
01366             -10.00     1600.00
01367              -8.00     1600.00
01368              -2.00     1600.00
01369              -2.00     1400.00
01370               2.00     1200.00
01371              -2.00     1200.00
01372             -10.00     1200.00
01373             -14.00     1200.00
01374              -8.00     1000.00
01375              -6.00     1000.00
01376              -2.00      800.00
01377               0.00      800.00
01378              -2.00      800.00
01379              -6.00      800.00
01380             -10.00      600.00
01381              -8.00      600.00
01382              -2.00      400.00
01383              -4.00      400.00
01384              -8.00      400.00
01385              -8.00      400.00
01386               0.00      200.00
01387               0.00      200.00
01388               2.00        0.00
01389               4.00        0.00
01390               2.00        0.00
01391              -6.00        0.00
01392             -10.00        0.00
01393              -2.00     -200.00
01394               4.00     -400.00
01395              22.00     -400.00
01396              96.00     -400.00
01397             102.00     -600.00
01398            -178.00     -800.00
01399            -254.00     -600.00
01400             118.00     -400.00
01401             246.00     -800.00
01402               8.00     -800.00
01403            -254.00     -800.00
01404              82.00    -1000.00
01405             246.00    -1000.00
01406            -208.00    -1200.00
01407            -254.00    -1000.00
01408             246.00    -1200.00
01409             246.00    -1200.00
01410            -240.00    -1200.00
01411             -32.00    -1400.00
01412             112.00    -1600.00
01413            -104.00    -1400.00
01414              32.00    -1600.00
01415             154.00    -1600.00
01416            -136.00    -1600.00
01417             -94.00    -2000.00
01418             146.00    -2000.00
01419              30.00    -2000.00
01420             -80.00    -2000.00
01421              -8.00    -2200.00
01422              24.00    -2000.00
01423              30.00    -2200.00
01424              18.00    -2400.00
01425             -66.00    -2200.00
01426               8.00    -2400.00
01427              64.00    -2400.00
01428              -6.00    -2400.00
01429             -32.00    -2400.00
01430               6.00    -2600.00
01431              22.00    -2600.00
01432              14.00    -2400.00
01433              -2.00    -2800.00
01434             -16.00    -2800.00
01435              14.00    -2800.00
01436              18.00    -2800.00
01437               2.00    -3000.00
01438              -6.00    -3000.00
01439               2.00    -3000.00
01440              10.00    -3000.00
01441              10.00    -3000.00
01442               6.00    -3000.00
01443              -6.00    -3000.00
01444               8.00    -3200.00
01445              18.00    -3200.00
01446              -6.00    -3200.00
01447             -18.00    -3200.00
01448              20.00    -3200.00
01449              20.00    -3400.00
01450              -2.00    -3400.00
01451               2.00    -3200.00
01452               2.00    -3600.00
01453              -2.00    -3600.00
01454               8.00    -3400.00
01455               8.00    -3400.00
01456               6.00    -3600.00
01457               6.00    -3600.00
01458               2.00    -3600.00
01459               8.00    -3600.00
01460               2.00    -3600.00
01461              -2.00    -3800.00
01462              12.00    -3600.00
01463              14.00    -3600.00
01464              -2.00    -3800.00
01465               6.00    -3800.00
01466               8.00    -3800.00
01467               0.00    -3800.00
01468               0.00    -3800.00
01469               8.00    -3800.00
01470               8.00    -3800.00
01471               8.00    -4000.00
01472               2.00    -3800.00
01473               2.00    -3800.00
01474               8.00    -4000.00
01475               6.00    -4000.00
01476               6.00    -3800.00
01477              14.00    -3800.00
01478               6.00    -3800.00
01479               2.00    -4000.00
01480               6.00    -4000.00
01481               8.00    -4000.00
01482               6.00    -4000.00
01483              10.00    -3800.00
01484              10.00    -4000.00
01485               8.00    -3800.00
01486               6.00    -4000.00
01487               2.00    -3800.00
01488               6.00    -3800.00
01489               8.00    -4000.00
01490               8.00    -3800.00
01491              14.00    -3800.00
01492               8.00    -3800.00
01493               0.00    -3800.00
01494               6.00    -4000.00
01495               8.00    -3800.00
01496               8.00    -3800.00
01497              10.00    -3800.00
01498               6.00    -3600.00
01499               4.00    -3600.00
01500               6.00    -3800.00
01501               4.00    -3800.00
01502              12.00    -3800.00
01503              16.00    -3600.00
01504               8.00    -3600.00
01505               2.00    -3600.00
01506               6.00    -3600.00
01507               0.00    -3600.00
01508              10.00    -3600.00
01509              10.00    -3600.00
01510               2.00    -3600.00
01511               2.00    -3600.00
01512              10.00    -3600.00
01513               6.00    -3600.00
01514               0.00    -3400.00
01515              -2.00    -3200.00
01516              10.00    -3200.00
01517              16.00    -3200.00
01518               4.00    -3200.00
01519              -6.00    -3200.00
01520               0.00    -3200.00
01521               6.00    -3200.00
01522               8.00    -3000.00
01523              10.00    -3000.00
01524               4.00    -3000.00
01525              -2.00    -3000.00
01526               0.00    -3000.00
01527              -2.00    -2800.00
01528               6.00    -2800.00
01529               6.00    -2800.00
01530               6.00    -2800.00
01531               6.00    -2800.00
01532               2.00    -2800.00
01533              -6.00    -2600.00
01534               0.00    -2400.00
01535               6.00    -2400.00
01536              10.00    -2400.00
01537               6.00    -2200.00
01538              -2.00    -2400.00
01539              -2.00    -2200.00
01540               6.00    -2200.00
01541               6.00    -2000.00
01542               6.00    -2200.00
01543               2.00    -2000.00
01544              -2.00    -2000.00
01545               0.00    -2000.00
01546               2.00    -2000.00
01547               6.00    -1800.00
01548               4.00    -1800.00
01549               0.00    -1600.00
01550              -2.00    -1600.00
01551               0.00    -1400.00
01552               2.00    -1600.00
01553               0.00    -1400.00
01554               2.00    -1400.00
01555               2.00    -1200.00
01556               0.00    -1200.00
01557               0.00    -1000.00
01558               0.00    -1000.00
01559               0.00    -1000.00
01560               0.00    -1000.00
01561               0.00     -800.00
01562               2.00     -800.00
01563               0.00     -800.00
01564              -2.00     -800.00
01565               0.00     -800.00
01566               0.00     -600.00
01567               0.00     -600.00
01568              -2.00     -400.00
01569               0.00     -400.00
01570               0.00     -400.00
01571               0.00     -200.00
01572              -2.00     -200.00
01573              -2.00        0.00
01574               0.00        0.00
01575              -2.00        0.00
01576              -6.00        0.00
01577               0.00      400.00
01578               2.00      200.00
01579               0.00      400.00
01580              -2.00      400.00
01581               6.00      400.00
01582               2.00      400.00
01583              -2.00      400.00
01584              -6.00      400.00
01585              -2.00      600.00
01586               8.00      800.00
01587              94.00      800.00
01588             136.00     1000.00
01589            -184.00      800.00
01590            -254.00      800.00
01591             142.00     1200.00
01592             246.00     1400.00
01593             -32.00     1200.00
01594            -254.00      800.00
01595             134.00     1400.00
01596             246.00     1600.00
01597            -254.00     1200.00
01598            -254.00     1400.00
01599             246.00     1800.00
01600             246.00     1600.00
01601            -254.00     1600.00
01602             -38.00     1800.00
01603             246.00     1800.00
01604            -154.00     1800.00
01605            -104.00     1800.00
01606             174.00     2000.00
01607             -80.00     2000.00
01608             -72.00     2000.00
01609              80.00     2400.00
01610             -34.00     2200.00
01611              -6.00     2400.00
01612              10.00     2400.00
01613             -90.00     2200.00
01614              80.00     2600.00
01615              44.00     2400.00
01616            -170.00     2600.00
01617              50.00     2800.00
01618              98.00     2800.00
01619            -130.00     2800.00
01620              16.00     3000.00
01621              48.00     2800.00
01622             -86.00     2800.00
01623              34.00     3000.00
01624               8.00     3200.00
01625             -72.00     3200.00
01626              44.00     3200.00
01627             -16.00     3200.00
01628             -42.00     3200.00
01629              46.00     3400.00
01630             -36.00     3400.00
01631             -34.00     3400.00
01632              34.00     3400.00
01633             -30.00     3400.00
01634             -24.00     3400.00
01635              16.00     3600.00
01636             -16.00     3600.00
01637             -18.00     3800.00
01638             -22.00     3600.00
01639              -8.00     3600.00
01640               8.00     3800.00
01641             -24.00     3800.00
01642             -22.00     4000.00
01643               2.00     3800.00
01644             -22.00     4000.00
01645             -22.00     3800.00
01646               6.00     4000.00
01647              -8.00     4000.00
01648             -26.00     4000.00
01649             -14.00     4200.00
01650              -2.00     4000.00
01651             -18.00     4000.00
01652             -22.00     4000.00
01653              -4.00     4000.00
01654              -8.00     4000.00
01655             -16.00     4200.00
01656             -20.00     4200.00
01657              -8.00     4200.00
01658             -10.00     4200.00
01659             -24.00     4200.00
01660             -10.00     4200.00
01661              -4.00     4200.00
01662             -18.00     4200.00
01663             -16.00     4400.00
01664             -10.00     4400.00
01665             -16.00     4200.00
01666             -16.00     4400.00
01667             -10.00     4400.00
01668              -6.00     4400.00
01669             -12.00     4400.00
01670             -20.00     4400.00
01671             -16.00     4200.00
01672              -8.00     4400.00
01673             -16.00     4200.00
01674             -14.00     4400.00
01675              -8.00     4400.00
01676             -16.00     4400.00
01677             -18.00     4400.00
01678             -14.00     4400.00
01679             -10.00     4400.00
01680             -10.00     4200.00
01681             -10.00     4200.00
01682             -10.00     4200.00
01683             -12.00     4400.00
01684             -18.00     4400.00
01685             -16.00     4200.00
01686             -10.00     4400.00
01687             -10.00     4200.00
01688             -10.00     4400.00
01689             -10.00     4200.00
01690             -16.00     4200.00
01691             -16.00     4200.00
01692             -10.00     4200.00
01693              -8.00     4000.00
01694             -14.00     4200.00
01695             -14.00     4000.00
01696             -14.00     4000.00
01697             -16.00     4000.00
01698             -16.00     4000.00
01699              -8.00     4200.00
01700              -8.00     4000.00
01701             -14.00     4000.00
01702             -14.00     4000.00
01703             -12.00     4000.00
01704             -10.00     3800.00
01705             -16.00     3600.00
01706             -10.00     3800.00
01707             -10.00     3600.00
01708             -14.00     3600.00
01709             -14.00     3600.00
01710             -12.00     3600.00
01711             -14.00     3600.00
01712             -14.00     3600.00
01713             -12.00     3400.00
01714              -8.00     3400.00
01715             -12.00     3400.00
01716             -12.00     3400.00
01717             -12.00     3200.00
01718             -12.00     3400.00
01719             -14.00     3200.00
01720             -10.00     3200.00
01721              -8.00     3000.00
01722             -10.00     3200.00
01723             -10.00     3000.00
01724             -10.00     3000.00
01725             -10.00     2800.00
01726             -12.00     2800.00
01727             -10.00     2800.00
01728             -10.00     2800.00
01729             -10.00     2800.00
01730             -12.00     2800.00
01731             -10.00     2800.00
01732              -8.00     2600.00
01733             -12.00     2400.00
01734              -8.00     2600.00
01735              -6.00     2400.00
01736              -6.00     2200.00
01737             -10.00     2400.00
01738             -10.00     2200.00
01739              -6.00     2200.00
01740             -10.00     2000.00
01741              -8.00     2000.00
01742              -8.00     2000.00
01743              -6.00     2000.00
01744             -10.00     1800.00
01745              -8.00     1800.00
01746              -6.00     1800.00
01747              -6.00     1800.00
01748              -8.00     1600.00
01749              -6.00     1600.00
01750              -6.00     1600.00
01751              -4.00     1400.00
01752              -8.00     1200.00
01753              -8.00     1600.00
01754              -2.00     1200.00
01755              -6.00     1000.00
01756              -6.00     1200.00
01757              -2.00     1000.00
01758              -8.00      800.00
01759             -10.00      800.00
01760              -2.00      800.00
01761              -2.00      800.00
01762              -2.00      800.00
01763              -6.00      800.00
01764              -2.00      400.00
01765              -6.00      600.00
01766              -2.00      400.00
01767              -6.00      200.00
01768              -2.00      400.00
01769               0.00      200.00
01770               0.00      200.00
01771              -2.00        0.00
01772               2.00        0.00
01773               6.00        0.00
01774               0.00        0.00
01775              -8.00     -200.00
01776              -4.00     -400.00
01777               2.00     -400.00
01778              16.00     -400.00
01779              92.00     -400.00
01780             112.00     -600.00
01781            -152.00     -800.00
01782            -254.00     -600.00
01783              78.00     -600.00
01784             246.00     -800.00
01785              68.00    -1000.00
01786            -254.00     -800.00
01787              28.00     -800.00
01788             246.00    -1000.00
01789            -152.00    -1000.00
01790            -254.00    -1200.00
01791             214.00    -1200.00
01792             246.00    -1000.00
01793            -230.00    -1200.00
01794             -58.00    -1600.00
01795             120.00    -1600.00
01796             -96.00    -1400.00
01797               8.00    -1600.00
01798             166.00    -1600.00
01799            -122.00    -1600.00
01800            -110.00    -2000.00
01801             138.00    -2000.00
01802              40.00    -2000.00
01803             -80.00    -2000.00
01804             -12.00    -2200.00
01805              26.00    -2000.00
01806              26.00    -2200.00
01807              18.00    -2200.00
01808             -66.00    -2400.00
01809               0.00    -2400.00
01810              64.00    -2400.00
01811               4.00    -2400.00
01812             -32.00    -2600.00
01813               2.00    -2600.00
01814              18.00    -2400.00
01815              14.00    -2600.00
01816              -2.00    -2800.00
01817             -20.00    -2800.00
01818              14.00    -2800.00
01819              18.00    -2800.00
01820               6.00    -3000.00
01821              -6.00    -2800.00
01822               0.00    -3000.00
01823               8.00    -3000.00
01824              14.00    -3200.00
01825               6.00    -3200.00
01826              -8.00    -3000.00
01827               8.00    -3200.00
01828              24.00    -3200.00
01829              -2.00    -3200.00
01830             -16.00    -3200.00
01831              18.00    -3200.00
01832              18.00    -3400.00
01833              -2.00    -3400.00
01834               6.00    -3400.00
01835               8.00    -3600.00
01836               0.00    -3600.00
01837               8.00    -3400.00
01838               8.00    -3600.00
01839               4.00    -3600.00
01840               6.00    -3600.00
01841               2.00    -3800.00
01842               6.00    -3600.00
01843               6.00    -3600.00
01844              -2.00    -3600.00
01845              10.00    -3800.00
01846              14.00    -3600.00
01847               0.00    -3800.00
01848               0.00    -3800.00
01849               8.00    -3800.00
01850               6.00    -3800.00
01851               2.00    -4000.00
01852               8.00    -3800.00
01853               8.00    -4000.00
01854               8.00    -4000.00
01855               2.00    -3800.00
01856               2.00    -4000.00
01857               6.00    -3800.00
01858               8.00    -4000.00
01859               6.00    -4000.00
01860              12.00    -4000.00
01861               6.00    -4000.00
01862               0.00    -3800.00
01863               6.00    -4000.00
01864               8.00    -4000.00
01865               6.00    -4000.00
01866               8.00    -4000.00
01867               6.00    -4000.00
01868               6.00    -4000.00
01869               6.00    -3800.00
01870               2.00    -4000.00
01871               8.00    -4000.00
01872               8.00    -4000.00
01873               6.00    -4000.00
01874               8.00    -4000.00
01875               8.00    -3800.00
01876               2.00    -4000.00
01877               8.00    -4000.00
01878              10.00    -3800.00
01879               8.00    -3800.00
01880               8.00    -3800.00
01881               6.00    -3800.00
01882               6.00    -3800.00
01883               6.00    -3800.00
01884               6.00    -3600.00
01885              10.00    -3800.00
01886               8.00    -3800.00
01887               6.00    -3600.00
01888               6.00    -3600.00
01889               6.00    -3600.00
01890               6.00    -3600.00
01891               6.00    -3600.00
01892              10.00    -3600.00
01893               8.00    -3400.00
01894               6.00    -3600.00
01895               6.00    -3600.00
01896               6.00    -3400.00
01897               4.00    -3600.00
01898               6.00    -3400.00
01899               8.00    -3200.00
01900               6.00    -3200.00
01901               6.00    -3400.00
01902               2.00    -3200.00
01903               4.00    -3200.00
01904               2.00    -3200.00
01905               6.00    -3200.00
01906               8.00    -3200.00
01907               6.00    -3000.00
01908               2.00    -3000.00
01909               4.00    -2800.00
01910               4.00    -2800.00
01911               6.00    -2800.00
01912               2.00    -2800.00
01913               6.00    -2800.00
01914               2.00    -2800.00
01915               2.00    -2600.00
01916               0.00    -2800.00
01917               2.00    -2600.00
01918               2.00    -2400.00
01919               2.00    -2400.00
01920               6.00    -2200.00
01921               2.00    -2400.00
01922               0.00    -2400.00
01923               2.00    -2200.00
01924               2.00    -2200.00
01925               2.00    -2200.00
01926               2.00    -2000.00
01927               2.00    -2000.00
01928               2.00    -2000.00
01929               2.00    -2000.00
01930               0.00    -1800.00
01931               2.00    -1600.00
01932               4.00    -1600.00
01933               2.00    -1600.00
01934               2.00    -1600.00
01935               0.00    -1600.00
01936               0.00    -1400.00
01937               0.00    -1400.00
01938               2.00    -1000.00
01939               0.00    -1000.00
01940               2.00    -1200.00
01941               2.00    -1000.00
01942               0.00    -1000.00
01943               0.00     -800.00
01944              -2.00     -800.00
01945               0.00     -800.00
01946               2.00     -800.00
01947              -2.00     -800.00
01948              -2.00     -600.00
01949               0.00     -600.00
01950              -2.00     -600.00
01951              -2.00     -400.00
01952              -2.00     -400.00
01953               2.00     -400.00
01954               0.00     -400.00
01955              -2.00        0.00
01956              -2.00        0.00
01957               0.00        0.00
01958               0.00        0.00
01959              -4.00      200.00
01960              -2.00      200.00
01961               2.00      200.00
01962               0.00      400.00
01963               0.00      200.00
01964               8.00      400.00
01965               6.00      400.00
01966              -2.00      600.00
01967              -8.00      400.00
01968              -2.00      600.00
01969               6.00      800.00
01970              86.00      800.00
01971             142.00     1000.00
01972            -154.00      800.00
01973            -254.00      800.00
01974              96.00     1200.00
01975             246.00     1200.00
01976              36.00     1200.00
01977            -254.00      800.00
01978              72.00     1400.00
01979             246.00     1600.00
01980            -254.00     1200.00
01981            -254.00     1400.00
01982             246.00     1800.00
01983             246.00     1600.00
01984            -254.00     1400.00
01985             -82.00     2000.00
01986             246.00     2000.00
01987            -130.00     1600.00
01988            -128.00     1800.00
01989             174.00     2200.00
01990             -64.00     2000.00
01991             -90.00     2000.00
01992              78.00     2400.00
01993             -26.00     2200.00
01994             -16.00     2400.00
01995              18.00     2400.00
01996             -94.00     2400.00
01997              70.00     2600.00
01998              58.00     2600.00
01999            -170.00     2600.00
02000              36.00     2800.00
02001             112.00     2800.00
02002            -126.00     2600.00
02003              -2.00     3000.00
02004              62.00     2800.00
02005             -86.00     2800.00
02006              22.00     3200.00
02007              22.00     3200.00
02008             -72.00     3000.00
02009              38.00     3200.00
02010             -12.00     3200.00
02011             -48.00     3200.00
02012              44.00     3400.00
02013             -30.00     3200.00
02014             -38.00     3400.00
02015              38.00     3600.00
02016             -30.00     3400.00
02017             -40.00     3600.00
02018              14.00     3600.00
02019             -10.00     3600.00
02020             -14.00     3600.00
02021             -14.00     3800.00
02022             -10.00     3600.00
02023               8.00     3800.00
02024             -26.00     4000.00
02025             -22.00     3600.00
02026              10.00     4000.00
02027             -16.00     4000.00
02028             -26.00     4000.00
02029              -6.00     4000.00
02030             -10.00     4000.00
02031             -18.00     4000.00
02032               0.00     4000.00
02033               0.00     4000.00
02034             -26.00     4000.00
02035             -30.00     4200.00
02036              -8.00     4000.00
02037              -2.00     4200.00
02038             -14.00     4200.00
02039             -22.00     4200.00
02040             -10.00     4200.00
02041              -8.00     4200.00
02042             -24.00     4200.00
02043              -8.00     4200.00
02044              -2.00     4200.00
02045             -18.00     4400.00
02046             -18.00     4200.00
02047             -12.00     4400.00
02048             -16.00     4200.00
02049             -14.00     4200.00
02050              -6.00     4200.00
02051              -6.00     4200.00
02052             -14.00     4200.00
02053             -22.00     4200.00
02054             -16.00     4200.00
02055             -14.00     4200.00
02056             -16.00     4400.00
02057             -14.00     4200.00
02058              -8.00     4200.00
02059             -10.00     4400.00
02060             -20.00     4400.00
02061             -10.00     4400.00
02062              -8.00     4400.00
02063             -10.00     4400.00
02064             -14.00     4200.00
02065             -14.00     4200.00
02066             -14.00     4200.00
02067             -20.00     4400.00
02068             -14.00     4000.00
02069              -8.00     4200.00
02070              -8.00     4400.00
02071             -10.00     4200.00
02072             -10.00     4200.00
02073             -14.00     4400.00
02074             -16.00     4200.00
02075             -10.00     4200.00
02076              -8.00     4200.00
02077             -10.00     4200.00
02078             -14.00     4000.00
02079             -10.00     4000.00
02080             -10.00     4200.00
02081             -16.00     4000.00
02082             -10.00     4000.00
02083              -8.00     4000.00
02084             -12.00     4000.00
02085             -12.00     4000.00
02086             -10.00     3800.00
02087             -10.00     3800.00
02088             -16.00     3800.00
02089             -10.00     3600.00
02090              -6.00     3800.00
02091              -4.00     3600.00
02092             -12.00     3600.00
02093             -10.00     3600.00
02094             -14.00     3600.00
02095             -16.00     3400.00
02096             -10.00     3400.00
02097              -6.00     3600.00
02098             -10.00     3600.00
02099             -16.00     3200.00
02100             -14.00     3400.00
02101             -10.00     3200.00
02102             -10.00     3200.00
02103             -10.00     3200.00
02104             -10.00     3200.00
02105             -10.00     3000.00
02106             -10.00     3000.00
02107             -14.00     3200.00
02108             -10.00     2800.00
02109             -10.00     2800.00
02110              -8.00     2800.00
02111              -8.00     2800.00
02112             -10.00     2800.00
02113             -12.00     2600.00
02114             -10.00     2600.00
02115             -10.00     2400.00
02116              -6.00     2400.00
02117              -8.00     2400.00
02118             -10.00     2400.00
02119             -10.00     2400.00
02120             -10.00     2200.00
02121             -10.00     2200.00
02122              -6.00     2000.00
02123              -8.00     2200.00
02124             -10.00     2000.00
02125              -8.00     2000.00
02126             -10.00     1800.00
02127             -10.00     2000.00
02128              -6.00     1800.00
02129              -2.00     1600.00
02130              -6.00     1600.00
02131              -6.00     1600.00
02132              -8.00     1600.00
02133              -8.00     1400.00
02134              -6.00     1400.00
02135              -8.00     1400.00
02136              -4.00     1400.00
02137              -2.00     1200.00
02138              -8.00     1200.00
02139              -6.00     1200.00
02140              -6.00     1000.00
02141              -6.00     1000.00
02142              -8.00     1000.00
02143              -6.00      800.00
02144               0.00      800.00
02145              -2.00      800.00
02146              -6.00      800.00
02147              -6.00      600.00
02148              -4.00      600.00
02149              -2.00      400.00
02150              -4.00      400.00
02151              -2.00      200.00
02152               0.00      200.00
02153               2.00      200.00
02154               2.00      200.00
02155               2.00        0.00
02156               8.00        0.00
02157              -2.00        0.00
02158              -8.00        0.00
02159              -6.00     -200.00
02160               2.00     -200.00
02161              16.00     -400.00
02162              86.00     -400.00
02163             118.00     -600.00
02164            -128.00     -800.00
02165            -254.00     -600.00
02166              34.00     -600.00
02167             246.00     -600.00
02168             128.00    -1000.00
02169            -254.00     -800.00
02170             -30.00    -1000.00
02171             246.00    -1200.00
02172             -92.00    -1000.00
02173            -254.00    -1000.00
02174             178.00    -1200.00
02175             246.00    -1000.00
02176            -216.00    -1200.00
02177             -86.00    -1400.00
02178             126.00    -1600.00
02179             -86.00    -1400.00
02180             -10.00    -1600.00
02181             174.00    -1600.00
02182            -104.00    -1600.00
02183            -122.00    -2000.00
02184             128.00    -2000.00
02185              54.00    -2000.00
02186             -86.00    -2000.00
02187             -16.00    -2000.00
02188              24.00    -2000.00
02189              26.00    -2200.00
02190              26.00    -2200.00
02191             -64.00    -2200.00
02192              -6.00    -2200.00
02193              58.00    -2400.00
02194               8.00    -2200.00
02195             -34.00    -2400.00
02196               2.00    -2600.00
02197              18.00    -2600.00
02198              16.00    -2800.00
02199              -2.00    -2800.00
02200             -18.00    -2800.00
02201              10.00    -2800.00
02202              22.00    -2800.00
02203              10.00    -3000.00
02204              -8.00    -3000.00
02205               0.00    -3200.00
02206               6.00    -3000.00
02207              14.00    -3000.00
02208               6.00    -3000.00
02209              -6.00    -3200.00
02210               4.00    -3200.00
02211              22.00    -3200.00
02212               0.00    -3200.00
02213             -16.00    -3200.00
02214              16.00    -3600.00
02215              18.00    -3200.00
02216               0.00    -3200.00
02217               2.00    -3600.00
02218               6.00    -3600.00
02219               0.00    -3400.00
02220               8.00    -3400.00
02221               8.00    -3600.00
02222               6.00    -3600.00
02223               8.00    -3600.00
02224               2.00    -3600.00
02225               8.00    -3600.00
02226               6.00    -3800.00
02227              -2.00    -3600.00
02228              10.00    -3800.00
02229              16.00    -3800.00
02230               0.00    -3800.00
02231               0.00    -3800.00
02232               8.00    -4000.00
02233               6.00    -3800.00
02234               4.00    -3800.00
02235               8.00    -3800.00
02236              10.00    -3800.00
02237               8.00    -4000.00
02238               4.00    -4000.00
02239               2.00    -3800.00
02240               6.00    -3800.00
02241               6.00    -3800.00
02242               8.00    -3800.00
02243              10.00    -3800.00
02244               6.00    -3800.00
02245               0.00    -4000.00
02246               6.00    -4000.00
02247               6.00    -3800.00
02248               6.00    -4000.00
02249               8.00    -3800.00
02250              10.00    -4000.00
02251               6.00    -4000.00
02252               6.00    -4000.00
02253               2.00    -4000.00
02254               6.00    -3800.00
02255               6.00    -4000.00
02256               8.00    -3800.00
02257               8.00    -3800.00
02258               6.00    -4000.00
02259               0.00    -3800.00
02260               8.00    -3800.00
02261              16.00    -3800.00
02262               8.00    -3800.00
02263               6.00    -3800.00
02264               2.00    -3800.00
02265               6.00    -3800.00
02266               6.00    -3800.00
02267               6.00    -3800.00
02268              10.00    -3600.00
02269               8.00    -3800.00
02270               6.00    -3600.00
02271               6.00    -3800.00
02272               6.00    -3600.00
02273               6.00    -3800.00
02274               8.00    -3600.00
02275               8.00    -3600.00
02276               8.00    -3600.00
02277               6.00    -3400.00
02278               8.00    -3400.00
02279               6.00    -3400.00
02280               6.00    -3400.00
02281               8.00    -3200.00
02282               8.00    -3400.00
02283               6.00    -3200.00
02284               2.00    -3200.00
02285               2.00    -3200.00
02286               6.00    -3000.00
02287               6.00    -3000.00
02288               8.00    -3200.00
02289               8.00    -2800.00
02290               8.00    -3000.00
02291               2.00    -3000.00
02292               4.00    -3000.00
02293               2.00    -3000.00
02294               6.00    -2800.00
02295               6.00    -2800.00
02296               8.00    -2800.00
02297               2.00    -2600.00
02298               0.00    -2800.00
02299               0.00    -2600.00
02300               0.00    -2600.00
02301               2.00    -2600.00
02302               6.00    -2400.00
02303               6.00    -2400.00
02304               6.00    -2400.00
02305               0.00    -2200.00
02306               0.00    -2200.00
02307               2.00    -2200.00
02308               4.00    -2200.00
02309               6.00    -2200.00
02310               2.00    -2000.00
02311               0.00    -2000.00
02312              -2.00    -2000.00
02313               0.00    -1800.00
02314               0.00    -2000.00
02315               2.00    -1600.00
02316               0.00    -1600.00
02317               2.00    -1600.00
02318               0.00    -1600.00
02319              -2.00    -1400.00
02320               0.00    -1400.00
02321               0.00    -1400.00
02322               2.00    -1000.00
02323               2.00    -1000.00
02324               0.00    -1000.00
02325               0.00     -800.00
02326               0.00    -1000.00
02327              -2.00     -800.00
02328               0.00     -800.00
02329              -2.00     -800.00
02330              -2.00     -600.00
02331               0.00     -600.00
02332               0.00     -600.00
02333               0.00     -600.00
02334              -2.00     -400.00
02335              -2.00     -200.00
02336               0.00     -400.00
02337              -2.00     -200.00
02338              -6.00     -400.00
02339              -2.00        0.00
02340              -2.00        0.00
02341               0.00        0.00
02342              -6.00        0.00
02343              -2.00        0.00
02344               0.00      200.00
02345               2.00      200.00
02346               2.00      400.00
02347               6.00      400.00
02348               2.00      400.00
02349              -2.00      600.00
02350              -6.00      600.00
02351              -2.00      600.00
02352               8.00      800.00
02353              80.00      800.00
02354             146.00     1000.00
02355            -122.00     1000.00
02356            -254.00      800.00
02357              54.00     1000.00
02358             246.00     1400.00
02359             104.00     1200.00
02360            -254.00      800.00
02361               8.00     1200.00
02362             246.00     1600.00
02363            -182.00     1200.00
02364            -254.00     1400.00
02365             246.00     1800.00
02366             246.00     1600.00
02367            -254.00     1600.00
02368            -126.00     1800.00
02369             246.00     2000.00
02370            -106.00     1600.00
02371            -150.00     1800.00
02372             168.00     2200.00
02373             -46.00     2000.00
02374            -102.00     2000.00
02375              74.00     2400.00
02376             -16.00     2200.00
02377             -24.00     2400.00
02378              22.00     2400.00
02379             -96.00     2400.00
02380              56.00     2600.00
02381              74.00     2600.00
02382            -168.00     2400.00
02383              12.00     2600.00
02384             122.00     2800.00
02385            -114.00     2800.00
02386             -16.00     2800.00
02387              62.00     3000.00
02388             -82.00     2800.00
02389              16.00     3000.00
02390              26.00     3200.00
02391             -78.00     3200.00
02392              30.00     3200.00
02393              -2.00     3200.00
02394             -56.00     3200.00
02395              40.00     3200.00
02396             -22.00     3400.00
02397             -46.00     3400.00
02398              32.00     3400.00
02399             -18.00     3400.00
02400             -34.00     3400.00
02401              16.00     3600.00
02402             -10.00     3600.00
02403             -18.00     3600.00
02404             -22.00     3600.00
02405              -8.00     3600.00
02406              10.00     3800.00
02407             -18.00     4000.00
02408             -24.00     3600.00
02409               2.00     3800.00
02410             -14.00     4000.00
02411             -24.00     4000.00
02412              -2.00     4000.00
02413              -6.00     4000.00
02414             -20.00     4000.00
02415             -10.00     4000.00
02416              -2.00     4000.00
02417             -16.00     4000.00
02418             -22.00     4200.00
02419              -2.00     4000.00
02420              -6.00     4200.00
02421             -18.00     4200.00
02422             -18.00     4200.00
02423             -10.00     4200.00
02424              -8.00     4200.00
02425             -18.00     4200.00
02426             -12.00     4200.00
02427              -2.00     4400.00
02428             -16.00     4200.00
02429             -22.00     4400.00
02430             -10.00     4200.00
02431             -12.00     4400.00
02432             -16.00     4200.00
02433             -14.00     4400.00
02434              -8.00     4200.00
02435             -14.00     4400.00
02436             -18.00     4200.00
02437             -12.00     4800.00
02438             -10.00     4400.00
02439             -16.00     4200.00
02440             -16.00     4200.00
02441             -10.00     4400.00
02442             -10.00     4400.00
02443             -16.00     4200.00
02444             -16.00     4200.00
02445             -12.00     4400.00
02446             -14.00     4200.00
02447             -10.00     4400.00
02448             -10.00     4200.00
02449             -16.00     4200.00
02450             -20.00     4200.00
02451             -16.00     4400.00
02452              -8.00     4200.00
02453             -10.00     4200.00
02454             -10.00     4200.00
02455             -10.00     4200.00
02456             -16.00     4200.00
02457             -16.00     4200.00
02458             -10.00     4200.00
02459             -10.00     4000.00
02460             -14.00     4000.00
02461             -14.00     4200.00
02462             -10.00     4000.00
02463             -14.00     4000.00
02464             -16.00     4000.00
02465             -10.00     4000.00
02466              -8.00     4000.00
02467             -10.00     4000.00
02468             -12.00     4000.00
02469             -12.00     3800.00
02470             -14.00     3800.00
02471             -14.00     3800.00
02472              -8.00     3800.00
02473              -6.00     3800.00
02474             -10.00     3600.00
02475             -16.00     3600.00
02476             -12.00     3600.00
02477              -8.00     3600.00
02478             -10.00     3600.00
02479             -10.00     3400.00
02480              -8.00     3400.00
02481             -10.00     3400.00
02482             -14.00     3400.00
02483             -10.00     3400.00
02484              -8.00     3400.00
02485             -10.00     3200.00
02486             -10.00     3200.00
02487             -10.00     3200.00
02488             -10.00     3200.00
02489             -10.00     2800.00
02490             -12.00     3000.00
02491             -10.00     3000.00
02492             -16.00     2800.00
02493             -14.00     2800.00
02494              -8.00     2800.00
02495              -8.00     2800.00
02496              -8.00     2800.00
02497             -10.00     2800.00
02498             -16.00     2600.00
02499             -16.00     2600.00
02500              -6.00     2400.00
02501               0.00     2200.00
02502             -10.00     2400.00
02503             -16.00     2000.00
02504             -14.00     2200.00
02505              -8.00     2000.00
02506              -6.00     2000.00
02507              -6.00     2000.00
02508             -10.00     2000.00
02509             -10.00     1800.00
02510             -10.00     1800.00
02511             -10.00     1800.00
02512             -10.00     1600.00
02513             -10.00     1800.00
02514              -6.00     1600.00
02515               0.00     1600.00
02516              -2.00     1400.00
02517             -16.00     1400.00
02518             -16.00     1200.00
02519              -6.00     1200.00
02520               0.00     1000.00
02521              -2.00     1000.00
02522              -8.00     1000.00
02523              -8.00     1000.00
02524              -8.00      800.00
02525              -8.00      800.00
02526              -2.00      800.00
02527              -2.00      800.00
02528              -2.00      600.00
02529              -8.00      600.00
02530              -6.00      600.00
02531              -2.00      400.00
02532               0.00      400.00
02533              -2.00      400.00
02534              -6.00      400.00
02535              -2.00      200.00
02536               0.00      200.00
02537               0.00        0.00
02538               2.00        0.00
02539              10.00        0.00
02540              -2.00        0.00
02541              -6.00        0.00
02542              -2.00     -200.00
02543               0.00     -200.00
02544              16.00     -400.00
02545              78.00     -400.00
02546             126.00     -800.00
02547             -98.00     -600.00
02548            -254.00     -600.00
02549              -8.00     -600.00
02550             246.00     -600.00
02551             186.00     -800.00
02552            -254.00     -800.00
02553             -86.00     -800.00
02554             246.00    -1200.00
02555             -34.00    -1000.00
02556            -254.00    -1000.00
02557             134.00    -1200.00
02558             246.00    -1200.00
02559            -194.00    -1200.00
02560            -110.00    -1400.00
02561             128.00    -1600.00
02562             -72.00    -1400.00
02563             -26.00    -1600.00
02564             178.00    -1800.00
02565             -88.00    -1800.00
02566            -138.00    -1600.00
02567             114.00    -2000.00
02568              70.00    -1800.00
02569             -80.00    -2000.00
02570             -24.00    -2200.00
02571              24.00    -2000.00
02572              24.00    -2200.00
02573              30.00    -2200.00
02574             -64.00    -2200.00
02575             -14.00    -2200.00
02576              58.00    -2400.00
02577              14.00    -2400.00
02578             -34.00    -2600.00
02579               0.00    -2400.00
02580              16.00    -2600.00
02581              18.00    -2800.00
02582               0.00    -2800.00
02583             -22.00    -2800.00
02584               8.00    -2800.00
02585              22.00    -2800.00
02586              10.00    -2800.00
02587              -8.00    -3000.00
02588               0.00    -3000.00
02589               6.00    -3000.00
02590              14.00    -3200.00
02591               6.00    -3200.00
02592              -4.00    -3200.00
02593               2.00    -3200.00
02594              22.00    -3200.00
02595               4.00    -3200.00
02596             -14.00    -3200.00
02597              16.00    -3200.00
02598              22.00    -3400.00
02599               0.00    -3400.00
02600               6.00    -3600.00
02601               8.00    -3600.00
02602               0.00    -3600.00
02603               8.00    -3600.00
02604              10.00    -3600.00
02605              10.00    -3600.00
02606               8.00    -3600.00
02607               6.00    -3800.00
02608               8.00    -3600.00
02609               8.00    -3600.00
02610               0.00    -3600.00
02611              10.00    -3600.00
02612              18.00    -3800.00
02613               0.00    -3600.00
02614               2.00    -3800.00
02615              12.00    -4000.00
02616               8.00    -3800.00
02617               6.00    -3800.00
02618              10.00    -3800.00
02619              10.00    -3800.00
02620              10.00    -3800.00
02621               6.00    -4000.00
02622               2.00    -4000.00
02623               8.00    -4000.00
02624               8.00    -3800.00
02625               8.00    -4000.00
02626              10.00    -4000.00
02627               8.00    -3800.00
02628               0.00    -4000.00
02629               8.00    -3800.00
02630              10.00    -4000.00
02631               6.00    -4000.00
02632              10.00    -4000.00
02633               6.00    -4000.00
02634               6.00    -4000.00
02635               8.00    -4000.00
02636               2.00    -3800.00
02637               8.00    -4000.00
02638              10.00    -3800.00
02639               6.00    -3800.00
02640              10.00    -4000.00
02641               8.00    -3800.00
02642               0.00    -4000.00
02643               6.00    -3800.00
02644               8.00    -3800.00
02645               8.00    -4000.00
02646              10.00    -3800.00
02647               8.00    -3800.00
02648               6.00    -3800.00
02649               6.00    -4000.00
02650               2.00    -3800.00
02651               6.00    -3600.00
02652               8.00    -3600.00
02653               8.00    -3800.00
02654              10.00    -3600.00
02655              10.00    -3600.00
02656               0.00    -3600.00
02657               2.00    -3600.00
02658               6.00    -3600.00
02659               8.00    -3600.00
02660              10.00    -3600.00
02661               8.00    -3400.00
02662               4.00    -3400.00
02663               2.00    -3400.00
02664               2.00    -3200.00
02665               8.00    -3200.00
02666              10.00    -3200.00
02667               8.00    -3200.00
02668               2.00    -3200.00
02669               6.00    -3200.00
02670               2.00    -3000.00
02671               6.00    -3000.00
02672               8.00    -3000.00
02673               6.00    -3000.00
02674               2.00    -3000.00
02675               6.00    -3000.00
02676               6.00    -3000.00
02677               6.00    -2800.00
02678               2.00    -2800.00
02679               6.00    -2800.00
02680               6.00    -2800.00
02681               4.00    -2800.00
02682               2.00    -2800.00
02683               4.00    -2600.00
02684               6.00    -2600.00
02685               2.00    -2400.00
02686               2.00    -2400.00
02687               2.00    -2400.00
02688               0.00    -2200.00
02689               2.00    -2400.00
02690               2.00    -2200.00
02691               0.00    -2200.00
02692               0.00    -2000.00
02693               0.00    -2200.00
02694               4.00    -2000.00
02695               0.00    -2000.00
02696               0.00    -2000.00
02697               0.00    -1600.00
02698               0.00    -1600.00
02699              -2.00    -1600.00
02700               0.00    -1400.00
02701               2.00    -1400.00
02702               0.00    -1400.00
02703               0.00    -1400.00
02704               0.00    -1400.00
02705              -2.00    -1200.00
02706               0.00    -1200.00
02707               2.00    -1000.00
02708               0.00    -1200.00
02709               0.00    -1000.00
02710              -2.00     -800.00
02711              -2.00     -800.00
02712               2.00     -800.00
02713               2.00     -800.00
02714              -2.00     -600.00
02715               0.00     -600.00
02716              -2.00     -600.00
02717              -2.00     -400.00
02718               0.00     -400.00
02719              -2.00     -400.00
02720              -4.00     -400.00
02721               0.00        0.00
02722              -8.00        0.00
02723              -2.00        0.00
02724               2.00        0.00
02725              -6.00        0.00
02726              -2.00      200.00
02727               6.00      200.00
02728               0.00      200.00
02729              -2.00      400.00
02730               6.00      400.00
02731               2.00      400.00
02732               2.00      600.00
02733              -2.00      600.00
02734             -10.00      600.00
02735               6.00      800.00
02736              72.00     1000.00
02737             154.00     1000.00
02738             -92.00     1000.00
02739            -254.00      800.00
02740               0.00      800.00
02741             246.00     1400.00
02742             174.00     1200.00
02743            -254.00     1000.00
02744             -50.00     1200.00
02745             246.00     1600.00
02746            -112.00     1400.00
02747            -254.00     1400.00
02748             246.00     1800.00
02749             246.00     1600.00
02750            -254.00     1600.00
02751            -174.00     1800.00
02752             246.00     2000.00
02753             -74.00     1600.00
02754            -166.00     1800.00
02755             162.00     2000.00
02756             -22.00     2000.00
02757            -118.00     2000.00
02758              66.00     2200.00
02759              -6.00     2400.00
02760             -30.00     2200.00
02761              32.00     2600.00
02762             -90.00     2200.00
02763              38.00     2600.00
02764              88.00     2600.00
02765            -160.00     2600.00
02766              -8.00     2800.00
02767             134.00     2800.00
02768            -106.00     2600.00
02769             -30.00     2800.00
02770              78.00     2800.00
02771             -78.00     2800.00
02772               0.00     3000.00
02773              36.00     3200.00
02774             -78.00     3000.00
02775              30.00     3200.00
02776               4.00     3200.00
02777             -62.00     3200.00
02778              38.00     3400.00
02779             -10.00     3400.00
02780             -54.00     3400.00
02781              30.00     3600.00
02782             -16.00     3400.00
02783             -32.00     3600.00
02784              18.00     3600.00
02785             -10.00     3600.00
02786             -26.00     3600.00
02787             -20.00     3800.00
02788             -12.00     3600.00
02789              16.00     3600.00
02790             -10.00     3800.00
02791             -28.00     3800.00
02792               0.00     3800.00
02793             -16.00     3800.00
02794             -26.00     4000.00
02795               4.00     4000.00
02796               2.00     4000.00
02797             -22.00     4000.00
02798             -16.00     4000.00
02799              -6.00     4000.00
02800             -14.00     4000.00
02801             -20.00     4200.00
02802              -4.00     4200.00
02803              -6.00     4200.00
02804             -16.00     4200.00
02805             -18.00     4200.00
02806             -10.00     4200.00
02807              -6.00     4400.00
02808             -22.00     4200.00
02809             -10.00     4200.00
02810               0.00     4400.00
02811             -14.00     4200.00
02812             -18.00     4400.00
02813             -10.00     4400.00
02814             -14.00     4400.00
02815             -16.00     4200.00
02816             -14.00     4200.00
02817              -6.00     4200.00
02818              -8.00     4400.00
02819             -16.00     4200.00
02820             -16.00     4400.00
02821             -10.00     4400.00
02822             -16.00     4200.00
02823             -14.00     4400.00
02824              -6.00     4400.00
02825             -10.00     4400.00
02826             -18.00     4400.00
02827             -14.00     4400.00
02828             -10.00     4400.00
02829             -14.00     4200.00
02830             -14.00     4400.00
02831             -10.00     4200.00
02832             -10.00     4400.00
02833             -16.00     4200.00
02834             -16.00     4400.00
02835             -16.00     4200.00
02836             -14.00     4400.00
02837             -10.00     4200.00
02838             -10.00     4200.00
02839             -16.00     4200.00
02840             -16.00     4200.00
02841             -14.00     4200.00
02842             -10.00     4000.00
02843             -10.00     4200.00
02844             -14.00     4200.00
02845             -12.00     4200.00
02846             -16.00     4200.00
02847             -16.00     4000.00
02848             -10.00     4000.00
02849              -8.00     4000.00
02850             -14.00     3800.00
02851             -16.00     3800.00
02852             -16.00     4000.00
02853             -14.00     3800.00
02854             -14.00     3800.00
02855              -8.00     3800.00
02856              -2.00     3600.00
02857             -10.00     3600.00
02858             -16.00     3600.00
02859             -16.00     3600.00
02860             -14.00     3600.00
02861             -12.00     3400.00
02862              -8.00     3600.00
02863              -6.00     3400.00
02864             -10.00     3400.00
02865             -14.00     3200.00
02866             -14.00     3400.00
02867             -10.00     3200.00
02868             -10.00     3400.00
02869              -8.00     3200.00
02870              -6.00     3200.00
02871             -10.00     3200.00
02872             -10.00     3200.00
02873             -10.00     3200.00
02874             -10.00     3000.00
02875             -10.00     3000.00
02876              -8.00     2800.00
02877              -8.00     2800.00
02878             -10.00     2800.00
02879             -12.00     2600.00
02880             -10.00     2600.00
02881              -8.00     2600.00
02882              -8.00     2600.00
02883              -6.00     2600.00
02884              -6.00     2400.00
02885             -10.00     2400.00
02886             -16.00     2400.00
02887             -14.00     2400.00
02888             -10.00     2200.00
02889              -6.00     2000.00
02890              -8.00     2000.00
02891              -6.00     2000.00
02892              -8.00     2000.00
02893             -10.00     1800.00
02894             -10.00     1800.00
02895             -10.00     1600.00
02896              -6.00     1600.00
02897              -8.00     1600.00
02898              -8.00     1600.00
02899              -6.00     1400.00
02900             -10.00     1600.00
02901             -10.00     1400.00
02902              -8.00     1200.00
02903              -4.00     1200.00
02904              -6.00     1200.00
02905              -8.00     1200.00
02906              -6.00     1000.00
02907             -10.00     1000.00
02908             -10.00      800.00
02909              -6.00      800.00
02910               0.00      800.00
02911              -2.00      800.00
02912              -6.00      600.00
02913              -8.00      600.00
02914              -2.00      400.00
02915              -6.00      400.00
02916              -2.00      400.00
02917              -2.00      400.00
02918               0.00      400.00
02919              -2.00      200.00
02920               0.00      200.00
02921               0.00      200.00
02922               8.00        0.00
02923               2.00        0.00
02924              -8.00        0.00
02925              -6.00     -200.00
02926               0.00     -400.00
02927              14.00     -400.00
02928              78.00     -400.00
02929             132.00     -600.00
02930             -80.00     -800.00
02931            -254.00     -600.00
02932             -50.00     -400.00
02933             246.00     -800.00
02934             244.00     -800.00
02935            -254.00     -800.00
02936            -144.00     -800.00
02937             246.00    -1200.00
02938              36.00    -1000.00
02939            -254.00     -800.00
02940              94.00    -1200.00
02941             246.00    -1200.00
02942            -168.00    -1400.00
02943            -128.00    -1400.00
02944             130.00    -1600.00
02945             -64.00    -1400.00
02946             -48.00    -1600.00
02947             176.00    -1600.00
02948             -62.00    -1600.00
02949            -142.00    -2000.00
02950             102.00    -2000.00
02951              82.00    -2000.00
02952             -82.00    -2000.00
02953             -26.00    -2200.00
02954              24.00    -2000.00
02955              26.00    -2400.00
02956              32.00    -2400.00
02957             -56.00    -2200.00
02958             -22.00    -2400.00
02959              54.00    -2400.00
02960              18.00    -2400.00
02961             -34.00    -2400.00
02962               0.00    -2600.00
02963              16.00    -2600.00
02964              16.00    -2600.00
02965               0.00    -2800.00
02966             -18.00    -2800.00
02967               8.00    -2800.00
02968              18.00    -2800.00
02969               8.00    -2800.00
02970              -8.00    -3000.00
02971               0.00    -3000.00
02972               8.00    -3000.00
02973              14.00    -3000.00
02974               6.00    -3000.00
02975              -6.00    -3200.00
02976               0.00    -3200.00
02977              24.00    -3200.00
02978               6.00    -3000.00
02979             -18.00    -3200.00
02980               8.00    -3200.00
02981              18.00    -3400.00
02982               2.00    -3400.00
02983               2.00    -3200.00
02984               8.00    -3400.00
02985               0.00    -3400.00
02986               6.00    -3600.00
02987              10.00    -3600.00
02988               6.00    -3600.00
02989               6.00    -3600.00
02990               2.00    -3600.00
02991               8.00    -3800.00
02992              14.00    -3600.00
02993               2.00    -3800.00
02994               8.00    -3800.00
02995              16.00    -3800.00
02996               2.00    -3800.00
02997               2.00    -3800.00
02998              14.00    -3800.00
02999               8.00    -3800.00
03000               6.00    -3800.00
03001               6.00    -3800.00
03002               8.00    -3800.00
03003               8.00    -4000.00
03004               8.00    -4000.00
03005               6.00    -4000.00
03006               8.00    -4000.00
03007               8.00    -4000.00
03008               6.00    -3800.00
03009              14.00    -4000.00
03010               8.00    -4000.00
03011               4.00    -4000.00
03012               6.00    -4000.00
03013               6.00    -4000.00
03014               6.00    -4000.00
03015               8.00    -3800.00
03016               6.00    -4000.00
03017              10.00    -4000.00
03018               6.00    -3800.00
03019              -2.00    -4000.00
03020              10.00    -4000.00
03021               8.00    -3800.00
03022               2.00    -4000.00
03023               6.00    -3800.00
03024               8.00    -4000.00
03025              -2.00    -3800.00
03026               8.00    -3800.00
03027               6.00    -3800.00
03028               4.00    -4000.00
03029              10.00    -3800.00
03030               6.00    -3800.00
03031               4.00    -4000.00
03032               6.00    -3800.00
03033               0.00    -3800.00
03034               4.00    -3600.00
03035               6.00    -3800.00
03036               0.00    -3600.00
03037              10.00    -3600.00
03038              10.00    -3600.00
03039               0.00    -3600.00
03040               0.00    -3600.00
03041               8.00    -3600.00
03042               8.00    -3600.00
03043               8.00    -3400.00
03044               8.00    -3400.00
03045               2.00    -3400.00
03046               6.00    -3200.00
03047               2.00    -3400.00
03048               8.00    -3200.00
03049              10.00    -3200.00
03050               6.00    -3200.00
03051              -2.00    -3200.00
03052               2.00    -3200.00
03053               2.00    -3200.00
03054               8.00    -3000.00
03055              10.00    -3000.00
03056               6.00    -3000.00
03057               0.00    -3000.00
03058               2.00    -3000.00
03059               4.00    -2800.00
03060              10.00    -2800.00
03061               8.00    -2800.00
03062               6.00    -2800.00
03063               2.00    -2800.00
03064               0.00    -2800.00
03065               0.00    -2400.00
03066               6.00    -2600.00
03067               6.00    -2400.00
03068               2.00    -2400.00
03069               6.00    -2400.00
03070               2.00    -2400.00
03071               0.00    -2200.00
03072               2.00    -2200.00
03073               6.00    -2200.00
03074               0.00    -2200.00
03075               2.00    -2000.00
03076               0.00    -2000.00
03077               0.00    -2000.00
03078               2.00    -2000.00
03079              -2.00    -1800.00
03080               0.00    -1800.00
03081               0.00    -1600.00
03082               2.00    -1600.00
03083               4.00    -1400.00
03084               2.00    -1600.00
03085              -2.00    -1400.00
03086              -4.00    -1200.00
03087               0.00    -1000.00
03088               0.00    -1200.00
03089               0.00    -1000.00
03090               2.00    -1200.00
03091              -2.00    -1000.00
03092              -2.00     -800.00
03093              -6.00     -800.00
03094               0.00     -800.00
03095               0.00     -800.00
03096               0.00     -800.00
03097               0.00     -600.00
03098              -2.00     -600.00
03099              -2.00     -600.00
03100              -2.00     -600.00
03101              -2.00     -200.00
03102               0.00     -400.00
03103              -2.00     -400.00
03104              -2.00        0.00
03105              -6.00        0.00
03106              -2.00        0.00
03107               0.00        0.00
03108              -2.00        0.00
03109              -2.00      200.00
03110               0.00      200.00
03111               0.00      400.00
03112              -2.00      400.00
03113               2.00      400.00
03114               6.00      400.00
03115              -2.00      400.00
03116              -6.00      400.00
03117              -2.00      400.00
03118               6.00      800.00
03119              64.00     1000.00
03120             154.00     1000.00
03121             -66.00     1000.00
03122            -254.00      800.00
03123             -40.00     1200.00
03124             246.00     1200.00
03125             234.00     1400.00
03126            -254.00     1000.00
03127            -120.00     1400.00
03128             246.00     1600.00
03129             -32.00     1200.00
03130            -254.00     1200.00
03131             218.00     1800.00
03132             246.00     1600.00
03133            -254.00     1600.00
03134            -216.00     1800.00
03135             246.00     2000.00
03136             -42.00     1800.00
03137            -182.00     1800.00
03138             150.00     2200.00
03139               0.00     2000.00
03140            -122.00     2000.00
03141              64.00     2400.00
03142               6.00     2200.00
03143             -38.00     2400.00
03144              30.00     2600.00
03145             -88.00     2400.00
03146              26.00     2600.00
03147              98.00     2800.00
03148            -152.00     2600.00
03149             -26.00     2600.00
03150             138.00     2800.00
03151             -96.00     2600.00
03152             -46.00     2800.00
03153              76.00     3000.00
03154             -72.00     2800.00
03155              -6.00     3000.00
03156              42.00     3200.00
03157             -78.00     3000.00
03158              18.00     3200.00
03159              14.00     3200.00
03160             -58.00     3400.00
03161              34.00     3400.00
03162              -6.00     3200.00
03163             -62.00     3400.00
03164              26.00     3400.00
03165             -12.00     3400.00
03166             -42.00     3400.00
03167              16.00     3600.00
03168              -8.00     3600.00
03169             -24.00     3600.00
03170             -20.00     3600.00
03171             -16.00     3600.00
03172               6.00     3600.00
03173             -10.00     4000.00
03174             -26.00     3600.00
03175               6.00     4000.00
03176             -14.00     4000.00
03177             -26.00     3800.00
03178               0.00     4000.00
03179               0.00     4000.00
03180             -20.00     4000.00
03181             -16.00     4200.00
03182              -2.00     4000.00
03183             -14.00     4000.00
03184             -22.00     4000.00
03185              -6.00     4200.00
03186              -2.00     4200.00
03187             -16.00     4200.00
03188             -18.00     4200.00
03189             -10.00     4200.00
03190             -10.00     4200.00
03191             -16.00     4200.00
03192             -10.00     4200.00
03193               0.00     4400.00
03194             -14.00     4200.00
03195             -24.00     4200.00
03196             -12.00     4400.00
03197              -8.00     4400.00
03198             -14.00     4200.00
03199             -10.00     4400.00
03200              -8.00     4200.00
03201             -16.00     4400.00
03202             -18.00     4400.00
03203             -14.00     4400.00
03204              -6.00     4200.00
03205             -10.00     4400.00
03206             -16.00     4400.00
03207             -12.00     4400.00
03208             -16.00     4400.00
03209             -18.00     4400.00
03210             -14.00     4200.00
03211              -8.00     4200.00
03212             -12.00     4200.00
03213             -16.00     4200.00
03214             -10.00     4200.00
03215             -14.00     4200.00
03216             -16.00     4400.00
03217             -16.00     4200.00
03218             -10.00     4200.00
03219             -10.00     4200.00
03220             -14.00     4200.00
03221             -14.00     4200.00
03222             -16.00     4200.00
03223             -16.00     4000.00
03224             -14.00     4000.00
03225             -10.00     4200.00
03226             -12.00     4200.00
03227             -14.00     4200.00
03228             -10.00     4000.00
03229             -14.00     4000.00
03230             -20.00     4000.00
03231             -16.00     4000.00
03232             -10.00     4000.00
03233              -8.00     4000.00
03234             -10.00     4000.00
03235             -12.00     3800.00
03236             -14.00     4000.00
03237             -16.00     3800.00
03238             -14.00     3600.00
03239              -6.00     3800.00
03240             -10.00     3800.00
03241             -12.00     3600.00
03242             -14.00     3600.00
03243             -14.00     3600.00
03244             -16.00     3600.00
03245             -10.00     3400.00
03246              -8.00     3400.00
03247              -8.00     3400.00
03248             -14.00     3400.00
03249             -14.00     3200.00
03250             -12.00     3400.00
03251             -10.00     3200.00
03252              -8.00     3200.00
03253              -8.00     3200.00
03254             -10.00     3200.00
03255             -14.00     3200.00
03256             -12.00     2800.00
03257              -8.00     3200.00
03258              -8.00     2800.00
03259             -10.00     2800.00
03260             -10.00     2800.00
03261              -8.00     2800.00
03262             -14.00     2800.00
03263              -8.00     2600.00
03264              -6.00     2600.00
03265              -6.00     2600.00
03266             -10.00     2600.00
03267             -10.00     2400.00
03268             -10.00     2400.00
03269             -10.00     2400.00
03270              -8.00     2200.00
03271              -6.00     2200.00
03272              -6.00     2000.00
03273              -8.00     2000.00
03274             -10.00     2000.00
03275              -6.00     1800.00
03276             -10.00     1800.00
03277             -10.00     1800.00
03278              -6.00     1600.00
03279              -8.00     1600.00
03280              -8.00     1600.00
03281             -10.00     1600.00
03282              -8.00     1600.00
03283             -10.00     1600.00
03284              -6.00     1400.00
03285              -6.00     1200.00
03286              -2.00     1200.00
03287              -6.00     1200.00
03288             -10.00     1000.00
03289              -6.00     1000.00
03290              -6.00      800.00
03291              -8.00      800.00
03292              -6.00      800.00
03293              -2.00      800.00
03294              -6.00      600.00
03295              -8.00      600.00
03296              -4.00      600.00
03297              -6.00      400.00
03298              -2.00      400.00
03299              -6.00      400.00
03300              -6.00      200.00
03301              -2.00      200.00
03302               0.00      200.00
03303               0.00      200.00
03304               0.00      200.00
03305               8.00        0.00
03306               0.00        0.00
03307              -6.00        0.00
03308              -2.00     -200.00
03309               0.00     -400.00
03310              10.00     -400.00
03311              64.00     -400.00
03312             134.00     -600.00
03313             -54.00     -800.00
03314            -254.00     -600.00
03315             -92.00     -400.00
03316             246.00     -800.00
03317             246.00     -800.00
03318            -254.00    -1000.00
03319            -200.00     -800.00
03320             246.00    -1200.00
03321              96.00    -1000.00
03322            -254.00    -1000.00
03323              46.00    -1200.00
03324             246.00    -1200.00
03325            -142.00    -1400.00
03326            -154.00    -1400.00
03327             128.00    -1400.00
03328             -40.00    -1400.00
03329             -58.00    -1600.00
03330             176.00    -1800.00
03331             -42.00    -1600.00
03332            -158.00    -2000.00
03333              88.00    -2000.00
03334             104.00    -2000.00
03335             -74.00    -2000.00
03336             -32.00    -2000.00
03337              22.00    -2000.00
03338              22.00    -2000.00
03339              32.00    -2400.00
03340             -54.00    -2200.00
03341             -26.00    -2200.00
03342              56.00    -2400.00
03343              26.00    -2400.00
03344             -40.00    -2600.00
03345              -6.00    -2400.00
03346              14.00    -2600.00
03347              18.00    -2600.00
03348               2.00    -2800.00
03349             -18.00    -2800.00
03350               2.00    -2800.00
03351              18.00    -2800.00
03352              10.00    -3000.00
03353              -8.00    -3000.00
03354               0.00    -3000.00
03355               2.00    -3000.00
03356              10.00    -3200.00
03357               6.00    -3200.00
03358              -2.00    -3000.00
03359               0.00    -3200.00
03360              22.00    -3200.00
03361               6.00    -3200.00
03362             -18.00    -3200.00
03363               8.00    -3200.00
03364              22.00    -3200.00
03365               0.00    -3200.00
03366               2.00    -3600.00
03367               6.00    -3600.00
03368               0.00    -3600.00
03369               6.00    -3400.00
03370              10.00    -3600.00
03371               6.00    -3600.00
03372               8.00    -3600.00
03373               6.00    -3600.00
03374               6.00    -3800.00
03375               8.00    -3800.00
03376              -2.00    -3800.00
03377               8.00    -3800.00
03378              16.00    -3800.00
03379               6.00    -3600.00
03380               0.00    -4000.00
03381              10.00    -3800.00
03382               6.00    -3800.00
03383               2.00    -3800.00
03384              10.00    -4000.00
03385               8.00    -4000.00
03386               8.00    -3800.00
03387               8.00    -4000.00
03388               2.00    -4000.00
03389               6.00    -4000.00
03390               8.00    -3800.00
03391               6.00    -4000.00
03392              14.00    -3800.00
03393              16.00    -4000.00
03394               0.00    -4000.00
03395               0.00    -3800.00
03396              10.00    -4000.00
03397               8.00    -3800.00
03398               8.00    -4000.00
03399               8.00    -3800.00
03400               2.00    -3800.00
03401               6.00    -3800.00
03402               8.00    -4000.00
03403              10.00    -4000.00
03404               4.00    -3800.00
03405               0.00    -3800.00
03406              10.00    -4000.00
03407              22.00    -3800.00
03408               2.00    -4000.00
03409              -8.00    -4000.00
03410               6.00    -3800.00
03411               8.00    -4000.00
03412               8.00    -3800.00
03413              10.00    -3600.00
03414               6.00    -3800.00
03415               2.00    -3800.00
03416               2.00    -3800.00
03417               2.00    -3800.00
03418               8.00    -3600.00
03419               8.00    -3600.00
03420               2.00    -3600.00
03421               8.00    -3800.00
03422               6.00    -3600.00
03423              -2.00    -3600.00
03424               2.00    -3600.00
03425              14.00    -3400.00
03426               8.00    -3600.00
03427               6.00    -3600.00
03428              -2.00    -3200.00
03429               0.00    -3400.00
03430               8.00    -3200.00
03431               8.00    -3200.00
03432               6.00    -3200.00
03433               6.00    -3200.00
03434               0.00    -3000.00
03435               2.00    -3200.00
03436               8.00    -3200.00
03437               8.00    -3000.00
03438               6.00    -3000.00
03439               2.00    -3000.00
03440              -2.00    -3000.00
03441               2.00    -3000.00
03442               6.00    -2800.00
03443               8.00    -2800.00
03444               6.00    -2800.00
03445               2.00    -2600.00
03446               0.00    -2800.00
03447               0.00    -2600.00
03448               8.00    -2600.00
03449               8.00    -2400.00
03450               2.00    -2400.00
03451               0.00    -2400.00
03452               2.00    -2400.00
03453               4.00    -2400.00
03454               4.00    -2200.00
03455               6.00    -2200.00
03456               6.00    -2200.00
03457               0.00    -2000.00
03458               0.00    -2000.00
03459               2.00    -2000.00
03460               6.00    -2000.00
03461               2.00    -2000.00
03462               0.00    -1800.00
03463               0.00    -1800.00
03464               2.00    -1600.00
03465               2.00    -1800.00
03466               2.00    -1600.00
03467               2.00    -1600.00
03468               0.00    -1600.00
03469              -2.00    -1400.00
03470               0.00    -1200.00
03471               0.00    -1400.00
03472               0.00    -1000.00
03473               0.00    -1000.00
03474              -2.00    -1000.00
03475              -2.00     -800.00
03476              -2.00     -800.00
03477              -2.00     -800.00
03478               0.00     -800.00
03479               0.00     -600.00
03480               0.00     -600.00
03481              -2.00     -600.00
03482              -2.00     -400.00
03483              -2.00     -400.00
03484              -2.00     -400.00
03485               0.00     -400.00
03486              -2.00     -400.00
03487              -2.00     -200.00
03488              -8.00        0.00
03489              -6.00        0.00
03490               0.00        0.00
03491              -2.00        0.00
03492              -2.00      200.00
03493               0.00      200.00
03494               0.00      200.00
03495              -2.00      400.00
03496               6.00      400.00
03497               8.00      400.00
03498               0.00      400.00
03499              -6.00      600.00
03500              -6.00      600.00
03501               0.00      800.00
03502              56.00      800.00
03503             152.00     1000.00
03504             -42.00     1000.00
03505            -254.00      800.00
03506             -86.00     1000.00
03507             246.00     1200.00
03508             246.00     1400.00
03509            -254.00      800.00
03510            -182.00     1200.00
03511             246.00     1600.00
03512              46.00     1400.00
03513            -254.00     1200.00
03514             158.00     1800.00
03515             246.00     1600.00
03516            -254.00     1600.00
03517            -254.00     1800.00
03518             246.00     2000.00
03519             -10.00     1800.00
03520            -196.00     1800.00
03521             134.00     2000.00
03522              26.00     2000.00
03523            -128.00     2000.00
03524              56.00     2400.00
03525              14.00     2200.00
03526             -42.00     2200.00
03527              34.00     2600.00
03528             -80.00     2400.00
03529              14.00     2600.00
03530             110.00     2800.00
03531            -138.00     2600.00
03532             -44.00     2800.00
03533             146.00     2800.00
03534             -80.00     2800.00
03535             -62.00     2800.00
03536              80.00     3000.00
03537             -64.00     2800.00
03538             -16.00     3000.00
03539              48.00     3200.00
03540             -80.00     3000.00
03541              10.00     3200.00
03542              18.00     3200.00
03543             -62.00     3200.00
03544              30.00     3400.00
03545               0.00     3400.00
03546             -64.00     3400.00
03547              24.00     3400.00
03548              -8.00     3400.00
03549             -40.00     3400.00
03550              12.00     3600.00
03551              -6.00     3600.00
03552             -22.00     3600.00
03553             -22.00     3600.00
03554             -16.00     3800.00
03555              10.00     3600.00
03556             -14.00     3600.00
03557             -32.00     3800.00
03558               2.00     4000.00
03559             -10.00     4000.00
03560             -32.00     4000.00
03561              -4.00     4000.00
03562               6.00     4000.00
03563             -24.00     4000.00
03564             -20.00     4000.00
03565               2.00     4000.00
03566             -14.00     4000.00
03567             -24.00     4000.00
03568             -10.00     4200.00
03569              -6.00     4200.00
03570             -14.00     4200.00
03571             -18.00     4400.00
03572              -8.00     4200.00
03573              -2.00     4200.00
03574             -24.00     4200.00
03575             -22.00     4400.00
03576              -6.00     4200.00
03577              -8.00     4400.00
03578             -14.00     4400.00
03579              -8.00     4400.00
03580             -14.00     4400.00
03581             -18.00     4200.00
03582             -18.00     4400.00
03583              -6.00     4400.00
03584              -6.00     4400.00
03585             -16.00     4400.00
03586             -22.00     4400.00
03587             -18.00     4200.00
03588             -16.00     4400.00
03589              -2.00     4200.00
03590               2.00     4400.00
03591             -10.00     4200.00
03592             -24.00     4400.00
03593             -24.00     4400.00
03594             -12.00     4400.00
03595              -6.00     4400.00
03596             -10.00     4400.00
03597             -12.00     4400.00
03598             -14.00     4200.00
03599             -16.00     4200.00
03600             -16.00     4400.00
03601             -10.00     4200.00
03602             -12.00     4200.00
03603             -10.00     4400.00
03604             -16.00     4200.00
03605             -16.00     4400.00
03606             -22.00     4200.00
03607             -10.00     4200.00
03608              -2.00     4200.00
03609             -10.00     4000.00
03610             -16.00     4000.00
03611             -16.00     4200.00
03612             -16.00     4000.00
03613             -16.00     4000.00
03614             -12.00     4000.00
03615              -8.00     4000.00
03616             -10.00     3800.00
03617             -16.00     4000.00
03618             -14.00     4000.00
03619             -10.00     4000.00
03620             -12.00     4000.00
03621             -14.00     3800.00
03622             -12.00     3600.00
03623             -14.00     3600.00
03624             -14.00     3600.00
03625             -14.00     3600.00
03626             -10.00     3600.00
03627             -14.00     3400.00
03628              -8.00     3400.00
03629              -6.00     3400.00
03630             -10.00     3600.00
03631             -14.00     3400.00
03632             -14.00     3400.00
03633             -10.00     3200.00
03634             -10.00     3200.00
03635             -10.00     3200.00
03636             -10.00     3200.00
03637             -10.00     3200.00
03638             -10.00     3000.00
03639             -10.00     3000.00
03640             -10.00     2800.00
03641             -10.00     3000.00
03642             -10.00     2800.00
03643              -8.00     2800.00
03644              -8.00     2800.00
03645             -10.00     2800.00
03646             -10.00     2600.00
03647              -8.00     2600.00
03648              -8.00     2400.00
03649              -8.00     2400.00
03650              -6.00     2400.00
03651              -8.00     2400.00
03652             -14.00     2200.00
03653             -10.00     2200.00
03654              -6.00     2000.00
03655              -6.00     2200.00
03656              -4.00     2000.00
03657              -8.00     2000.00
03658              -8.00     2000.00
03659              -8.00     1800.00
03660              -6.00     1600.00
03661              -8.00     1800.00
03662              -6.00     1600.00
03663              -6.00     1600.00
03664              -8.00     1600.00
03665              -8.00     1600.00
03666             -10.00     1600.00
03667              -8.00     1200.00
03668              -2.00     1200.00
03669              -2.00     1200.00
03670              -6.00     1200.00
03671             -10.00     1000.00
03672              -8.00     1000.00
03673              -6.00     1000.00
03674              -2.00     1000.00
03675              -4.00      800.00
03676              -2.00      800.00
03677              -6.00      800.00
03678              -8.00      600.00
03679             -10.00      600.00
03680              -2.00      400.00
03681              -4.00      400.00
03682              -6.00      400.00
03683              -6.00      200.00
03684              -2.00      200.00
03685               0.00      200.00
03686               0.00      200.00
03687               0.00        0.00
03688               8.00        0.00
03689               4.00        0.00
03690              -6.00        0.00
03691              -6.00     -200.00
03692              -2.00     -400.00
03693               8.00     -400.00
03694              58.00     -400.00
03695             134.00     -400.00
03696             -32.00     -800.00
03697            -254.00     -800.00
03698            -138.00     -400.00
03699             246.00     -600.00
03700             246.00     -800.00
03701            -254.00    -1000.00
03702            -250.00     -800.00
03703             246.00    -1000.00
03704             160.00    -1200.00
03705            -254.00    -1200.00
03706               0.00    -1200.00
03707             246.00    -1200.00
03708            -106.00    -1200.00
03709            -176.00    -1400.00
03710             120.00    -1600.00
03711             -26.00    -1400.00
03712             -72.00    -1600.00
03713             174.00    -2000.00
03714             -22.00    -1600.00
03715            -166.00    -2000.00
03716              70.00    -2000.00
03717             114.00    -1600.00
03718             -72.00    -2000.00
03719             -36.00    -2200.00
03720              22.00    -2000.00
03721              22.00    -2200.00
03722              38.00    -2400.00
03723             -46.00    -2200.00
03724             -32.00    -2200.00
03725              50.00    -2400.00
03726              34.00    -2400.00
03727             -40.00    -2400.00
03728              -8.00    -2400.00
03729              16.00    -2800.00
03730              22.00    -2400.00
03731               4.00    -2800.00
03732             -16.00    -2800.00
03733              -2.00    -2800.00
03734              16.00    -2800.00
03735              10.00    -2800.00
03736              -6.00    -3000.00
03737               0.00    -3000.00
03738               2.00    -3000.00
03739              10.00    -3000.00
03740               6.00    -3200.00
03741              -2.00    -3200.00
03742               0.00    -3200.00
03743              22.00    -3200.00
03744               8.00    -3200.00
03745             -18.00    -3200.00
03746               6.00    -3200.00
03747              24.00    -3400.00
03748               0.00    -3600.00
03749               0.00    -3400.00
03750               6.00    -3600.00
03751              -2.00    -3600.00
03752               6.00    -3600.00
03753               8.00    -3600.00
03754               6.00    -3800.00
03755               6.00    -3600.00
03756               2.00    -3600.00
03757               6.00    -3600.00
03758               8.00    -3600.00
03759               2.00    -3800.00
03760               6.00    -3800.00
03761              16.00    -3800.00
03762               6.00    -3800.00
03763              -2.00    -3600.00
03764               8.00    -3800.00
03765               6.00    -3800.00
03766               4.00    -3800.00
03767               8.00    -3800.00
03768               8.00    -4000.00
03769               8.00    -3800.00
03770               6.00    -3800.00
03771               6.00    -3800.00
03772               6.00    -3800.00
03773               8.00    -3800.00
03774               8.00    -4000.00
03775              10.00    -3800.00
03776              10.00    -3800.00
03777               2.00    -3800.00
03778               6.00    -4000.00
03779               8.00    -4000.00
03780               8.00    -3800.00
03781               8.00    -4000.00
03782              10.00    -4000.00
03783               6.00    -3800.00
03784               6.00    -4000.00
03785               0.00    -3800.00
03786               6.00    -4000.00
03787              10.00    -3800.00
03788               6.00    -3800.00
03789               8.00    -4000.00
03790               8.00    -4000.00
03791               0.00    -4000.00
03792               6.00    -3800.00
03793               8.00    -3800.00
03794              10.00    -3800.00
03795               8.00    -3800.00
03796               8.00    -3800.00
03797               4.00    -3800.00
03798               2.00    -3800.00
03799               2.00    -3800.00
03800               8.00    -3800.00
03801              10.00    -3800.00
03802               6.00    -3800.00
03803               4.00    -3800.00
03804               6.00    -3600.00
03805               2.00    -3800.00
03806               6.00    -3600.00
03807               8.00    -3600.00
03808               8.00    -3600.00
03809               6.00    -3600.00
03810               4.00    -3400.00
03811               2.00    -3600.00
03812               4.00    -3400.00
03813               2.00    -3600.00
03814               6.00    -3200.00
03815               6.00    -3400.00
03816               6.00    -3400.00
03817               2.00    -3200.00
03818               2.00    -3200.00
03819               2.00    -3200.00
03820               6.00    -3200.00
03821               6.00    -3200.00
03822               8.00    -3000.00
03823               2.00    -2800.00
03824               0.00    -3000.00
03825               4.00    -3000.00
03826               4.00    -3000.00
03827               6.00    -2800.00
03828               6.00    -2800.00
03829               6.00    -2800.00
03830               2.00    -2800.00
03831               0.00    -2800.00
03832               2.00    -2400.00
03833               6.00    -2400.00
03834               6.00    -2600.00
03835               6.00    -2400.00
03836               2.00    -2200.00
03837               2.00    -2200.00
03838               2.00    -2200.00
03839               6.00    -2200.00
03840               2.00    -2200.00
03841               2.00    -2000.00
03842               4.00    -2000.00
03843               2.00    -2000.00
03844               0.00    -1800.00
03845               2.00    -2000.00
03846               2.00    -1600.00
03847               0.00    -1600.00
03848               2.00    -1600.00
03849               2.00    -1600.00
03850               2.00    -1600.00
03851               0.00    -1400.00
03852               0.00    -1400.00
03853               2.00    -1000.00
03854               2.00    -1000.00
03855               2.00    -1200.00
03856               0.00    -1000.00
03857               0.00    -1000.00
03858               0.00    -1000.00
03859              -2.00     -800.00
03860              -2.00     -800.00
03861               0.00     -800.00
03862              -2.00     -800.00
03863               0.00     -600.00
03864               0.00     -600.00
03865              -2.00     -600.00
03866              -2.00     -600.00
03867              -2.00     -400.00
03868               0.00     -400.00
03869               0.00     -200.00
03870              -2.00     -400.00
03871              -2.00        0.00
03872              -2.00        0.00
03873              -2.00        0.00
03874              -8.00        0.00
03875              -6.00      200.00
03876               0.00      200.00
03877               2.00      200.00
03878               0.00      400.00
03879               0.00      200.00
03880               2.00      400.00
03881               0.00      400.00
03882              -2.00      600.00
03883              -4.00      600.00
03884               0.00      800.00
03885              46.00      800.00
03886             152.00     1000.00
03887             -14.00     1000.00
03888            -254.00      800.00
03889            -136.00     1000.00
03890             246.00     1200.00
03891             246.00     1400.00
03892            -254.00     1000.00
03893            -246.00     1200.00
03894             246.00     1600.00
03895             120.00     1400.00
03896            -254.00     1200.00
03897              94.00     1800.00
03898             246.00     1800.00
03899            -254.00     1400.00
03900            -254.00     1800.00
03901             246.00     2000.00
03902              22.00     1800.00
03903            -208.00     1800.00
03904             116.00     2000.00
03905              46.00     2000.00
03906            -136.00     2000.00
03907              48.00     2200.00
03908              24.00     2400.00
03909             -48.00     2400.00
03910              34.00     2400.00
03911             -74.00     2400.00
03912               0.00     2600.00
03913             118.00     2600.00
03914            -122.00     2600.00
03915             -66.00     2800.00
03916             146.00     2800.00
03917             -64.00     2600.00
03918             -72.00     2800.00
03919              80.00     3000.00
03920             -56.00     2800.00
03921             -26.00     3000.00
03922              56.00     3200.00
03923             -72.00     3200.00
03924               0.00     3200.00
03925              28.00     3200.00
03926             -58.00     3200.00
03927              22.00     3400.00
03928              10.00     3200.00
03929             -64.00     3200.00
03930              22.00     3400.00
03931               0.00     3400.00
03932             -46.00     3400.00
03933              10.00     3600.00
03934               0.00     3600.00
03935             -22.00     3600.00
03936             -22.00     3800.00
03937             -18.00     3600.00
03938               8.00     3600.00
03939             -10.00     3600.00
03940             -32.00     3800.00
03941               0.00     3800.00
03942             -10.00     3600.00
03943             -28.00     3800.00
03944              -8.00     4000.00
03945               2.00     4000.00
03946             -20.00     4000.00
03947             -18.00     4000.00
03948              -2.00     4200.00
03949             -16.00     4000.00
03950             -26.00     4000.00
03951              -8.00     4200.00
03952              -6.00     4200.00
03953             -16.00     4200.00
03954             -18.00     4000.00
03955             -10.00     4200.00
03956              -6.00     4400.00
03957             -18.00     4200.00
03958             -16.00     4200.00
03959               0.00     4200.00
03960             -14.00     4400.00
03961             -22.00     4200.00
03962             -10.00     4400.00
03963             -10.00     4400.00
03964             -16.00     4400.00
03965             -16.00     4200.00
03966              -8.00     4400.00
03967              -8.00     4400.00
03968             -14.00     4400.00
03969             -18.00     4200.00
03970             -10.00     4400.00
03971             -10.00     4400.00
03972             -12.00     4400.00
03973              -8.00     4400.00
03974             -10.00     4400.00
03975             -18.00     4400.00
03976             -16.00     4400.00
03977             -10.00     4200.00
03978             -14.00     4200.00
03979             -10.00     4400.00
03980              -8.00     4200.00
03981             -12.00     4200.00
03982             -18.00     4200.00
03983             -16.00     4200.00
03984              -8.00     4200.00
03985              -6.00     4200.00
03986             -14.00     4200.00
03987             -10.00     4200.00
03988             -14.00     4200.00
03989             -16.00     4200.00
03990             -14.00     4000.00
03991             -10.00     4200.00
03992             -10.00     4200.00
03993             -14.00     4000.00
03994             -14.00     4000.00
03995             -14.00     4000.00
03996             -14.00     4200.00
03997             -16.00     4000.00
03998             -10.00     4000.00
03999             -12.00     4000.00
04000             -14.00     3800.00
04001             -10.00     4000.00
04002             -10.00     3800.00
04003             -16.00     4000.00
04004             -14.00     3600.00
04005             -10.00     3600.00
04006             -10.00     3600.00
04007             -14.00     3600.00
04008             -12.00     3600.00
04009             -12.00     3600.00
04010             -12.00     3600.00
04011             -10.00     3400.00
04012             -10.00     3400.00
04013              -8.00     3200.00
04014             -16.00     3400.00
04015             -16.00     3200.00
04016             -10.00     3400.00
04017             -10.00     3400.00
04018              -8.00     3200.00
04019              -8.00     3200.00
04020             -10.00     3200.00
04021             -10.00     3000.00
04022             -14.00     2800.00
04023             -10.00     3000.00
04024             -10.00     2800.00
04025              -8.00     2800.00
04026              -8.00     2800.00
04027             -10.00     2800.00
04028             -14.00     2800.00
04029             -10.00     2600.00
04030              -8.00     2600.00
04031              -6.00     2400.00
04032              -8.00     2600.00
04033              -6.00     2600.00
04034              -6.00     2400.00
04035             -10.00     2200.00
04036             -10.00     2200.00
04037              -6.00     2200.00
04038              -8.00     2000.00
04039              -6.00     2000.00
04040              -8.00     2000.00
04041              -8.00     1800.00
04042             -10.00     1800.00
04043              -8.00     1800.00
04044               0.00     1800.00
04045               0.00     1600.00
04046             -10.00     1600.00
04047             -14.00     1600.00
04048             -10.00     1600.00
04049               0.00     1600.00
04050               2.00     1600.00
04051              -2.00     1400.00
04052              -6.00     1200.00
04053             -10.00     1200.00
04054              -8.00     1200.00
04055              -2.00     1200.00
04056              -2.00     1000.00
04057              -6.00     1000.00
04058              -4.00      800.00
04059              -2.00      800.00
04060              -8.00      600.00
04061             -10.00      800.00
04062              -8.00      600.00
04063               0.00      400.00
04064               6.00      400.00
04065              -6.00      400.00
04066             -16.00      200.00
04067              -8.00      200.00
04068               2.00      400.00
04069               6.00        0.00
04070               0.00        0.00
04071               6.00        0.00
04072               0.00        0.00
04073              -6.00     -200.00
04074              -2.00        0.00
04075              -2.00     -200.00
04076               8.00     -400.00
04077              50.00     -400.00
04078             130.00     -600.00
04079             -10.00     -800.00
04080            -254.00     -800.00
04081            -182.00     -400.00
04082             246.00     -600.00
04083             246.00     -800.00
04084            -254.00    -1000.00
04085            -254.00     -800.00
04086             246.00    -1200.00
04087             224.00    -1000.00
04088            -254.00    -1200.00
04089             -54.00    -1200.00
04090             246.00    -1400.00
04091             -74.00    -1200.00
04092            -194.00    -1400.00
04093             114.00    -1600.00
04094              -8.00    -1400.00
04095             -88.00    -1600.00
04096             162.00    -1600.00
04097               2.00    -1600.00
04098            -170.00    -1800.00
04099              54.00    -2000.00
04100             128.00    -1800.00
04101             -66.00    -2000.00
04102             -44.00    -2200.00
04103              24.00    -2200.00
04104              24.00    -2000.00
04105              38.00    -2400.00
04106             -40.00    -2200.00
04107             -40.00    -2200.00
04108              50.00    -2400.00
04109              40.00    -2400.00
04110             -34.00    -2400.00
04111             -10.00    -2600.00
04112              14.00    -2800.00
04113              18.00    -2600.00
04114               6.00    -2800.00
04115             -16.00    -2600.00
04116              -2.00    -2800.00
04117              18.00    -2800.00
04118              14.00    -2800.00
04119              -2.00    -3000.00
04120               0.00    -3000.00
04121               0.00    -3000.00
04122               8.00    -3000.00
04123               6.00    -3200.00
04124              -2.00    -3000.00
04125              -6.00    -3200.00
04126              22.00    -3200.00
04127              10.00    -3200.00
04128             -16.00    -3200.00
04129               6.00    -3200.00
04130              22.00    -3200.00
04131               6.00    -3400.00
04132               0.00    -3400.00
04133               6.00    -3600.00
04134              -6.00    -3600.00
04135               2.00    -3600.00
04136               8.00    -3400.00
04137               8.00    -3600.00
04138               8.00    -3600.00
04139               2.00    -3600.00
04140               2.00    -3600.00
04141               6.00    -3600.00
04142              -2.00    -3600.00
04143               6.00    -3800.00
04144              18.00    -3600.00
04145               6.00    -3800.00
04146              -2.00    -3800.00
04147               6.00    -3800.00
04148               8.00    -3800.00
04149               6.00    -4000.00
04150               6.00    -3800.00
04151              12.00    -3800.00
04152               8.00    -3800.00
04153               6.00    -4000.00
04154               0.00    -4000.00
04155               2.00    -4000.00
04156               6.00    -4000.00
04157               6.00    -4000.00
04158              12.00    -4000.00
04159              10.00    -3800.00
04160               2.00    -4000.00
04161               6.00    -3800.00
04162              10.00    -3800.00
04163               8.00    -4000.00
04164               8.00    -3800.00
04165              10.00    -4200.00
04166               8.00    -3800.00
04167               6.00    -3800.00
04168               4.00    -4000.00
04169               8.00    -3800.00
04170              10.00    -3800.00
04171               8.00    -4000.00
04172               8.00    -3800.00
04173               8.00    -3800.00
04174               2.00    -3800.00
04175               2.00    -3800.00
04176               8.00    -3800.00
04177               8.00    -3800.00
04178               8.00    -3800.00
04179               8.00    -3800.00
04180               6.00    -3800.00
04181               4.00    -3600.00
04182               6.00    -3800.00
04183               8.00    -3800.00
04184               8.00    -3600.00
04185              10.00    -3800.00
04186               6.00    -3600.00
04187               6.00    -3600.00
04188               4.00    -3800.00
04189               6.00    -3600.00
04190               8.00    -3600.00
04191               8.00    -3600.00
04192               6.00    -3600.00
04193               4.00    -3600.00
04194               2.00    -3200.00
04195               2.00    -3400.00
04196               4.00    -3400.00
04197               8.00    -3200.00
04198               6.00    -3200.00
04199               4.00    -3200.00
04200               2.00    -3200.00
04201               0.00    -3200.00
04202               2.00    -3200.00
04203               6.00    -3000.00
04204               6.00    -3000.00
04205               6.00    -3200.00
04206               4.00    -3000.00
04207               0.00    -2800.00
04208               2.00    -3000.00
04209               6.00    -2800.00
04210               2.00    -2800.00
04211               6.00    -3000.00
04212               2.00    -2800.00
04213               0.00    -2600.00
04214               0.00    -2600.00
04215               2.00    -2400.00
04216               6.00    -2600.00
04217               6.00    -2600.00
04218               6.00    -2400.00
04219               2.00    -2400.00
04220               0.00    -2400.00
04221               0.00    -2200.00
04222               2.00    -2200.00
04223               2.00    -2200.00
04224               2.00    -2000.00
04225               6.00    -2000.00
04226               2.00    -2000.00
04227               2.00    -2000.00
04228              -2.00    -2000.00
04229               2.00    -1600.00
04230               6.00    -1600.00
04231               6.00    -1600.00
04232               0.00    -1600.00
04233              -2.00    -1400.00
04234               0.00    -1400.00
04235               0.00    -1000.00
04236               6.00    -1400.00
04237               2.00    -1000.00
04238               0.00    -1200.00
04239               2.00    -1000.00
04240               0.00    -1000.00
04241               0.00    -1000.00
04242               0.00    -1000.00
04243              -2.00     -800.00
04244              -2.00     -800.00
04245               0.00     -800.00
04246               0.00     -600.00
04247               2.00     -600.00
04248               0.00     -400.00
04249              -6.00     -400.00
04250              -6.00     -400.00
04251              -2.00     -400.00
04252               0.00     -400.00
04253               0.00     -200.00
04254               0.00        0.00
04255               0.00     -200.00
04256              -6.00        0.00
04257             -10.00        0.00
04258              -8.00      200.00
04259               0.00      200.00
04260               2.00      200.00
04261               0.00      400.00
04262               2.00      400.00
04263               6.00      400.00
04264              -2.00      600.00
04265             -10.00      400.00
04266              -2.00      800.00
04267               0.00      800.00
04268              38.00      800.00
04269             148.00     1000.00
04270               6.00     1000.00
04271            -254.00      800.00
04272            -180.00     1000.00
04273             246.00     1400.00
04274             246.00     1400.00
04275            -254.00      800.00
04276            -254.00     1000.00
04277             246.00     1600.00
04278             196.00     1400.00
04279            -254.00     1200.00
04280              28.00     1600.00
04281             246.00     1800.00
04282            -208.00     1600.00
04283            -254.00     1600.00
04284             246.00     2000.00
04285              58.00     1600.00
04286            -218.00     1800.00
04287              96.00     2000.00
04288              70.00     2000.00
04289            -138.00     2000.00
04290              34.00     2000.00
04291              32.00     2400.00
04292             -48.00     2200.00
04293              34.00     2400.00
04294             -64.00     2400.00
04295             -16.00     2600.00
04296             122.00     2600.00
04297            -112.00     2600.00
04298             -88.00     2800.00
04299             144.00     2800.00
04300             -48.00     2800.00
04301             -86.00     2800.00
04302              82.00     2800.00
04303             -48.00     2800.00
04304             -34.00     3000.00
04305              62.00     3200.00
04306             -66.00     3000.00
04307              -8.00     3200.00
04308              34.00     3200.00
04309             -64.00     3400.00
04310              16.00     3400.00
04311              22.00     3400.00
04312             -64.00     3400.00
04313              16.00     3400.00
04314               6.00     3400.00
04315             -46.00     3600.00
04316               8.00     3600.00
04317               0.00     3600.00
04318             -24.00     3600.00
04319             -18.00     3600.00
04320             -22.00     3600.00
04321               8.00     3600.00
04322              -8.00     3800.00
04323             -32.00     3800.00
04324               0.00     3800.00
04325              -6.00     4000.00
04326             -30.00     4000.00
04327              -8.00     4000.00
04328               0.00     4000.00
04329             -18.00     4000.00
04330             -20.00     4000.00
04331              -6.00     4200.00
04332             -10.00     4000.00
04333             -26.00     4000.00
04334             -14.00     4000.00
04335              -4.00     4000.00
04336             -14.00     4000.00
04337             -22.00     4200.00
04338             -10.00     4200.00
04339              -8.00     4200.00
04340             -22.00     4200.00
04341             -16.00     4200.00
04342              -2.00     4200.00
04343             -14.00     4200.00
04344             -22.00     4400.00
04345             -10.00     4400.00
04346             -10.00     4400.00
04347             -16.00     4400.00
04348             -12.00     4400.00
04349              -8.00     4200.00
04350              -8.00     4400.00
04351             -16.00     4400.00
04352             -16.00     4400.00
04353             -10.00     4400.00
04354             -14.00     4200.00
04355             -16.00     4200.00
04356              -8.00     4200.00
04357             -10.00     4400.00
04358             -16.00     4400.00
04359             -16.00     4400.00
04360             -10.00     4400.00
04361             -10.00     4400.00
04362             -10.00     4400.00
04363             -10.00     4200.00
04364             -10.00     4200.00
04365             -16.00     4200.00
04366             -16.00     4200.00
04367             -12.00     4200.00
04368             -10.00     4200.00
04369             -10.00     4200.00
04370             -10.00     4200.00
04371             -10.00     4200.00
04372             -16.00     4000.00
04373             -14.00     4200.00
04374              -8.00     4000.00
04375             -10.00     4200.00
04376             -14.00     4000.00
04377             -12.00     4000.00
04378             -14.00     4000.00
04379             -16.00     4000.00
04380             -14.00     4000.00
04381              -8.00     4000.00
04382              -8.00     4000.00
04383             -14.00     4000.00
04384             -10.00     4000.00
04385             -14.00     3800.00
04386             -16.00     3800.00
04387             -14.00     3800.00
04388             -10.00     3800.00
04389             -10.00     3600.00
04390             -14.00     3600.00
04391             -12.00     3600.00
04392             -12.00     3600.00
04393             -14.00     3600.00
04394             -10.00     3600.00
04395             -10.00     3400.00
04396             -10.00     3400.00
04397             -14.00     3400.00
04398             -14.00     3600.00
04399             -10.00     3200.00
04400             -10.00     3400.00
04401             -10.00     3200.00
04402              -8.00     3200.00
04403             -10.00     3200.00
04404             -10.00     3200.00
04405             -14.00     2800.00
04406             -12.00     3000.00
04407             -10.00     2800.00
04408             -10.00     2800.00
04409              -8.00     2800.00
04410              -8.00     2800.00
04411             -10.00     2800.00
04412             -10.00     2600.00
04413              -8.00     2600.00
04414              -8.00     2600.00
04415              -8.00     2600.00
04416             -10.00     2400.00
04417             -10.00     2400.00
04418             -10.00     2200.00
04419             -10.00     2200.00
04420             -10.00     2400.00
04421              -2.00     2000.00
04422              -8.00     2000.00
04423              -8.00     2000.00
04424              -6.00     1800.00
04425             -10.00     1800.00
04426             -10.00     2000.00
04427              -8.00     1800.00
04428              -6.00     1600.00
04429              -8.00     1600.00
04430              -8.00     1600.00
04431              -6.00     1600.00
04432              -8.00     1400.00
04433              -8.00     1200.00
04434              -6.00     1200.00
04435              -2.00     1200.00
04436              -8.00     1200.00
04437              -8.00     1000.00
04438              -6.00     1000.00
04439              -8.00     1000.00
04440              -8.00     1000.00
04441              -6.00      800.00
04442              -2.00      800.00
04443              -2.00      800.00
04444              -6.00      600.00
04445              -6.00      400.00
04446              -2.00      600.00
04447              -4.00      400.00
04448              -2.00      400.00
04449              -8.00      200.00
04450              -2.00      200.00
04451               0.00      200.00
04452              -2.00        0.00
04453               0.00      200.00
04454               4.00        0.00
04455               2.00        0.00
04456              -6.00        0.00
04457              -6.00        0.00
04458              -2.00     -200.00
04459               6.00     -400.00
04460              44.00     -400.00
04461             130.00     -400.00
04462              10.00     -800.00
04463            -254.00     -800.00
04464            -224.00     -600.00
04465             246.00     -600.00
04466             246.00     -800.00
04467            -254.00    -1000.00
04468            -254.00     -800.00
04469             246.00    -1200.00
04470             246.00    -1000.00
04471            -254.00    -1200.00
04472            -104.00    -1200.00
04473             246.00    -1400.00
04474             -34.00    -1400.00
04475            -216.00    -1400.00
04476             102.00    -1600.00
04477               6.00    -1400.00
04478             -96.00    -1600.00
04479             154.00    -1600.00
04480              26.00    -1600.00
04481            -176.00    -1600.00
04482              32.00    -2000.00
04483             138.00    -1800.00
04484             -58.00    -2000.00
04485             -50.00    -2200.00
04486              18.00    -2000.00
04487              24.00    -2000.00
04488              38.00    -2400.00
04489             -34.00    -2400.00
04490             -46.00    -2200.00
04491              46.00    -2400.00
04492              46.00    -2400.00
04493             -34.00    -2400.00
04494             -14.00    -2600.00
04495              14.00    -2600.00
04496              22.00    -2400.00
04497               6.00    -2600.00
04498             -14.00    -2600.00
04499              -6.00    -2800.00
04500              16.00    -2800.00
04501              14.00    -2800.00
04502               0.00    -3000.00
04503               0.00    -3000.00
04504               2.00    -3000.00
04505              10.00    -3000.00
04506               6.00    -3200.00
04507               0.00    -3000.00
04508              -2.00    -3200.00
04509              20.00    -3200.00
04510              14.00    -3200.00
04511             -18.00    -3200.00
04512               0.00    -3200.00
04513              24.00    -3400.00
04514               4.00    -3200.00
04515              -2.00    -3600.00
04516               8.00    -3400.00
04517              -2.00    -3600.00
04518               2.00    -3400.00
04519              12.00    -3600.00
04520               6.00    -3600.00
04521               6.00    -3600.00
04522               6.00    -3600.00
04523               2.00    -3600.00
04524              10.00    -3600.00
04525               2.00    -3600.00
04526               0.00    -3800.00
04527              16.00    -3800.00
04528               6.00    -3800.00
04529              -2.00    -3800.00
04530               8.00    -3800.00
04531               8.00    -3800.00
04532               0.00    -4000.00
04533               6.00    -3800.00
04534              10.00    -3800.00
04535               8.00    -4000.00
04536               6.00    -3800.00
04537               0.00    -4000.00
04538               6.00    -4000.00
04539               8.00    -4000.00
04540               6.00    -4000.00
04541              12.00    -3800.00
04542              10.00    -4000.00
04543               2.00    -3800.00
04544               8.00    -4000.00
04545               8.00    -4000.00
04546               6.00    -3800.00
04547               8.00    -4000.00
04548               8.00    -3800.00
04549               6.00    -4000.00
04550               8.00    -4000.00
04551               6.00    -3800.00
04552               6.00    -4000.00
04553              10.00    -4000.00
04554              10.00    -4000.00
04555               6.00    -3800.00
04556              10.00    -3800.00
04557               2.00    -3800.00
04558               4.00    -4000.00
04559               8.00    -3800.00
04560               8.00    -3800.00
04561               6.00    -3800.00
04562               8.00    -3800.00
04563               8.00    -3800.00
04564               6.00    -3800.00
04565               8.00    -3600.00
04566               6.00    -3800.00
04567               6.00    -3600.00
04568               6.00    -3600.00
04569               6.00    -3600.00
04570               8.00    -3600.00
04571               4.00    -3600.00
04572               2.00    -3600.00
04573               8.00    -3600.00
04574              10.00    -3600.00
04575               8.00    -3600.00
04576              10.00    -3600.00
04577               4.00    -3600.00
04578               0.00    -3400.00
04579               2.00    -3400.00
04580               6.00    -3200.00
04581               8.00    -3200.00
04582               8.00    -3200.00
04583               2.00    -3200.00
04584               6.00    -3200.00
04585               2.00    -3200.00
04586               2.00    -3000.00
04587               8.00    -3200.00
04588               6.00    -3000.00
04589               2.00    -3000.00
04590               2.00    -2800.00
04591               0.00    -3000.00
04592               0.00    -3000.00
04593               6.00    -2800.00
04594               6.00    -2800.00
04595               6.00    -2800.00
04596               2.00    -2600.00
04597               0.00    -2800.00
04598               0.00    -2600.00
04599               0.00    -2400.00
04600              -2.00    -2400.00
04601               2.00    -2400.00
04602               6.00    -2400.00
04603               6.00    -2400.00
04604               6.00    -2400.00
04605               2.00    -2200.00
04606               0.00    -2200.00
04607              -2.00    -2000.00
04608               0.00    -2200.00
04609               6.00    -2000.00
04610               6.00    -2000.00
04611               0.00    -1800.00
04612               0.00    -1800.00
04613               0.00    -1600.00
04614               0.00    -1600.00
04615               4.00    -1600.00
04616               0.00    -1400.00
04617              -2.00    -1400.00
04618              -2.00    -1400.00
04619               0.00    -1200.00
04620               2.00    -1400.00
04621               2.00    -1000.00
04622               2.00    -1200.00
04623               0.00    -1000.00
04624               0.00    -1000.00
04625               0.00     -800.00
04626              -6.00     -800.00
04627               0.00     -800.00
04628               0.00     -800.00
04629               0.00     -800.00
04630               0.00     -600.00
04631               6.00     -600.00
04632              -6.00     -600.00
04633              -2.00     -400.00
04634               0.00     -400.00
04635               0.00     -400.00
04636               0.00     -200.00
04637              -2.00        0.00
04638              -8.00        0.00
04639              -2.00        0.00
04640              -2.00      200.00
04641              -2.00        0.00
04642               2.00      200.00
04643               2.00      200.00
04644              -6.00      200.00
04645               0.00      400.00
04646              10.00      400.00
04647               0.00      400.00
04648              -2.00      400.00
04649              -8.00      600.00
04650              -2.00      600.00
04651              38.00      800.00
04652             144.00      800.00
04653              30.00     1000.00
04654            -254.00      800.00
04655            -234.00      800.00
04656             246.00     1200.00
04657             246.00     1200.00
04658            -254.00     1000.00
04659            -254.00     1200.00
04660             246.00     1600.00
04661             246.00     1400.00
04662            -254.00     1200.00
04663             -40.00     1600.00
04664             246.00     1800.00
04665            -154.00     1600.00
04666            -254.00     1600.00
04667             238.00     2000.00
04668              98.00     1600.00
04669            -222.00     1800.00
04670              70.00     2000.00
04671              94.00     2000.00
04672            -140.00     2000.00
04673              24.00     2600.00
04674              46.00     2200.00
04675             -54.00     2400.00
04676              30.00     2400.00
04677             -58.00     2400.00
04678             -32.00     2400.00
04679             128.00     2600.00
04680             -90.00     2600.00
04681            -106.00     2800.00
04682             142.00     2800.00
04683             -30.00     2600.00
04684             -98.00     3000.00
04685              82.00     2800.00
04686             -32.00     3000.00
04687             -46.00     3000.00
04688              62.00     3200.00
04689             -64.00     3000.00
04690             -18.00     3200.00
04691              40.00     3400.00
04692             -62.00     3200.00
04693              10.00     3400.00
04694              30.00     3400.00
04695             -66.00     3400.00
04696               8.00     3600.00
04697              10.00     3400.00
04698             -46.00     3600.00
04699               8.00     3600.00
04700               8.00     3600.00
04701             -24.00     3600.00
04702             -22.00     3600.00
04703             -22.00     3800.00
04704               8.00     3600.00
04705               0.00     3800.00
04706             -26.00     3800.00
04707              -6.00     4000.00
04708              -8.00     4000.00
04709             -28.00     3800.00
04710              -6.00     4000.00
04711               6.00     3800.00
04712             -18.00     4000.00
04713             -26.00     4000.00
04714              -6.00     4000.00
04715              -8.00     4000.00
04716             -18.00     4000.00
04717             -10.00     4000.00
04718              -6.00     4000.00
04719             -16.00     4000.00
04720             -24.00     4200.00
04721             -12.00     4200.00
04722              -2.00     4200.00
04723             -16.00     4200.00
04724             -18.00     4200.00
04725              -2.00     4200.00
04726             -12.00     4200.00
04727             -22.00     4400.00
04728             -10.00     4400.00
04729             -10.00     4200.00
04730             -16.00     4200.00
04731             -16.00     4400.00
04732             -10.00     4400.00
04733             -10.00     4400.00
04734             -18.00     4200.00
04735             -16.00     4200.00
04736             -10.00     4400.00
04737             -14.00     4200.00
04738             -16.00     4200.00
04739             -10.00     4400.00
04740             -10.00     4400.00
04741             -16.00     4200.00
04742             -16.00     4400.00
04743             -10.00     4200.00
04744             -10.00     4200.00
04745             -14.00     4200.00
04746             -10.00     4400.00
04747             -10.00     4200.00
04748             -16.00     4200.00
04749             -16.00     4200.00
04750             -10.00     4400.00
04751             -10.00     4200.00
04752             -10.00     4200.00
04753             -10.00     4200.00
04754             -14.00     4200.00
04755             -16.00     4200.00
04756             -14.00     4200.00
04757             -10.00     4200.00
04758              -8.00     4200.00
04759             -14.00     4000.00
04760             -10.00     4000.00
04761             -12.00     4000.00
04762             -16.00     4000.00
04763             -14.00     4000.00
04764             -10.00     4000.00
04765              -8.00     4000.00
04766             -10.00     3800.00
04767             -10.00     4000.00
04768             -10.00     3800.00
04769             -14.00     3800.00
04770             -16.00     3600.00
04771              -8.00     3800.00
04772              -8.00     3600.00
04773             -12.00     3600.00
04774             -14.00     3600.00
04775             -14.00     3400.00
04776             -16.00     3600.00
04777             -14.00     3400.00
04778             -10.00     3400.00
04779              -8.00     3400.00
04780             -12.00     3400.00
04781             -16.00     3200.00
04782             -12.00     3200.00
04783             -16.00     3200.00
04784             -14.00     3200.00
04785              -8.00     3200.00
04786             -10.00     3200.00
04787             -10.00     3200.00
04788             -10.00     3200.00
04789             -10.00     3000.00
04790             -10.00     2800.00
04791             -10.00     2800.00
04792             -10.00     2800.00
04793              -8.00     2800.00
04794             -14.00     2600.00
04795             -10.00     2600.00
04796              -8.00     2600.00
04797              -8.00     2600.00
04798              -8.00     2400.00
04799             -10.00     2400.00
04800             -10.00     2400.00
04801              -6.00     2200.00
04802             -10.00     2000.00
04803              -8.00     2400.00
04804              -8.00     2000.00
04805             -10.00     2000.00
04806              -8.00     2000.00
04807              -6.00     2000.00
04808             -10.00     2000.00
04809             -14.00     1800.00
04810             -10.00     1800.00
04811              -6.00     1800.00
04812              -4.00     1600.00
04813             -10.00     1600.00
04814             -10.00     1600.00
04815              -2.00     1400.00
04816              -6.00     1200.00
04817              -8.00     1400.00
04818              -8.00     1200.00
04819              -8.00     1200.00
04820              -6.00     1200.00
04821               2.00     1000.00
04822              -2.00     1000.00
04823              -8.00     1000.00
04824             -14.00      800.00
04825              -6.00      800.00
04826               0.00      800.00
04827               2.00      800.00
04828              -6.00      600.00
04829             -10.00      600.00
04830              -4.00      400.00
04831               0.00      400.00
04832              -2.00      400.00
04833              -2.00      400.00
04834               0.00      200.00
04835              -2.00      200.00
04836               4.00      200.00
04837               8.00        0.00
04838               2.00        0.00
04839              -2.00        0.00
04840             -10.00        0.00
04841              -6.00        0.00
04842               8.00     -200.00
04843              38.00     -400.00
04844             130.00     -600.00
04845              32.00     -600.00
04846            -254.00     -800.00
04847            -254.00     -600.00
04848             246.00     -600.00
04849             246.00     -800.00
04850            -254.00    -1000.00
04851            -254.00     -800.00
04852             246.00    -1200.00
04853             246.00    -1000.00
04854            -254.00    -1200.00
04855            -152.00    -1000.00
04856             246.00    -1200.00
04857              10.00    -1000.00
04858            -234.00    -1600.00
04859              88.00    -1600.00
04860              28.00    -1400.00
04861            -110.00    -1600.00
04862             144.00    -1800.00
04863              46.00    -1600.00
04864            -178.00    -1600.00
04865              16.00    -2000.00
04866             150.00    -2000.00
04867             -50.00    -2000.00
04868             -56.00    -2200.00
04869              14.00    -2000.00
04870              24.00    -2000.00
04871              42.00    -2400.00
04872             -26.00    -2400.00
04873             -48.00    -2200.00
04874              38.00    -2400.00
04875              46.00    -2400.00
04876             -32.00    -2400.00
04877             -10.00    -2400.00
04878              12.00    -2600.00
04879              22.00    -2400.00
04880               8.00    -2800.00
04881             -16.00    -2800.00
04882              -8.00    -2800.00
04883              22.00    -2800.00
04884              16.00    -2800.00
04885               0.00    -2800.00
04886              -2.00    -3000.00
04887               2.00    -2800.00
04888              14.00    -3000.00
04889               6.00    -3200.00
04890               0.00    -3200.00
04891              -2.00    -3200.00
04892              18.00    -3200.00
04893              14.00    -3200.00
04894             -16.00    -3400.00
04895              -2.00    -3400.00
04896              26.00    -3200.00
04897              10.00    -3400.00
04898              -2.00    -3600.00
04899               8.00    -3600.00
04900               0.00    -3600.00
04901               2.00    -3600.00
04902              14.00    -3600.00
04903               8.00    -3600.00
04904               4.00    -3600.00
04905               4.00    -3800.00
04906               6.00    -3600.00
04907              14.00    -3800.00
04908               2.00    -3800.00
04909               6.00    -3800.00
04910              14.00    -3800.00
04911               6.00    -3800.00
04912              -6.00    -3800.00
04913               8.00    -3800.00
04914              10.00    -3800.00
04915               6.00    -3800.00
04916               6.00    -3800.00
04917               6.00    -4000.00
04918               6.00    -4000.00
04919               8.00    -4000.00
04920               2.00    -4000.00
04921               6.00    -3800.00
04922               6.00    -4000.00
04923               8.00    -4000.00
04924               8.00    -4000.00
04925               8.00    -4000.00
04926               0.00    -4000.00
04927               6.00    -3800.00
04928               8.00    -4000.00
04929               8.00    -3800.00
04930               8.00    -4000.00
04931               6.00    -4000.00
04932               6.00    -3800.00
04933               6.00    -4000.00
04934               6.00    -4000.00
04935               8.00    -4000.00
04936              10.00    -4000.00
04937               6.00    -4000.00
04938               8.00    -4000.00
04939               8.00    -4000.00
04940               2.00    -4000.00
04941               2.00    -3800.00
04942               8.00    -4000.00
04943              10.00    -4000.00
04944               8.00    -3800.00
04945               8.00    -3800.00
04946               6.00    -3800.00
04947               2.00    -3800.00
04948               6.00    -3800.00
04949               6.00    -3800.00
04950              12.00    -3800.00
04951               8.00    -3600.00
04952               6.00    -3800.00
04953               6.00    -3600.00
04954               6.00    -3800.00
04955               6.00    -3600.00
04956              10.00    -3600.00
04957               6.00    -3600.00
04958               6.00    -3600.00
04959               6.00    -3600.00
04960               6.00    -3400.00
04961               6.00    -3400.00
04962               6.00    -3400.00
04963               6.00    -3400.00
04964               8.00    -3200.00
04965               8.00    -3200.00
04966               6.00    -3200.00
04967               6.00    -3000.00
04968               4.00    -3200.00
04969               2.00    -3000.00
04970               6.00    -3000.00
04971               6.00    -3000.00
04972               6.00    -3000.00
04973               2.00    -3000.00
04974               2.00    -2800.00
04975               2.00    -3000.00
04976               2.00    -2800.00
04977               6.00    -2600.00
04978               2.00    -2800.00
04979               6.00    -2800.00
04980               0.00    -2800.00
04981               2.00    -2600.00
04982               0.00    -2400.00
04983               0.00    -2600.00
04984               2.00    -2400.00
04985               2.00    -2400.00
04986               2.00    -2200.00
04987               0.00    -2200.00
04988               0.00    -2200.00
04989               0.00    -2200.00
04990               2.00    -2200.00
04991               0.00    -2000.00
04992               2.00    -2200.00
04993               0.00    -2000.00
04994              -2.00    -2000.00
04995               0.00    -1800.00
04996               6.00    -1800.00
04997               0.00    -1600.00
04998               0.00    -1600.00
04999               0.00    -1600.00
05000               0.00    -1400.00
