Unit:(mV)
                     CH1         CH2
Frequency              ? 261.059 kHz
00001              -6.00    -2600.00
00002              -2.00    -2400.00
00003              -2.00    -2400.00
00004               2.00    -2400.00
00005               6.00    -2400.00
00006              -2.00    -2400.00
00007              -8.00    -2200.00
00008              -2.00    -2200.00
00009               0.00    -2200.00
00010               2.00    -2200.00
00011              -2.00    -2000.00
00012               0.00    -2000.00
00013               0.00    -2000.00
00014              -8.00    -1800.00
00015              -6.00    -2000.00
00016               2.00    -1600.00
00017               4.00    -1600.00
00018               2.00    -1600.00
00019               0.00    -1600.00
00020              -8.00    -1400.00
00021              -4.00    -1400.00
00022              -2.00    -1400.00
00023               0.00    -1200.00
00024               0.00    -1400.00
00025              -2.00    -1000.00
00026              -8.00    -1200.00
00027              -6.00    -1000.00
00028              -6.00    -1000.00
00029              -2.00     -800.00
00030               6.00     -800.00
00031               6.00     -800.00
00032               0.00     -600.00
00033              -2.00     -600.00
00034             -14.00     -600.00
00035             -16.00     -600.00
00036             -14.00     -400.00
00037             -10.00     -600.00
00038              -2.00     -400.00
00039               8.00     -200.00
00040               8.00     -200.00
00041               8.00        0.00
00042               4.00        0.00
00043              -8.00        0.00
00044             -18.00      200.00
00045             -20.00      200.00
00046             -14.00      400.00
00047               0.00      400.00
00048              10.00      400.00
00049              16.00      400.00
00050              14.00      400.00
00051               0.00      400.00
00052             -14.00      800.00
00053             -10.00      800.00
00054               0.00      800.00
00055              62.00     1000.00
00056             170.00     1000.00
00057             -44.00     1000.00
00058            -254.00      800.00
00059            -106.00     1000.00
00060             246.00     1200.00
00061             246.00     1400.00
00062            -254.00     1000.00
00063            -254.00     1200.00
00064             246.00     1600.00
00065             198.00     1400.00
00066            -254.00     1200.00
00067              38.00     1600.00
00068             246.00     1800.00
00069            -202.00     1400.00
00070            -254.00     1800.00
00071             232.00     2000.00
00072              14.00     1800.00
00073            -126.00     1800.00
00074             132.00     2000.00
00075             -24.00     2000.00
00076            -128.00     2000.00
00077              78.00     2400.00
00078              18.00     2200.00
00079             -38.00     2400.00
00080              42.00     2600.00
00081             -82.00     2400.00
00082              20.00     2600.00
00083             126.00     2800.00
00084            -144.00     2600.00
00085             -58.00     2800.00
00086             150.00     3000.00
00087             -62.00     2600.00
00088             -50.00     2800.00
00089              76.00     3000.00
00090             -66.00     2800.00
00091               0.00     3200.00
00092              56.00     3200.00
00093             -86.00     3200.00
00094              16.00     3200.00
00095              24.00     3200.00
00096             -54.00     3200.00
00097              42.00     3400.00
00098               0.00     3400.00
00099             -64.00     3400.00
00100              38.00     3600.00
00101              -2.00     3400.00
00102             -42.00     3400.00
00103              22.00     3600.00
00104               0.00     3600.00
00105             -16.00     3600.00
00106             -12.00     3800.00
00107             -14.00     3600.00
00108              16.00     3600.00
00109              -2.00     3800.00
00110             -30.00     4000.00
00111               6.00     3600.00
00112              -2.00     4000.00
00113             -18.00     3800.00
00114               6.00     4000.00
00115               8.00     4000.00
00116             -18.00     4000.00
00117             -10.00     4000.00
00118               6.00     4000.00
00119             -10.00     4000.00
00120             -16.00     4000.00
00121               0.00     4000.00
00122               4.00     4200.00
00123              -6.00     4200.00
00124             -16.00     4200.00
00125              -6.00     4200.00
00126               2.00     4200.00
00127             -12.00     4200.00
00128              -8.00     4200.00
00129               6.00     4200.00
00130              -6.00     4400.00
00131             -16.00     4200.00
00132              -2.00     4400.00
00133              -2.00     4400.00
00134             -10.00     4200.00
00135              -6.00     4400.00
00136               0.00     4400.00
00137              -2.00     4400.00
00138              -8.00     4200.00
00139             -10.00     4400.00
00140              -2.00     4200.00
00141              -2.00     4200.00
00142              -6.00     4400.00
00143               0.00     4400.00
00144              -2.00     4400.00
00145             -14.00     4400.00
00146              -6.00     4200.00
00147               0.00     4200.00
00148              -8.00     4200.00
00149              -2.00     4400.00
00150               0.00     4400.00
00151              -2.00     4200.00
00152              -8.00     4200.00
00153             -10.00     4400.00
00154              -2.00     4400.00
00155              -2.00     4200.00
00156             -10.00     4200.00
00157              -6.00     4200.00
00158              -6.00     4200.00
00159             -10.00     4000.00
00160              -6.00     4200.00
00161              -2.00     4000.00
00162              -2.00     4000.00
00163              -6.00     4000.00
00164              -6.00     4000.00
00165             -10.00     4200.00
00166             -10.00     4000.00
00167              -6.00     4000.00
00168              -2.00     4000.00
00169              -6.00     4000.00
00170              -8.00     3800.00
00171              -6.00     4000.00
00172              -6.00     4000.00
00173             -10.00     3800.00
00174              -2.00     3600.00
00175               0.00     3800.00
00176              -2.00     3600.00
00177             -10.00     3600.00
00178              -8.00     3800.00
00179              -2.00     3600.00
00180              -4.00     3600.00
00181              -6.00     3600.00
00182              -2.00     3400.00
00183               0.00     3400.00
00184              -8.00     3600.00
00185              -8.00     3400.00
00186              -4.00     3400.00
00187              -6.00     3200.00
00188              -2.00     3200.00
00189              -6.00     3200.00
00190              -4.00     3200.00
00191              -6.00     3000.00
00192              -6.00     3200.00
00193              -6.00     3200.00
00194              -6.00     2800.00
00195              -6.00     2800.00
00196               0.00     2800.00
00197              -2.00     2800.00
00198              -8.00     2600.00
00199              -8.00     2600.00
00200               0.00     2600.00
00201              -2.00     2600.00
00202              -2.00     2400.00
00203              -8.00     2400.00
00204              -4.00     2400.00
00205              -6.00     2200.00
00206              -6.00     2400.00
00207              -4.00     2200.00
00208               0.00     2000.00
00209              -2.00     2000.00
00210              -6.00     2000.00
00211              -2.00     1800.00
00212              -6.00     2000.00
00213              -2.00     1800.00
00214              -2.00     1600.00
00215              -2.00     1600.00
00216              -2.00     1600.00
00217              -2.00     1600.00
00218              -2.00     1600.00
00219              -4.00     1600.00
00220              -8.00     1400.00
00221              -2.00     1400.00
00222               0.00     1200.00
00223              -8.00     1200.00
00224              -6.00     1000.00
00225              -2.00     1000.00
00226              -6.00     1000.00
00227              -6.00      800.00
00228              -6.00      800.00
00229              -2.00      800.00
00230               0.00      800.00
00231              -8.00      800.00
00232              -8.00      400.00
00233              -2.00      400.00
00234              -2.00      400.00
00235              -6.00      400.00
00236              -6.00      400.00
00237              -2.00      200.00
00238               2.00        0.00
00239              -2.00      200.00
00240               0.00        0.00
00241               6.00        0.00
00242               2.00        0.00
00243              -8.00     -200.00
00244             -10.00     -200.00
00245              -6.00        0.00
00246              10.00     -200.00
00247              62.00     -400.00
00248             138.00     -600.00
00249             -40.00     -800.00
00250            -254.00     -600.00
00251            -162.00     -400.00
00252             246.00     -600.00
00253             246.00     -800.00
00254            -254.00     -800.00
00255            -254.00     -600.00
00256             246.00    -1200.00
00257             246.00    -1000.00
00258            -254.00    -1000.00
00259            -138.00    -1200.00
00260             246.00    -1400.00
00261               6.00    -1200.00
00262            -166.00    -1400.00
00263              30.00    -1600.00
00264             -50.00    -1200.00
00265             -30.00    -1600.00
00266             194.00    -1600.00
00267             -36.00    -1600.00
00268            -198.00    -2000.00
00269              44.00    -1800.00
00270             144.00    -1800.00
00271             -40.00    -2000.00
00272             -80.00    -2200.00
00273             -16.00    -2000.00
00274              58.00    -2000.00
00275              50.00    -2200.00
00276             -78.00    -2400.00
00277             -40.00    -2200.00
00278              48.00    -2400.00
00279              32.00    -2400.00
00280             -26.00    -2200.00
00281             -20.00    -2400.00
00282             -14.00    -2400.00
00283              30.00    -2600.00
00284              16.00    -2800.00
00285             -38.00    -2800.00
00286             -14.00    -2800.00
00287              22.00    -2800.00
00288              14.00    -2800.00
00289             -12.00    -3000.00
00290             -16.00    -3000.00
00291              -6.00    -3000.00
00292              14.00    -3200.00
00293               0.00    -3000.00
00294             -14.00    -3000.00
00295              -8.00    -3200.00
00296              14.00    -3200.00
00297               4.00    -3200.00
00298             -26.00    -3200.00
00299              -8.00    -3400.00
00300              22.00    -3200.00
00301               0.00    -3400.00
00302             -10.00    -3400.00
00303              -2.00    -3400.00
00304             -12.00    -3600.00
00305              -2.00    -3600.00
00306               6.00    -3600.00
00307              -2.00    -3600.00
00308               0.00    -3600.00
00309              -4.00    -3600.00
00310              -6.00    -3800.00
00311              -2.00    -3600.00
00312              -6.00    -3600.00
00313               0.00    -3600.00
00314              10.00    -3800.00
00315              -2.00    -3800.00
00316             -14.00    -3800.00
00317               0.00    -3800.00
00318               0.00    -3800.00
00319              -6.00    -3800.00
00320               0.00    -4000.00
00321               0.00    -3800.00
00322              -2.00    -4000.00
00323              -2.00    -4000.00
00324              -2.00    -3800.00
00325              -2.00    -4000.00
00326               2.00    -3800.00
00327              -4.00    -3800.00
00328               0.00    -4000.00
00329               2.00    -3800.00
00330              -8.00    -4000.00
00331              -6.00    -4000.00
00332               0.00    -4000.00
00333               0.00    -3800.00
00334               0.00    -4000.00
00335               2.00    -3800.00
00336              -6.00    -4000.00
00337              -2.00    -4000.00
00338               0.00    -3800.00
00339              -2.00    -4000.00
00340               0.00    -4000.00
00341               2.00    -3800.00
00342               0.00    -4000.00
00343               0.00    -4000.00
00344              -6.00    -3800.00
00345              -2.00    -3800.00
00346               6.00    -3800.00
00347               0.00    -3800.00
00348              -2.00    -3800.00
00349               0.00    -3800.00
00350              -2.00    -3800.00
00351              -4.00    -3600.00
00352              -2.00    -3600.00
00353              -2.00    -3600.00
00354               0.00    -3600.00
00355               0.00    -3800.00
00356              -6.00    -3600.00
00357              -2.00    -3600.00
00358              -2.00    -3600.00
00359              -2.00    -3600.00
00360               0.00    -3600.00
00361               0.00    -3600.00
00362              -2.00    -3400.00
00363               2.00    -3400.00
00364              -4.00    -3600.00
00365              -6.00    -3400.00
00366              -2.00    -3200.00
00367               0.00    -3200.00
00368               0.00    -3200.00
00369              -4.00    -3200.00
00370              -6.00    -3200.00
00371               0.00    -3200.00
00372              -2.00    -3000.00
00373              -2.00    -3200.00
00374               0.00    -3000.00
00375               0.00    -3200.00
00376              -2.00    -3000.00
00377              -6.00    -3000.00
00378              -2.00    -3000.00
00379              -2.00    -2800.00
00380               0.00    -2800.00
00381              -2.00    -2800.00
00382               0.00    -2800.00
00383              -2.00    -2800.00
00384              -2.00    -2600.00
00385              -2.00    -2800.00
00386              -2.00    -2600.00
00387              -2.00    -2400.00
00388               2.00    -2400.00
00389              -2.00    -2200.00
00390              -6.00    -2200.00
00391              -2.00    -2200.00
00392              -2.00    -2200.00
00393               0.00    -2000.00
00394              -2.00    -2000.00
00395               0.00    -2000.00
00396               0.00    -2000.00
00397              -2.00    -2000.00
00398              -6.00    -1600.00
00399              -2.00    -1800.00
00400               0.00    -1600.00
00401               0.00    -1600.00
00402               0.00    -1600.00
00403              -2.00    -1600.00
00404              -2.00    -1400.00
00405              -2.00    -1400.00
00406              -2.00    -1000.00
00407               0.00    -1200.00
00408               0.00    -1000.00
00409              -2.00    -1000.00
00410              -4.00    -1000.00
00411              -2.00     -800.00
00412              -2.00     -800.00
00413               0.00     -800.00
00414              -2.00     -800.00
00415              -2.00     -600.00
00416              -2.00     -600.00
00417              -6.00     -600.00
00418              -2.00     -600.00
00419              -6.00     -400.00
00420              -6.00     -400.00
00421               0.00     -400.00
00422              -2.00     -200.00
00423              -6.00     -400.00
00424              -6.00        0.00
00425              -2.00        0.00
00426              -2.00        0.00
00427              -6.00        0.00
00428              -8.00      200.00
00429               0.00      200.00
00430               2.00      200.00
00431              -2.00      400.00
00432               0.00      400.00
00433               6.00      400.00
00434              -2.00      400.00
00435             -10.00      600.00
00436             -10.00      600.00
00437               2.00      800.00
00438              56.00      800.00
00439             166.00     1000.00
00440             -24.00     1000.00
00441            -254.00      800.00
00442            -156.00     1000.00
00443             246.00     1200.00
00444             246.00     1400.00
00445            -254.00     1000.00
00446            -254.00     1200.00
00447             246.00     1600.00
00448             246.00     1400.00
00449            -254.00     1200.00
00450             -18.00     1600.00
00451             246.00     1800.00
00452            -160.00     1400.00
00453            -254.00     1600.00
00454             212.00     2000.00
00455              32.00     1800.00
00456            -138.00     1800.00
00457             122.00     2000.00
00458               4.00     1800.00
00459            -132.00     2000.00
00460              78.00     2200.00
00461              28.00     2200.00
00462             -50.00     2200.00
00463              40.00     2400.00
00464             -78.00     2400.00
00465               6.00     2400.00
00466             136.00     2800.00
00467            -128.00     2600.00
00468             -80.00     2800.00
00469             158.00     2800.00
00470             -48.00     2800.00
00471             -64.00     3000.00
00472              76.00     2800.00
00473             -56.00     3000.00
00474              -6.00     3000.00
00475              64.00     3200.00
00476             -78.00     3200.00
00477               8.00     3200.00
00478              32.00     3200.00
00479             -54.00     3200.00
00480              38.00     3200.00
00481              10.00     3400.00
00482             -66.00     3400.00
00483              32.00     3400.00
00484               6.00     3600.00
00485             -42.00     3400.00
00486              24.00     3600.00
00487               2.00     3600.00
00488             -18.00     3400.00
00489             -16.00     3600.00
00490             -14.00     3600.00
00491              18.00     3600.00
00492               6.00     3800.00
00493             -26.00     3600.00
00494               0.00     3800.00
00495              -4.00     4000.00
00496             -22.00     4000.00
00497               2.00     4000.00
00498              10.00     4000.00
00499             -14.00     4000.00
00500             -10.00     4000.00
00501               6.00     4000.00
00502             -10.00     4000.00
00503             -16.00     4000.00
00504               0.00     4200.00
00505               6.00     4200.00
00506              -6.00     4200.00
00507             -14.00     4400.00
00508              -8.00     4000.00
00509               2.00     4200.00
00510             -10.00     4200.00
00511             -10.00     4200.00
00512               6.00     4400.00
00513              -2.00     4400.00
00514             -16.00     4200.00
00515              -2.00     4400.00
00516               0.00     4200.00
00517             -10.00     4400.00
00518              -6.00     4400.00
00519               0.00     4400.00
00520               0.00     4400.00
00521              -6.00     4400.00
00522             -10.00     4200.00
00523              -6.00     4400.00
00524              -2.00     4200.00
00525              -6.00     4400.00
00526               2.00     4200.00
00527              -2.00     4400.00
00528             -14.00     4400.00
00529              -4.00     4200.00
00530               2.00     4400.00
00531              -8.00     4400.00
00532              -6.00     4400.00
00533               0.00     4200.00
00534               0.00     4200.00
00535              -8.00     4400.00
00536             -12.00     4400.00
00537              -4.00     4400.00
00538               2.00     4400.00
00539              -6.00     4200.00
00540              -2.00     4200.00
00541              -2.00     4200.00
00542             -10.00     4400.00
00543              -8.00     4200.00
00544               0.00     4200.00
00545              -2.00     4200.00
00546              -6.00     4000.00
00547              -8.00     4200.00
00548              -6.00     4200.00
00549              -6.00     4000.00
00550              -8.00     4000.00
00551              -2.00     4000.00
00552              -6.00     3800.00
00553              -6.00     4000.00
00554              -2.00     3800.00
00555              -8.00     3800.00
00556             -10.00     3800.00
00557              -6.00     4000.00
00558               0.00     3800.00
00559              -2.00     3800.00
00560              -6.00     3600.00
00561             -10.00     3600.00
00562              -2.00     3400.00
00563              -4.00     3600.00
00564              -8.00     3600.00
00565              -2.00     3400.00
00566               0.00     3400.00
00567              -6.00     3400.00
00568             -10.00     3400.00
00569             -10.00     3200.00
00570              -6.00     3200.00
00571               0.00     3200.00
00572              -2.00     3200.00
00573              -8.00     3200.00
00574              -4.00     3200.00
00575              -8.00     3000.00
00576              -2.00     2800.00
00577              -8.00     3000.00
00578              -6.00     2800.00
00579               0.00     2800.00
00580              -2.00     2800.00
00581             -14.00     2800.00
00582              -6.00     2600.00
00583              -2.00     2400.00
00584              -2.00     2600.00
00585              -6.00     2600.00
00586             -10.00     2400.00
00587              -4.00     2400.00
00588               0.00     2400.00
00589              -8.00     2200.00
00590              -2.00     2200.00
00591               0.00     2000.00
00592              -6.00     2000.00
00593              -6.00     2000.00
00594              -4.00     1800.00
00595              -6.00     1800.00
00596               0.00     1800.00
00597              -2.00     1600.00
00598              -2.00     1800.00
00599              -6.00     1600.00
00600              -2.00     1600.00
00601              -6.00     1600.00
00602              -6.00     1400.00
00603              -8.00     1400.00
00604               0.00     1200.00
00605               0.00     1200.00
00606              -6.00     1200.00
00607              -6.00     1200.00
00608              -2.00     1000.00
00609              -4.00     1200.00
00610              -6.00     1000.00
00611              -6.00      800.00
00612               0.00      800.00
00613               0.00      800.00
00614              -8.00      600.00
00615             -10.00      600.00
00616              -6.00      400.00
00617              -2.00      400.00
00618              -4.00      400.00
00619             -10.00      400.00
00620              -2.00      200.00
00621               0.00        0.00
00622              -2.00      200.00
00623              -2.00      200.00
00624               8.00        0.00
00625               2.00        0.00
00626              -6.00     -200.00
00627             -10.00        0.00
00628              -6.00     -400.00
00629               8.00     -400.00
00630              56.00     -400.00
00631             138.00     -600.00
00632             -20.00     -600.00
00633            -254.00     -800.00
00634            -206.00     -400.00
00635             246.00     -600.00
00636             246.00     -800.00
00637            -254.00    -1000.00
00638            -254.00     -600.00
00639             246.00    -1200.00
00640             246.00     -800.00
00641            -254.00    -1200.00
00642            -178.00    -1200.00
00643             246.00    -1200.00
00644              32.00    -1200.00
00645            -176.00    -1400.00
00646              24.00    -1600.00
00647             -40.00    -1600.00
00648             -42.00    -1600.00
00649             190.00    -1600.00
00650             -16.00    -1600.00
00651            -202.00    -1600.00
00652              24.00    -2000.00
00653             150.00    -1800.00
00654             -30.00    -2000.00
00655             -80.00    -2200.00
00656             -24.00    -2000.00
00657              56.00    -2000.00
00658              56.00    -2400.00
00659             -72.00    -2400.00
00660             -48.00    -2200.00
00661              48.00    -2400.00
00662              34.00    -2400.00
00663             -26.00    -2400.00
00664             -18.00    -2400.00
00665             -18.00    -2600.00
00666              30.00    -2400.00
00667              16.00    -2800.00
00668             -34.00    -2600.00
00669             -16.00    -2600.00
00670              22.00    -2800.00
00671              16.00    -3000.00
00672             -10.00    -2800.00
00673             -16.00    -3000.00
00674              -6.00    -3000.00
00675              14.00    -3000.00
00676               2.00    -3000.00
00677             -14.00    -3000.00
00678             -10.00    -3200.00
00679              14.00    -3200.00
00680               6.00    -3200.00
00681             -26.00    -3200.00
00682              -8.00    -3200.00
00683              22.00    -3600.00
00684               2.00    -3200.00
00685             -10.00    -3400.00
00686              -2.00    -3600.00
00687              -8.00    -3400.00
00688               0.00    -3600.00
00689               6.00    -3600.00
00690              -2.00    -3600.00
00691              -2.00    -3600.00
00692               0.00    -3600.00
00693              -2.00    -3800.00
00694              -2.00    -3800.00
00695              -6.00    -3800.00
00696              -2.00    -3800.00
00697               8.00    -3800.00
00698              -2.00    -3800.00
00699             -12.00    -3800.00
00700               0.00    -3800.00
00701               0.00    -4000.00
00702              -8.00    -3800.00
00703              -2.00    -3800.00
00704               6.00    -3800.00
00705              -2.00    -4000.00
00706              -2.00    -3800.00
00707              -2.00    -3800.00
00708              -2.00    -4000.00
00709               0.00    -3800.00
00710              -6.00    -3800.00
00711               0.00    -4000.00
00712               2.00    -4000.00
00713              -6.00    -3800.00
00714              -6.00    -4000.00
00715               0.00    -3800.00
00716               2.00    -4000.00
00717               2.00    -3800.00
00718               0.00    -4000.00
00719              -2.00    -4000.00
00720              -6.00    -4000.00
00721               0.00    -3800.00
00722               0.00    -4000.00
00723               2.00    -3800.00
00724              -2.00    -3800.00
00725              -2.00    -3800.00
00726               6.00    -3800.00
00727              -6.00    -3800.00
00728             -10.00    -3800.00
00729               6.00    -3800.00
00730               6.00    -4000.00
00731              -4.00    -3800.00
00732               0.00    -3800.00
00733              -2.00    -3800.00
00734              -6.00    -3800.00
00735               0.00    -3600.00
00736               6.00    -3600.00
00737              10.00    -3800.00
00738               0.00    -3600.00
00739             -10.00    -3800.00
00740              -8.00    -3800.00
00741               2.00    -3600.00
00742               8.00    -3600.00
00743               6.00    -3600.00
00744              -2.00    -3600.00
00745              -8.00    -3600.00
00746              -2.00    -3600.00
00747              -2.00    -3600.00
00748               0.00    -3400.00
00749               4.00    -3600.00
00750              -6.00    -3200.00
00751             -10.00    -3200.00
00752              -8.00    -3200.00
00753               2.00    -3200.00
00754              16.00    -3200.00
00755               2.00    -3200.00
00756             -16.00    -3000.00
00757             -16.00    -3200.00
00758              -4.00    -3000.00
00759               6.00    -3000.00
00760               2.00    -3000.00
00761              -2.00    -3000.00
00762              -6.00    -2800.00
00763              -2.00    -2800.00
00764               0.00    -2800.00
00765               0.00    -2800.00
00766              -2.00    -2600.00
00767              -6.00    -2800.00
00768              -6.00    -2400.00
00769              -6.00    -2400.00
00770              -2.00    -2400.00
00771               4.00    -2400.00
00772               0.00    -2400.00
00773              -6.00    -2200.00
00774              -6.00    -2400.00
00775              -2.00    -2200.00
00776               0.00    -2000.00
00777               0.00    -2000.00
00778              -2.00    -2000.00
00779               0.00    -2000.00
00780              -2.00    -2000.00
00781              -8.00    -1600.00
00782              -2.00    -1800.00
00783               2.00    -1600.00
00784               0.00    -1600.00
00785              -2.00    -1600.00
00786              -8.00    -1400.00
00787              -8.00    -1400.00
00788               2.00    -1400.00
00789               2.00    -1400.00
00790               0.00    -1200.00
00791              -2.00    -1000.00
00792              -8.00    -1200.00
00793              -6.00    -1000.00
00794              -2.00    -1000.00
00795              -6.00    -1000.00
00796               0.00     -800.00
00797               2.00     -800.00
00798               0.00     -800.00
00799              -2.00     -600.00
00800              -4.00     -600.00
00801              -2.00     -600.00
00802              -2.00     -600.00
00803               0.00     -400.00
00804               0.00     -400.00
00805              -2.00     -200.00
00806              -6.00     -400.00
00807              -2.00        0.00
00808               0.00        0.00
00809               0.00        0.00
00810              -6.00      200.00
00811              -6.00        0.00
00812               0.00      200.00
00813               2.00      200.00
00814              -2.00      400.00
00815               0.00      400.00
00816               6.00      400.00
00817               0.00      400.00
00818              -8.00      600.00
00819              -6.00      600.00
00820               0.00      800.00
00821              50.00      800.00
00822             162.00     1000.00
00823               0.00     1000.00
00824            -254.00      800.00
00825            -202.00     1000.00
00826             246.00     1200.00
00827             246.00     1400.00
00828            -254.00     1000.00
00829            -254.00     1200.00
00830             246.00     1600.00
00831             246.00     1400.00
00832            -254.00     1200.00
00833             -80.00     1800.00
00834             246.00     1800.00
00835            -118.00     1600.00
00836            -254.00     1600.00
00837             194.00     2000.00
00838              62.00     1800.00
00839            -150.00     1800.00
00840             102.00     2000.00
00841              26.00     2000.00
00842            -138.00     2000.00
00843              66.00     2200.00
00844              38.00     2200.00
00845             -64.00     2400.00
00846              40.00     2400.00
00847             -58.00     2400.00
00848             -10.00     2600.00
00849             130.00     2600.00
00850            -112.00     2600.00
00851             -86.00     2800.00
00852             162.00     2600.00
00853             -42.00     2600.00
00854             -90.00     2800.00
00855              82.00     3200.00
00856             -34.00     2800.00
00857             -16.00     3000.00
00858              66.00     3200.00
00859             -80.00     3000.00
00860              -6.00     3200.00
00861              46.00     3400.00
00862             -48.00     3200.00
00863              32.00     3400.00
00864              14.00     3400.00
00865             -74.00     3200.00
00866              34.00     3600.00
00867              16.00     3400.00
00868             -48.00     3600.00
00869              24.00     3600.00
00870              14.00     3600.00
00871             -22.00     3600.00
00872             -16.00     3600.00
00873             -16.00     3600.00
00874              16.00     3600.00
00875              14.00     3600.00
00876             -26.00     3800.00
00877              -2.00     3800.00
00878               2.00     4000.00
00879             -20.00     3800.00
00880               0.00     3800.00
00881              14.00     4000.00
00882             -16.00     4000.00
00883             -16.00     4000.00
00884               2.00     4000.00
00885              -6.00     4000.00
00886             -14.00     4000.00
00887               6.00     4200.00
00888               4.00     4200.00
00889              -8.00     4000.00
00890             -16.00     4200.00
00891             -10.00     4200.00
00892               8.00     4200.00
00893              -6.00     4200.00
00894             -16.00     4200.00
00895               2.00     4400.00
00896              -4.00     4200.00
00897             -10.00     4200.00
00898               0.00     4400.00
00899              -2.00     4200.00
00900             -10.00     4400.00
00901              -6.00     4400.00
00902              -2.00     4400.00
00903              -2.00     4200.00
00904              -6.00     4400.00
00905              -8.00     4400.00
00906              -6.00     4400.00
00907              -2.00     4400.00
00908              -6.00     4400.00
00909               0.00     4400.00
00910              -2.00     4400.00
00911             -14.00     4400.00
00912              -8.00     4200.00
00913               2.00     4400.00
00914              -6.00     4200.00
00915              -2.00     4400.00
00916              -2.00     4400.00
00917              -6.00     4200.00
00918              -8.00     4400.00
00919             -10.00     4400.00
00920              -6.00     4400.00
00921               4.00     4200.00
00922              -6.00     4400.00
00923              -2.00     4200.00
00924              -2.00     4200.00
00925              -8.00     4200.00
00926              -8.00     4200.00
00927               0.00     4000.00
00928              -2.00     4200.00
00929              -6.00     4000.00
00930              -6.00     4200.00
00931             -10.00     4000.00
00932              -8.00     4000.00
00933              -6.00     4000.00
00934               0.00     4200.00
00935               0.00     4000.00
00936              -6.00     4000.00
00937             -10.00     4000.00
00938              -8.00     4000.00
00939              -8.00     3800.00
00940              -8.00     3800.00
00941               0.00     3800.00
00942              -6.00     3600.00
00943              -6.00     3600.00
00944              -8.00     3600.00
00945              -6.00     3600.00
00946              -8.00     3600.00
00947             -10.00     3600.00
00948              -6.00     3400.00
00949              -2.00     3400.00
00950              -4.00     3400.00
00951              -8.00     3400.00
00952             -10.00     3200.00
00953              -6.00     3200.00
00954              -4.00     3200.00
00955               0.00     3200.00
00956              -6.00     3200.00
00957              -8.00     3200.00
00958              -8.00     3200.00
00959              -6.00     2800.00
00960              -8.00     3000.00
00961              -8.00     2800.00
00962              -2.00     2800.00
00963              -2.00     2600.00
00964             -10.00     2800.00
00965              -6.00     2800.00
00966              -2.00     2600.00
00967              -2.00     2400.00
00968              -6.00     2600.00
00969             -10.00     2400.00
00970              -2.00     2400.00
00971               0.00     2400.00
00972             -10.00     2400.00
00973              -6.00     2000.00
00974              -2.00     2000.00
00975              -6.00     2000.00
00976              -6.00     2000.00
00977              -4.00     1800.00
00978              -6.00     2000.00
00979              -2.00     1800.00
00980              -2.00     1800.00
00981              -2.00     1600.00
00982              -2.00     1600.00
00983              -6.00     1600.00
00984              -4.00     1600.00
00985              -4.00     1600.00
00986              -6.00     1200.00
00987              -2.00     1400.00
00988               0.00     1200.00
00989              -2.00     1200.00
00990              -6.00     1200.00
00991              -2.00     1000.00
00992              -2.00     1000.00
00993              -4.00     1000.00
00994              -6.00      800.00
00995               0.00      800.00
00996              -2.00      800.00
00997              -6.00      800.00
00998              -8.00      600.00
00999              -2.00      400.00
01000              -2.00      400.00
01001              -2.00      400.00
01002              -6.00      400.00
01003              -4.00      400.00
01004               0.00      200.00
01005               0.00      200.00
01006               0.00        0.00
01007               4.00        0.00
01008               2.00        0.00
01009              -2.00        0.00
01010             -10.00        0.00
01011              -2.00     -200.00
01012               6.00     -200.00
01013              46.00     -400.00
01014             144.00     -400.00
01015               0.00     -800.00
01016            -254.00     -800.00
01017            -242.00     -600.00
01018             246.00     -600.00
01019             246.00     -800.00
01020            -254.00    -1000.00
01021            -254.00     -800.00
01022             246.00    -1200.00
01023             246.00    -1000.00
01024            -254.00    -1200.00
01025            -218.00    -1000.00
01026             246.00    -1400.00
01027              64.00    -1200.00
01028            -178.00    -1400.00
01029              14.00    -1600.00
01030             -32.00    -1400.00
01031             -48.00    -1600.00
01032             186.00    -1600.00
01033               6.00    -1600.00
01034            -208.00    -1600.00
01035               6.00    -2000.00
01036             160.00    -1800.00
01037             -16.00    -2000.00
01038             -86.00    -2200.00
01039             -32.00    -2000.00
01040              54.00    -2000.00
01041              56.00    -2200.00
01042             -64.00    -2200.00
01043             -50.00    -2200.00
01044              42.00    -2400.00
01045              40.00    -2400.00
01046             -26.00    -2400.00
01047             -22.00    -2600.00
01048             -16.00    -2600.00
01049              32.00    -2800.00
01050              22.00    -2600.00
01051             -34.00    -2800.00
01052             -22.00    -2800.00
01053              18.00    -3000.00
01054              16.00    -2800.00
01055              -8.00    -3000.00
01056             -14.00    -3000.00
01057              -6.00    -3000.00
01058              14.00    -3000.00
01059               0.00    -3200.00
01060             -10.00    -3000.00
01061              -8.00    -3000.00
01062              14.00    -3200.00
01063              10.00    -3200.00
01064             -26.00    -3200.00
01065             -10.00    -3200.00
01066              20.00    -3200.00
01067               6.00    -3400.00
01068             -10.00    -3200.00
01069              -2.00    -3400.00
01070             -12.00    -3600.00
01071              -2.00    -3600.00
01072              12.00    -3600.00
01073               0.00    -3800.00
01074              -2.00    -3600.00
01075              -6.00    -3600.00
01076              -6.00    -3600.00
01077               0.00    -3600.00
01078              -4.00    -3800.00
01079              -6.00    -3800.00
01080              10.00    -3800.00
01081               0.00    -4000.00
01082             -16.00    -3800.00
01083               0.00    -4000.00
01084               0.00    -3800.00
01085              -2.00    -3800.00
01086               2.00    -3800.00
01087               0.00    -3800.00
01088               0.00    -3800.00
01089              -2.00    -4000.00
01090              -6.00    -4000.00
01091              -2.00    -4000.00
01092               2.00    -4000.00
01093              -2.00    -4000.00
01094               2.00    -3800.00
01095               2.00    -4000.00
01096             -10.00    -4000.00
01097              -6.00    -4000.00
01098               2.00    -3800.00
01099               0.00    -3800.00
01100              -2.00    -4000.00
01101               0.00    -3800.00
01102              -2.00    -4000.00
01103              -2.00    -4000.00
01104              -6.00    -3800.00
01105              -2.00    -4000.00
01106               6.00    -3800.00
01107               0.00    -3800.00
01108              -4.00    -3800.00
01109               0.00    -3800.00
01110              -2.00    -3800.00
01111              -2.00    -3800.00
01112               6.00    -3800.00
01113               2.00    -3800.00
01114               0.00    -3800.00
01115              -2.00    -3800.00
01116              -6.00    -3800.00
01117              -4.00    -3800.00
01118               0.00    -3800.00
01119               0.00    -3800.00
01120               2.00    -3600.00
01121              -2.00    -3800.00
01122              -2.00    -3800.00
01123              -2.00    -3600.00
01124              -2.00    -3800.00
01125              -2.00    -3600.00
01126               2.00    -3600.00
01127               0.00    -3600.00
01128              -2.00    -3400.00
01129              -2.00    -3600.00
01130               0.00    -3400.00
01131              -2.00    -3400.00
01132              -2.00    -3400.00
01133              -2.00    -3200.00
01134               0.00    -3200.00
01135               0.00    -3200.00
01136              -2.00    -3200.00
01137              -6.00    -3200.00
01138              -4.00    -3000.00
01139               0.00    -3200.00
01140               2.00    -3200.00
01141               0.00    -3000.00
01142              -8.00    -3000.00
01143              -6.00    -3000.00
01144               0.00    -3000.00
01145               2.00    -2800.00
01146               0.00    -2800.00
01147              -2.00    -2800.00
01148              -4.00    -2800.00
01149              -6.00    -2800.00
01150              -2.00    -2800.00
01151               2.00    -2600.00
01152               0.00    -2600.00
01153              -2.00    -2400.00
01154              -4.00    -2400.00
01155              -8.00    -2400.00
01156               2.00    -2400.00
01157               2.00    -2400.00
01158              -8.00    -2200.00
01159              -2.00    -2000.00
01160               0.00    -2000.00
01161              -8.00    -2000.00
01162               2.00    -2000.00
01163               2.00    -2000.00
01164             -10.00    -2000.00
01165               0.00    -1800.00
01166              -4.00    -1600.00
01167              -8.00    -1600.00
01168               2.00    -1600.00
01169               0.00    -1600.00
01170               0.00    -1600.00
01171              -6.00    -1400.00
01172             -18.00    -1200.00
01173              -6.00    -1400.00
01174              16.00    -1200.00
01175               8.00    -1000.00
01176             -14.00    -1000.00
01177             -14.00    -1000.00
01178              -6.00     -800.00
01179               6.00     -800.00
01180               4.00     -800.00
01181               0.00     -600.00
01182              -2.00     -600.00
01183              -4.00     -600.00
01184              -6.00     -600.00
01185              -4.00     -400.00
01186               2.00     -400.00
01187               4.00     -200.00
01188              -2.00     -400.00
01189              -8.00     -200.00
01190              -8.00        0.00
01191               0.00        0.00
01192               6.00        0.00
01193               0.00        0.00
01194              -8.00      200.00
01195              -6.00      200.00
01196               0.00      400.00
01197               6.00      400.00
01198               4.00      400.00
01199               8.00      400.00
01200               0.00      400.00
01201              -6.00      600.00
01202              -8.00      800.00
01203               0.00      800.00
01204              34.00      800.00
01205             158.00      800.00
01206              30.00     1000.00
01207            -254.00      800.00
01208            -246.00      800.00
01209             246.00     1200.00
01210             246.00     1400.00
01211            -254.00     1000.00
01212            -254.00     1200.00
01213             246.00     1600.00
01214             246.00     1600.00
01215            -254.00     1200.00
01216            -138.00     1600.00
01217             246.00     1800.00
01218             -66.00     1200.00
01219            -254.00     1800.00
01220             172.00     2000.00
01221              80.00     1800.00
01222            -146.00     1600.00
01223              88.00     2000.00
01224              38.00     2000.00
01225            -144.00     2000.00
01226              62.00     2400.00
01227              56.00     2200.00
01228             -64.00     2400.00
01229              32.00     2400.00
01230             -62.00     2400.00
01231             -22.00     2600.00
01232             146.00     2600.00
01233             -90.00     2600.00
01234            -114.00     2600.00
01235             146.00     2800.00
01236             -18.00     2600.00
01237             -88.00     2800.00
01238              80.00     3200.00
01239             -42.00     2800.00
01240             -30.00     3000.00
01241              80.00     3200.00
01242             -62.00     3200.00
01243             -14.00     3200.00
01244              38.00     3400.00
01245             -56.00     3200.00
01246              32.00     3200.00
01247              26.00     3400.00
01248             -74.00     3400.00
01249              30.00     3400.00
01250              24.00     3400.00
01251             -46.00     3400.00
01252              14.00     3600.00
01253               8.00     3400.00
01254             -16.00     3600.00
01255              -6.00     3600.00
01256             -16.00     3800.00
01257              14.00     3600.00
01258               8.00     3800.00
01259             -30.00     3800.00
01260               2.00     3800.00
01261              10.00     4000.00
01262             -18.00     3800.00
01263              -2.00     4000.00
01264               6.00     4000.00
01265             -16.00     4000.00
01266             -10.00     4000.00
01267               8.00     4000.00
01268              -2.00     4200.00
01269             -16.00     4000.00
01270              -6.00     4200.00
01271               2.00     4000.00
01272              -2.00     4200.00
01273             -10.00     4200.00
01274              -4.00     4200.00
01275               4.00     4200.00
01276             -10.00     4200.00
01277             -14.00     4000.00
01278               6.00     4200.00
01279              -2.00     4200.00
01280             -16.00     4400.00
01281              -2.00     4200.00
01282              -6.00     4400.00
01283             -10.00     4400.00
01284              -6.00     4400.00
01285               2.00     4400.00
01286              -2.00     4400.00
01287             -10.00     4200.00
01288             -16.00     4400.00
01289              -2.00     4400.00
01290               0.00     4400.00
01291              -4.00     4200.00
01292              -6.00     4400.00
01293              -6.00     4200.00
01294             -14.00     4200.00
01295              -6.00     4400.00
01296               6.00     4400.00
01297              -2.00     4200.00
01298             -10.00     4400.00
01299              -6.00     4400.00
01300              -6.00     4400.00
01301              -6.00     4400.00
01302              -6.00     4200.00
01303              -2.00     4200.00
01304              -2.00     4200.00
01305             -10.00     4200.00
01306              -6.00     4200.00
01307               0.00     4400.00
01308              -6.00     4200.00
01309              -6.00     4200.00
01310              -4.00     4200.00
01311              -6.00     4200.00
01312              -6.00     4000.00
01313              -2.00     4200.00
01314              -4.00     4200.00
01315              -6.00     4200.00
01316              -2.00     4000.00
01317              -2.00     4000.00
01318              -6.00     4000.00
01319              -8.00     4000.00
01320              -2.00     4000.00
01321              -2.00     4000.00
01322              -6.00     3800.00
01323              -8.00     3800.00
01324              -2.00     3600.00
01325              -2.00     3600.00
01326              -4.00     3600.00
01327              -4.00     3600.00
01328              -6.00     3600.00
01329              -8.00     3600.00
01330             -10.00     3400.00
01331              -2.00     3400.00
01332              -2.00     3600.00
01333              -8.00     3400.00
01334              -8.00     3400.00
01335              -6.00     3400.00
01336              -6.00     3200.00
01337              -2.00     3200.00
01338              -2.00     3200.00
01339             -10.00     3000.00
01340             -10.00     3200.00
01341              -8.00     3000.00
01342               2.00     3200.00
01343              -2.00     3000.00
01344             -10.00     2800.00
01345             -10.00     2800.00
01346              -8.00     2800.00
01347             -10.00     2800.00
01348               2.00     2600.00
01349               0.00     2800.00
01350              -4.00     2400.00
01351             -14.00     2400.00
01352             -10.00     2400.00
01353              -6.00     2400.00
01354              -4.00     2400.00
01355              -6.00     2400.00
01356               0.00     2000.00
01357              -2.00     2000.00
01358              -8.00     2000.00
01359              -8.00     2000.00
01360              -2.00     2000.00
01361              -4.00     1800.00
01362              -8.00     2000.00
01363              -2.00     1800.00
01364              -4.00     1600.00
01365              -6.00     1600.00
01366              -8.00     1600.00
01367              -2.00     1600.00
01368              -6.00     1400.00
01369              -6.00     1400.00
01370              -2.00     1200.00
01371               0.00     1200.00
01372              -2.00     1200.00
01373              -6.00     1200.00
01374              -2.00     1000.00
01375              -4.00     1000.00
01376              -4.00     1000.00
01377              -8.00      800.00
01378               0.00      800.00
01379               0.00      800.00
01380              -6.00      600.00
01381             -10.00      600.00
01382              -6.00      400.00
01383              -2.00      400.00
01384               0.00      400.00
01385              -6.00      400.00
01386              -2.00      200.00
01387               0.00      200.00
01388               0.00        0.00
01389              -2.00        0.00
01390               8.00        0.00
01391               8.00     -200.00
01392               0.00        0.00
01393             -10.00        0.00
01394              -6.00     -200.00
01395               2.00     -400.00
01396              48.00     -400.00
01397             142.00     -400.00
01398              22.00     -600.00
01399            -254.00     -800.00
01400            -254.00     -400.00
01401             246.00     -600.00
01402             246.00     -800.00
01403            -254.00    -1000.00
01404            -254.00     -800.00
01405             246.00    -1200.00
01406             246.00    -1000.00
01407            -254.00    -1200.00
01408            -254.00    -1000.00
01409             246.00    -1400.00
01410              96.00    -1000.00
01411            -186.00    -1400.00
01412               6.00    -1600.00
01413             -26.00    -1400.00
01414             -60.00    -1600.00
01415             176.00    -1600.00
01416              32.00    -1600.00
01417            -206.00    -1600.00
01418             -14.00    -2000.00
01419             160.00    -2000.00
01420             -10.00    -2000.00
01421             -86.00    -2200.00
01422             -34.00    -2000.00
01423              54.00    -2000.00
01424              64.00    -2200.00
01425             -56.00    -2200.00
01426             -64.00    -2200.00
01427              40.00    -2400.00
01428              46.00    -2400.00
01429             -22.00    -2400.00
01430             -20.00    -2600.00
01431             -24.00    -2600.00
01432              24.00    -2400.00
01433              22.00    -2800.00
01434             -32.00    -2800.00
01435             -26.00    -2800.00
01436              22.00    -2800.00
01437              18.00    -2800.00
01438              -8.00    -3000.00
01439             -20.00    -2800.00
01440              -6.00    -3000.00
01441              16.00    -3000.00
01442               6.00    -3200.00
01443             -14.00    -3000.00
01444             -16.00    -3200.00
01445              14.00    -3200.00
01446              18.00    -3200.00
01447             -20.00    -3200.00
01448             -16.00    -3200.00
01449              12.00    -3400.00
01450               6.00    -3400.00
01451              -4.00    -3200.00
01452               6.00    -3400.00
01453              -6.00    -3400.00
01454              -6.00    -3600.00
01455               2.00    -3400.00
01456               0.00    -3600.00
01457               2.00    -3600.00
01458               2.00    -3600.00
01459              -2.00    -3800.00
01460              -6.00    -3600.00
01461              -8.00    -3800.00
01462              -4.00    -3600.00
01463              12.00    -3800.00
01464               2.00    -4000.00
01465             -14.00    -3800.00
01466              -4.00    -4000.00
01467               0.00    -3800.00
01468              -2.00    -3800.00
01469               0.00    -3800.00
01470               0.00    -3800.00
01471               0.00    -3800.00
01472              -4.00    -3800.00
01473              -6.00    -4000.00
01474               0.00    -4000.00
01475               0.00    -4000.00
01476              -6.00    -3800.00
01477               0.00    -3800.00
01478               2.00    -4000.00
01479              -6.00    -4000.00
01480              -8.00    -4000.00
01481               0.00    -4000.00
01482               0.00    -4000.00
01483               0.00    -4000.00
01484              -2.00    -4000.00
01485              -6.00    -4000.00
01486              -2.00    -4000.00
01487               0.00    -4000.00
01488               0.00    -4000.00
01489               0.00    -3800.00
01490               0.00    -4000.00
01491              -2.00    -4000.00
01492               0.00    -4000.00
01493              -6.00    -4000.00
01494              -8.00    -3800.00
01495               2.00    -3800.00
01496               2.00    -3800.00
01497              -2.00    -3800.00
01498               0.00    -3800.00
01499              -2.00    -3800.00
01500              -6.00    -3800.00
01501              -2.00    -3800.00
01502               0.00    -3800.00
01503               4.00    -3600.00
01504               2.00    -3800.00
01505              -6.00    -3600.00
01506              -2.00    -3800.00
01507               0.00    -3600.00
01508              -2.00    -3600.00
01509               4.00    -3600.00
01510              -2.00    -3400.00
01511              -2.00    -3600.00
01512               0.00    -3400.00
01513              -2.00    -3400.00
01514              -2.00    -3400.00
01515               0.00    -3200.00
01516               0.00    -3200.00
01517               0.00    -3200.00
01518              -2.00    -3200.00
01519              -2.00    -3200.00
01520               0.00    -3200.00
01521              -2.00    -3200.00
01522              -4.00    -3200.00
01523               0.00    -3000.00
01524               2.00    -3000.00
01525              -2.00    -3000.00
01526              -6.00    -2800.00
01527              -4.00    -2800.00
01528              -2.00    -3000.00
01529               0.00    -2800.00
01530              -2.00    -3000.00
01531               0.00    -2800.00
01532              -6.00    -2600.00
01533              -6.00    -2400.00
01534              -2.00    -2600.00
01535              -2.00    -2600.00
01536              -2.00    -2400.00
01537              -2.00    -2400.00
01538               0.00    -2600.00
01539              -6.00    -2400.00
01540              -6.00    -2200.00
01541              -6.00    -2200.00
01542              -2.00    -2200.00
01543               0.00    -2000.00
01544              -2.00    -2000.00
01545               0.00    -2000.00
01546              -2.00    -2000.00
01547              -6.00    -1800.00
01548              -4.00    -2000.00
01549               0.00    -1600.00
01550              -2.00    -1600.00
01551              -2.00    -1600.00
01552               0.00    -1600.00
01553              -6.00    -1400.00
01554              -2.00    -1400.00
01555              -2.00    -1400.00
01556              -2.00    -1000.00
01557              -2.00    -1000.00
01558              -2.00    -1200.00
01559              -6.00    -1000.00
01560              -2.00    -1000.00
01561              -2.00     -800.00
01562              -2.00     -800.00
01563               0.00     -800.00
01564               0.00     -800.00
01565              -4.00     -600.00
01566              -2.00     -800.00
01567              -2.00     -600.00
01568              -2.00     -400.00
01569              -2.00     -400.00
01570               0.00     -400.00
01571               0.00     -400.00
01572              -2.00     -200.00
01573              -6.00        0.00
01574              -2.00        0.00
01575               0.00        0.00
01576              -2.00        0.00
01577              -2.00        0.00
01578               0.00      200.00
01579               2.00      200.00
01580               0.00      400.00
01581               2.00      400.00
01582               8.00      400.00
01583               2.00      400.00
01584              -6.00      600.00
01585              -6.00      800.00
01586               0.00      800.00
01587              38.00      800.00
01588             158.00     1000.00
01589              48.00     1000.00
01590            -254.00      800.00
01591            -254.00      800.00
01592             246.00     1200.00
01593             246.00     1400.00
01594            -254.00     1000.00
01595            -254.00     1200.00
01596             246.00     1600.00
01597             246.00     1600.00
01598            -254.00     1200.00
01599            -192.00     1600.00
01600             246.00     1800.00
01601             -22.00     1600.00
01602            -254.00     1600.00
01603             146.00     2000.00
01604             104.00     1800.00
01605            -152.00     2000.00
01606              80.00     2000.00
01607              64.00     2000.00
01608            -150.00     2000.00
01609              42.00     2400.00
01610              58.00     2200.00
01611             -58.00     2400.00
01612              36.00     2400.00
01613             -56.00     2400.00
01614             -38.00     2400.00
01615             144.00     2600.00
01616             -78.00     2600.00
01617            -126.00     2600.00
01618             146.00     2800.00
01619               0.00     2800.00
01620             -98.00     2800.00
01621              72.00     3000.00
01622             -32.00     2800.00
01623             -34.00     3000.00
01624              74.00     3200.00
01625             -56.00     3200.00
01626             -16.00     3200.00
01627              46.00     3200.00
01628             -54.00     3200.00
01629              16.00     3200.00
01630              32.00     3400.00
01631             -66.00     3400.00
01632              18.00     3400.00
01633              24.00     3600.00
01634             -46.00     3400.00
01635              16.00     3600.00
01636              14.00     3600.00
01637             -24.00     3600.00
01638              -8.00     3800.00
01639             -10.00     3800.00
01640              10.00     3600.00
01641               8.00     3800.00
01642             -28.00     4000.00
01643               0.00     4000.00
01644               8.00     4000.00
01645             -24.00     4000.00
01646              -4.00     3800.00
01647              14.00     4000.00
01648             -10.00     4000.00
01649             -10.00     4000.00
01650               6.00     4000.00
01651              -6.00     4000.00
01652             -18.00     4000.00
01653              -6.00     4200.00
01654               8.00     4000.00
01655               6.00     4000.00
01656             -10.00     4200.00
01657             -14.00     4200.00
01658               0.00     4200.00
01659             -10.00     4400.00
01660             -14.00     4200.00
01661              14.00     4200.00
01662               2.00     4400.00
01663             -16.00     4200.00
01664             -12.00     4400.00
01665              -8.00     4200.00
01666              -8.00     4400.00
01667              -2.00     4400.00
01668               0.00     4200.00
01669              -2.00     4200.00
01670             -10.00     4200.00
01671             -14.00     4400.00
01672              -2.00     4200.00
01673               0.00     4400.00
01674              -6.00     4400.00
01675              -4.00     4400.00
01676              -2.00     4400.00
01677             -14.00     4400.00
01678             -10.00     4400.00
01679               0.00     4200.00
01680              -4.00     4200.00
01681              -6.00     4200.00
01682              -4.00     4400.00
01683              -6.00     4200.00
01684              -8.00     4200.00
01685             -10.00     4200.00
01686              -2.00     4200.00
01687              -2.00     4200.00
01688              -8.00     4200.00
01689              -6.00     4200.00
01690              -2.00     4200.00
01691              -6.00     4200.00
01692              -8.00     4000.00
01693              -6.00     4200.00
01694              -6.00     4000.00
01695              -6.00     4200.00
01696              -6.00     4000.00
01697              -8.00     4200.00
01698              -8.00     4000.00
01699              -4.00     4000.00
01700               0.00     4000.00
01701              -2.00     4000.00
01702              -8.00     4000.00
01703              -6.00     4000.00
01704               0.00     4000.00
01705              -8.00     3800.00
01706              -8.00     3600.00
01707              -2.00     3600.00
01708              -2.00     3600.00
01709              -6.00     3600.00
01710              -8.00     3600.00
01711              -2.00     3600.00
01712               0.00     3600.00
01713              -6.00     3400.00
01714              -2.00     3600.00
01715               0.00     3400.00
01716              -8.00     3400.00
01717             -10.00     3400.00
01718              -8.00     3400.00
01719              -8.00     3200.00
01720               0.00     3400.00
01721               0.00     3200.00
01722              -6.00     3200.00
01723              -6.00     3000.00
01724              -8.00     3200.00
01725              -6.00     2800.00
01726              -8.00     2800.00
01727              -8.00     2800.00
01728              -2.00     2800.00
01729               0.00     2800.00
01730             -10.00     2600.00
01731              -6.00     2600.00
01732              -2.00     2600.00
01733              -2.00     2600.00
01734              -6.00     2400.00
01735              -8.00     2600.00
01736              -6.00     2400.00
01737              -2.00     2400.00
01738             -10.00     2400.00
01739              -8.00     2200.00
01740              -2.00     2000.00
01741              -6.00     2000.00
01742              -6.00     2000.00
01743              -2.00     1800.00
01744              -4.00     1800.00
01745              -6.00     1800.00
01746              -6.00     1800.00
01747              -8.00     1600.00
01748              -6.00     1600.00
01749               0.00     1600.00
01750               0.00     1600.00
01751              -4.00     1600.00
01752             -10.00     1200.00
01753              -8.00     1200.00
01754              -2.00     1200.00
01755               0.00     1200.00
01756               0.00     1200.00
01757              -6.00     1000.00
01758             -10.00      800.00
01759              -8.00     1000.00
01760              -6.00     1000.00
01761               0.00      800.00
01762               6.00      800.00
01763              -6.00      800.00
01764             -10.00      800.00
01765              -6.00      400.00
01766              -2.00      400.00
01767               0.00      400.00
01768              -6.00      400.00
01769              -4.00      400.00
01770               0.00      200.00
01771              -2.00      200.00
01772               0.00        0.00
01773               8.00        0.00
01774               6.00        0.00
01775              -2.00        0.00
01776             -10.00     -200.00
01777              -4.00     -400.00
01778               8.00     -400.00
01779              42.00     -400.00
01780             136.00     -400.00
01781              38.00     -800.00
01782            -254.00     -800.00
01783            -254.00     -600.00
01784             246.00     -600.00
01785             246.00     -800.00
01786            -254.00    -1000.00
01787            -254.00     -600.00
01788             246.00    -1200.00
01789             246.00    -1000.00
01790            -254.00    -1000.00
01791            -254.00    -1000.00
01792             246.00    -1200.00
01793             128.00    -1200.00
01794            -190.00    -1400.00
01795              -2.00    -1600.00
01796             -10.00    -1400.00
01797             -66.00    -1600.00
01798             166.00    -1600.00
01799              52.00    -1600.00
01800            -208.00    -1600.00
01801             -34.00    -2000.00
01802             168.00    -2000.00
01803               6.00    -2000.00
01804             -82.00    -2200.00
01805             -46.00    -2000.00
01806              40.00    -2000.00
01807              64.00    -2400.00
01808             -44.00    -2200.00
01809             -64.00    -2200.00
01810              32.00    -2400.00
01811              40.00    -2400.00
01812             -22.00    -2400.00
01813             -18.00    -2400.00
01814             -24.00    -2800.00
01815              22.00    -2600.00
01816              22.00    -2800.00
01817             -28.00    -2600.00
01818             -26.00    -2800.00
01819              18.00    -2800.00
01820              16.00    -2800.00
01821              -8.00    -2800.00
01822             -16.00    -2800.00
01823              -8.00    -3000.00
01824              14.00    -3000.00
01825               6.00    -3000.00
01826             -10.00    -3000.00
01827             -16.00    -3000.00
01828               8.00    -3200.00
01829              14.00    -3200.00
01830             -22.00    -3200.00
01831             -12.00    -3200.00
01832              16.00    -3400.00
01833               4.00    -3400.00
01834             -10.00    -3200.00
01835              -2.00    -3400.00
01836              -8.00    -3600.00
01837              -2.00    -3600.00
01838               8.00    -3600.00
01839               0.00    -3600.00
01840              -2.00    -3600.00
01841               2.00    -3600.00
01842               0.00    -3600.00
01843               0.00    -3600.00
01844              -6.00    -3600.00
01845              -8.00    -3800.00
01846              10.00    -3600.00
01847               8.00    -3800.00
01848             -10.00    -3800.00
01849              -2.00    -3800.00
01850               0.00    -3800.00
01851              -8.00    -3600.00
01852               0.00    -4000.00
01853               6.00    -4000.00
01854               0.00    -3800.00
01855              -2.00    -4000.00
01856             -10.00    -4000.00
01857              -6.00    -3800.00
01858               0.00    -3800.00
01859               0.00    -3800.00
01860               0.00    -4000.00
01861               0.00    -4000.00
01862             -10.00    -4000.00
01863              -8.00    -4000.00
01864               0.00    -4000.00
01865               0.00    -4000.00
01866               0.00    -3800.00
01867               0.00    -4000.00
01868              -6.00    -4000.00
01869              -6.00    -4000.00
01870              -4.00    -3800.00
01871               0.00    -4000.00
01872               0.00    -4000.00
01873              -2.00    -3800.00
01874              -2.00    -4000.00
01875               0.00    -3800.00
01876              -6.00    -3800.00
01877              -6.00    -4000.00
01878               0.00    -3800.00
01879               0.00    -3800.00
01880              -6.00    -3800.00
01881              -2.00    -3800.00
01882              -2.00    -3800.00
01883              -2.00    -3800.00
01884              -2.00    -3600.00
01885              -2.00    -3800.00
01886              -2.00    -3600.00
01887               0.00    -3600.00
01888              -2.00    -3800.00
01889               0.00    -3800.00
01890              -2.00    -3600.00
01891              -6.00    -3600.00
01892               0.00    -3600.00
01893               0.00    -3600.00
01894               2.00    -3600.00
01895               4.00    -3400.00
01896              -2.00    -3600.00
01897             -10.00    -3600.00
01898              -8.00    -3400.00
01899               2.00    -3400.00
01900               6.00    -3200.00
01901               2.00    -3200.00
01902              -6.00    -3200.00
01903              -8.00    -3200.00
01904              -2.00    -3200.00
01905               0.00    -3000.00
01906               0.00    -3000.00
01907               0.00    -3000.00
01908              -2.00    -3200.00
01909              -8.00    -3000.00
01910              -2.00    -3000.00
01911               0.00    -2800.00
01912               0.00    -2800.00
01913               0.00    -2800.00
01914               0.00    -2800.00
01915              -2.00    -2800.00
01916              -4.00    -2600.00
01917              -2.00    -2600.00
01918               0.00    -2400.00
01919              -2.00    -2400.00
01920               0.00    -2400.00
01921               0.00    -2400.00
01922              -6.00    -2400.00
01923              -2.00    -2200.00
01924              -2.00    -2200.00
01925               0.00    -2200.00
01926              -2.00    -2400.00
01927              -2.00    -2000.00
01928              -2.00    -2000.00
01929              -2.00    -2000.00
01930              -4.00    -1800.00
01931              -2.00    -2000.00
01932              -2.00    -1600.00
01933               0.00    -1600.00
01934              -2.00    -1400.00
01935              -2.00    -1600.00
01936              -2.00    -1400.00
01937              -2.00    -1400.00
01938              -4.00    -1400.00
01939               0.00    -1200.00
01940              -2.00    -1000.00
01941              -2.00    -1200.00
01942              -2.00    -1000.00
01943              -6.00    -1000.00
01944              -6.00     -800.00
01945              -4.00     -800.00
01946              -2.00     -800.00
01947               0.00     -800.00
01948              -2.00     -600.00
01949              -2.00     -800.00
01950              -6.00     -600.00
01951              -6.00     -400.00
01952              -2.00     -400.00
01953               0.00     -400.00
01954               2.00     -400.00
01955              -6.00     -400.00
01956              -6.00     -200.00
01957              -2.00        0.00
01958               0.00        0.00
01959               0.00      200.00
01960              -2.00      200.00
01961               0.00      200.00
01962               0.00      200.00
01963              -2.00      400.00
01964               2.00      200.00
01965               8.00      400.00
01966               2.00      600.00
01967              -6.00      400.00
01968              -8.00      600.00
01969               0.00      800.00
01970              34.00      800.00
01971             150.00     1000.00
01972              70.00      800.00
01973            -254.00     1000.00
01974            -254.00      800.00
01975             246.00     1200.00
01976             246.00     1600.00
01977            -254.00     1000.00
01978            -254.00     1000.00
01979             246.00     1400.00
01980             246.00     1600.00
01981            -254.00     1200.00
01982            -250.00     1600.00
01983             246.00     1800.00
01984              30.00     1600.00
01985            -254.00     1600.00
01986             116.00     2000.00
01987             130.00     1800.00
01988            -152.00     1800.00
01989              60.00     2000.00
01990              82.00     2000.00
01991            -152.00     2000.00
01992              32.00     2200.00
01993              70.00     2400.00
01994             -62.00     2200.00
01995              32.00     2400.00
01996             -48.00     2400.00
01997             -50.00     2600.00
01998             144.00     2600.00
01999             -58.00     2600.00
02000            -142.00     2600.00
02001             134.00     2800.00
02002              16.00     2600.00
02003            -104.00     2800.00
02004              70.00     3000.00
02005             -22.00     2800.00
02006             -46.00     3000.00
02007              72.00     3000.00
02008             -50.00     3200.00
02009             -26.00     3200.00
02010              50.00     3200.00
02011             -48.00     3200.00
02012              10.00     3400.00
02013              34.00     3400.00
02014             -66.00     3400.00
02015              16.00     3400.00
02016              30.00     3400.00
02017             -46.00     3400.00
02018               6.00     3600.00
02019              14.00     3600.00
02020             -18.00     3600.00
02021             -12.00     3600.00
02022             -14.00     3600.00
02023              14.00     3600.00
02024              16.00     3800.00
02025             -26.00     4000.00
02026              -6.00     3800.00
02027               6.00     3800.00
02028             -18.00     4000.00
02029              -2.00     4000.00
02030              16.00     4000.00
02031             -10.00     4000.00
02032             -18.00     4000.00
02033               6.00     4200.00
02034               0.00     4000.00
02035             -14.00     4000.00
02036              -4.00     4200.00
02037               2.00     4000.00
02038               0.00     4200.00
02039             -10.00     4200.00
02040              -8.00     4000.00
02041               2.00     4200.00
02042              -8.00     4200.00
02043             -14.00     4200.00
02044               6.00     4400.00
02045               2.00     4200.00
02046             -16.00     4200.00
02047              -6.00     4400.00
02048               0.00     4200.00
02049              -8.00     4200.00
02050              -6.00     4400.00
02051              -2.00     4200.00
02052              -2.00     4400.00
02053              -8.00     4400.00
02054             -10.00     4400.00
02055              -6.00     4400.00
02056              -2.00     4400.00
02057              -8.00     4200.00
02058              -2.00     4400.00
02059              -2.00     4400.00
02060             -14.00     4400.00
02061             -10.00     4400.00
02062              -2.00     4200.00
02063              -6.00     4200.00
02064              -6.00     4400.00
02065              -2.00     4200.00
02066              -4.00     4400.00
02067              -8.00     4200.00
02068             -12.00     4200.00
02069              -8.00     4200.00
02070               0.00     4200.00
02071              -6.00     4400.00
02072              -8.00     4200.00
02073              -2.00     4200.00
02074             -10.00     4200.00
02075              -8.00     4200.00
02076              -2.00     4200.00
02077              -6.00     4000.00
02078              -4.00     4000.00
02079              -4.00     4000.00
02080              -8.00     4000.00
02081              -6.00     4200.00
02082              -8.00     4000.00
02083              -2.00     4000.00
02084              -2.00     4000.00
02085              -8.00     4000.00
02086              -4.00     3800.00
02087              -2.00     3800.00
02088              -8.00     3800.00
02089              -8.00     3800.00
02090               0.00     3600.00
02091               0.00     3600.00
02092              -4.00     3600.00
02093             -10.00     3600.00
02094              -8.00     3600.00
02095              -4.00     3600.00
02096              -6.00     3400.00
02097              -2.00     3600.00
02098               0.00     3600.00
02099              -6.00     3400.00
02100              -8.00     3200.00
02101              -4.00     3400.00
02102              -6.00     3400.00
02103              -4.00     3200.00
02104               0.00     3400.00
02105              -2.00     3200.00
02106              -2.00     3200.00
02107              -6.00     3200.00
02108              -6.00     2800.00
02109              -4.00     2800.00
02110              -2.00     2800.00
02111              -2.00     2800.00
02112              -2.00     2800.00
02113              -8.00     2800.00
02114              -8.00     2800.00
02115              -4.00     2600.00
02116              -2.00     2600.00
02117              -6.00     2400.00
02118              -2.00     2400.00
02119              -6.00     2400.00
02120              -6.00     2400.00
02121              -8.00     2200.00
02122              -2.00     2000.00
02123              -6.00     2000.00
02124              -6.00     2000.00
02125              -2.00     2000.00
02126              -6.00     2000.00
02127              -6.00     2000.00
02128              -6.00     1800.00
02129               0.00     1800.00
02130              -2.00     1600.00
02131              -4.00     1600.00
02132              -6.00     1600.00
02133              -6.00     1600.00
02134              -4.00     1400.00
02135              -6.00     1400.00
02136              -6.00     1200.00
02137              -2.00     1200.00
02138              -2.00     1200.00
02139              -8.00     1200.00
02140              -2.00     1200.00
02141              -2.00      800.00
02142              -6.00     1000.00
02143              -4.00      800.00
02144               0.00      800.00
02145              -2.00      800.00
02146              -6.00      800.00
02147              -8.00      600.00
02148              -2.00      600.00
02149               0.00      400.00
02150              -2.00      400.00
02151              -6.00      400.00
02152              -4.00      200.00
02153               2.00      400.00
02154               2.00      200.00
02155               0.00      200.00
02156               6.00        0.00
02157               2.00        0.00
02158              -2.00        0.00
02159              -8.00        0.00
02160              -4.00     -400.00
02161               6.00     -400.00
02162              36.00     -400.00
02163             134.00     -400.00
02164              56.00     -600.00
02165            -254.00     -800.00
02166            -254.00     -400.00
02167             246.00     -600.00
02168             246.00     -800.00
02169            -254.00    -1000.00
02170            -254.00     -800.00
02171             246.00    -1000.00
02172             246.00    -1200.00
02173            -254.00    -1200.00
02174            -254.00    -1000.00
02175             246.00    -1200.00
02176             160.00    -1200.00
02177            -186.00    -1400.00
02178             -14.00    -1400.00
02179              -2.00    -1400.00
02180             -76.00    -1400.00
02181             150.00    -1600.00
02182              72.00    -1600.00
02183            -198.00    -1800.00
02184             -48.00    -2000.00
02185             166.00    -1600.00
02186              10.00    -2000.00
02187             -86.00    -2000.00
02188             -46.00    -2000.00
02189              44.00    -2000.00
02190              64.00    -2200.00
02191             -40.00    -2400.00
02192             -74.00    -2200.00
02193              30.00    -2400.00
02194              48.00    -2400.00
02195             -18.00    -2400.00
02196             -18.00    -2600.00
02197             -26.00    -2800.00
02198              18.00    -2600.00
02199              24.00    -2800.00
02200             -24.00    -2600.00
02201             -32.00    -2800.00
02202              16.00    -2800.00
02203              18.00    -2800.00
02204              -8.00    -2800.00
02205             -18.00    -3000.00
02206             -10.00    -3000.00
02207              10.00    -3000.00
02208               6.00    -3000.00
02209             -10.00    -3000.00
02210             -14.00    -3200.00
02211               8.00    -3200.00
02212              14.00    -3200.00
02213             -16.00    -3200.00
02214             -18.00    -3200.00
02215              16.00    -3400.00
02216               8.00    -3200.00
02217             -10.00    -3600.00
02218               0.00    -3400.00
02219              -6.00    -3600.00
02220              -6.00    -3600.00
02221               8.00    -3400.00
02222               2.00    -3600.00
02223              -2.00    -3600.00
02224               0.00    -3600.00
02225              -4.00    -3600.00
02226               0.00    -3600.00
02227              -2.00    -3600.00
02228              -6.00    -3800.00
02229               8.00    -3800.00
02230               2.00    -3600.00
02231             -10.00    -3600.00
02232              -2.00    -3800.00
02233               6.00    -3800.00
02234              -6.00    -3800.00
02235              -2.00    -3800.00
02236               2.00    -4000.00
02237               0.00    -3800.00
02238              -2.00    -3800.00
02239              -2.00    -4000.00
02240              -2.00    -3800.00
02241               2.00    -3800.00
02242               0.00    -3800.00
02243               0.00    -4000.00
02244               2.00    -4000.00
02245              -2.00    -4000.00
02246              -8.00    -4000.00
02247              -2.00    -3800.00
02248               0.00    -3800.00
02249               0.00    -4000.00
02250               2.00    -3800.00
02251              -2.00    -4000.00
02252              -6.00    -4000.00
02253              -2.00    -3800.00
02254              -4.00    -3800.00
02255               0.00    -4000.00
02256               0.00    -3800.00
02257              -2.00    -3800.00
02258               0.00    -3800.00
02259              -6.00    -3800.00
02260              -8.00    -3800.00
02261               2.00    -3800.00
02262               2.00    -3800.00
02263              -2.00    -3800.00
02264               0.00    -3800.00
02265              -2.00    -3800.00
02266              -8.00    -3800.00
02267               0.00    -3800.00
02268              -4.00    -3600.00
02269               2.00    -3600.00
02270               2.00    -3800.00
02271              -2.00    -3800.00
02272              -2.00    -3600.00
02273              -2.00    -3600.00
02274              -2.00    -3400.00
02275               0.00    -3600.00
02276               0.00    -3600.00
02277              -2.00    -3400.00
02278               0.00    -3400.00
02279              -2.00    -3400.00
02280              -6.00    -3400.00
02281               0.00    -3200.00
02282               2.00    -3400.00
02283               2.00    -3200.00
02284              -2.00    -3200.00
02285              -4.00    -3200.00
02286               0.00    -3200.00
02287               0.00    -3200.00
02288              -4.00    -3000.00
02289               0.00    -3000.00
02290               2.00    -3000.00
02291               0.00    -2800.00
02292              -2.00    -3000.00
02293              -4.00    -3000.00
02294               0.00    -2800.00
02295               2.00    -2800.00
02296              -2.00    -2800.00
02297               0.00    -2600.00
02298               0.00    -2800.00
02299              -6.00    -2600.00
02300              -2.00    -2400.00
02301               0.00    -2400.00
02302               0.00    -2400.00
02303               2.00    -2400.00
02304               0.00    -2400.00
02305              -2.00    -2200.00
02306              -4.00    -2200.00
02307              -2.00    -2200.00
02308               0.00    -2000.00
02309               2.00    -2000.00
02310               0.00    -2000.00
02311              -2.00    -2000.00
02312              -2.00    -2000.00
02313              -4.00    -2000.00
02314              -2.00    -1600.00
02315               2.00    -1600.00
02316               0.00    -1600.00
02317              -2.00    -1400.00
02318              -2.00    -1600.00
02319              -2.00    -1400.00
02320              -6.00    -1400.00
02321              -2.00    -1400.00
02322               0.00    -1200.00
02323               0.00    -1200.00
02324              -2.00    -1000.00
02325              -6.00    -1000.00
02326              -8.00     -800.00
02327              -6.00    -1000.00
02328              -2.00     -800.00
02329              -2.00     -800.00
02330              -2.00     -800.00
02331              -2.00     -600.00
02332              -2.00     -600.00
02333              -6.00     -600.00
02334              -2.00     -600.00
02335              -4.00     -400.00
02336              -2.00     -400.00
02337               0.00     -400.00
02338              -6.00     -200.00
02339              -6.00        0.00
02340              -2.00        0.00
02341              -2.00        0.00
02342              -2.00        0.00
02343              -8.00      200.00
02344               0.00      200.00
02345               4.00      400.00
02346               0.00      400.00
02347               0.00      400.00
02348               6.00      400.00
02349               2.00      600.00
02350              -6.00      400.00
02351              -6.00      800.00
02352              -2.00      600.00
02353              26.00      800.00
02354             146.00     1000.00
02355              86.00     1000.00
02356            -254.00      800.00
02357            -254.00      800.00
02358             246.00     1200.00
02359             246.00     1400.00
02360            -254.00     1000.00
02361            -254.00     1200.00
02362             246.00     1600.00
02363             246.00     1600.00
02364            -254.00     1200.00
02365            -254.00     1600.00
02366             246.00     1800.00
02367              82.00     1600.00
02368            -254.00     1600.00
02369              86.00     2200.00
02370             154.00     1800.00
02371            -150.00     1800.00
02372              42.00     2000.00
02373              98.00     2200.00
02374            -152.00     2000.00
02375              16.00     2400.00
02376              78.00     2200.00
02377             -62.00     2200.00
02378              30.00     2400.00
02379             -36.00     2400.00
02380             -62.00     2600.00
02381             142.00     2600.00
02382             -40.00     2600.00
02383            -154.00     2600.00
02384             124.00     2800.00
02385              34.00     2800.00
02386            -112.00     2800.00
02387              62.00     3000.00
02388             -14.00     2800.00
02389             -56.00     2800.00
02390              72.00     3200.00
02391             -44.00     3000.00
02392             -34.00     3200.00
02393              56.00     3200.00
02394             -46.00     3200.00
02395               0.00     3200.00
02396              40.00     3400.00
02397             -70.00     3400.00
02398               6.00     3400.00
02399              32.00     3400.00
02400             -46.00     3400.00
02401               2.00     3600.00
02402              18.00     3600.00
02403             -24.00     3400.00
02404             -10.00     3800.00
02405             -14.00     3600.00
02406              10.00     3800.00
02407              18.00     3800.00
02408             -30.00     3600.00
02409             -10.00     4000.00
02410              10.00     4000.00
02411             -16.00     3800.00
02412              -6.00     4000.00
02413              14.00     4000.00
02414             -10.00     4000.00
02415             -16.00     4000.00
02416               6.00     4000.00
02417               0.00     4000.00
02418             -16.00     4200.00
02419              -6.00     4200.00
02420               4.00     4200.00
02421               0.00     4200.00
02422             -10.00     4200.00
02423             -10.00     4200.00
02424               6.00     4400.00
02425              -8.00     4200.00
02426             -16.00     4200.00
02427               6.00     4400.00
02428               6.00     4200.00
02429             -14.00     4200.00
02430              -4.00     4800.00
02431              -2.00     4200.00
02432              -8.00     4400.00
02433              -6.00     4400.00
02434               0.00     4400.00
02435               0.00     4400.00
02436              -8.00     4400.00
02437             -16.00     4400.00
02438              -2.00     4400.00
02439               2.00     4200.00
02440              -4.00     4400.00
02441              -6.00     4400.00
02442              -6.00     4400.00
02443             -10.00     4400.00
02444              -8.00     4400.00
02445              -2.00     4400.00
02446              -6.00     4400.00
02447              -6.00     4200.00
02448              -2.00     4200.00
02449              -6.00     4200.00
02450             -10.00     4200.00
02451              -8.00     4400.00
02452              -2.00     4200.00
02453               2.00     4200.00
02454              -6.00     4400.00
02455              -6.00     4400.00
02456              -6.00     4200.00
02457             -10.00     4200.00
02458              -8.00     4000.00
02459               0.00     4200.00
02460              -2.00     4200.00
02461              -6.00     4200.00
02462              -6.00     4000.00
02463              -8.00     4000.00
02464             -10.00     4000.00
02465              -6.00     4000.00
02466              -4.00     4000.00
02467               0.00     4000.00
02468              -8.00     3600.00
02469              -8.00     4000.00
02470              -2.00     3800.00
02471              -8.00     4000.00
02472              -8.00     4000.00
02473               0.00     3800.00
02474               0.00     3600.00
02475              -6.00     3600.00
02476              -8.00     3600.00
02477              -4.00     3600.00
02478              -6.00     3600.00
02479              -6.00     3600.00
02480              -2.00     3400.00
02481              -2.00     3400.00
02482              -6.00     3400.00
02483              -6.00     3400.00
02484              -2.00     3400.00
02485              -6.00     3400.00
02486              -6.00     3200.00
02487              -2.00     3200.00
02488              -2.00     3200.00
02489              -2.00     3200.00
02490              -6.00     3200.00
02491              -6.00     3000.00
02492              -4.00     3200.00
02493              -6.00     2800.00
02494              -2.00     2800.00
02495               0.00     2800.00
02496              -6.00     2800.00
02497              -2.00     2800.00
02498              -4.00     2600.00
02499              -2.00     2400.00
02500              -4.00     2600.00
02501              -2.00     2400.00
02502              -4.00     2400.00
02503              -2.00     2400.00
02504              -8.00     2200.00
02505              -6.00     2000.00
02506              -2.00     2200.00
02507              -4.00     2000.00
02508              -6.00     2000.00
02509              -6.00     2000.00
02510              -6.00     1800.00
02511              -8.00     1800.00
02512              -6.00     1800.00
02513              -6.00     1600.00
02514              -2.00     1600.00
02515              -6.00     1600.00
02516              -8.00     1600.00
02517              -8.00     1400.00
02518             -10.00     1200.00
02519              -2.00     1200.00
02520               0.00     1200.00
02521              -6.00     1200.00
02522              -6.00     1000.00
02523              -8.00     1000.00
02524              -2.00     1000.00
02525              -2.00     1000.00
02526              -6.00      800.00
02527              -2.00      800.00
02528              -2.00      600.00
02529              -6.00      800.00
02530              -8.00      600.00
02531              -2.00      600.00
02532              -2.00      400.00
02533              -4.00      400.00
02534              -6.00      400.00
02535              -6.00      200.00
02536               2.00      200.00
02537               2.00      200.00
02538              -2.00        0.00
02539               0.00        0.00
02540               6.00        0.00
02541              -6.00        0.00
02542              -8.00        0.00
02543              -2.00     -400.00
02544               6.00     -200.00
02545              32.00     -400.00
02546             130.00     -400.00
02547              70.00     -800.00
02548            -254.00     -800.00
02549            -254.00     -400.00
02550             246.00     -400.00
02551             246.00     -800.00
02552            -214.00    -1000.00
02553            -254.00     -600.00
02554             222.00    -1000.00
02555             246.00    -1000.00
02556            -254.00    -1000.00
02557            -254.00    -1200.00
02558             246.00    -1000.00
02559             190.00    -1200.00
02560            -184.00    -1200.00
02561             -28.00    -1600.00
02562               6.00    -1400.00
02563             -80.00    -1400.00
02564             138.00    -1600.00
02565              96.00    -1600.00
02566            -194.00    -1600.00
02567             -68.00    -2000.00
02568             162.00    -1600.00
02569              24.00    -2000.00
02570             -82.00    -2200.00
02571             -50.00    -2000.00
02572              38.00    -2000.00
02573              64.00    -2400.00
02574             -32.00    -2400.00
02575             -80.00    -2200.00
02576              24.00    -2400.00
02577              50.00    -2400.00
02578             -14.00    -2400.00
02579             -24.00    -2400.00
02580             -26.00    -2600.00
02581              16.00    -2800.00
02582              24.00    -2800.00
02583             -18.00    -2800.00
02584             -34.00    -2800.00
02585              14.00    -3000.00
02586              18.00    -2800.00
02587              -4.00    -3000.00
02588             -18.00    -3000.00
02589              -8.00    -2800.00
02590               8.00    -3200.00
02591               6.00    -3200.00
02592             -10.00    -3000.00
02593             -18.00    -3200.00
02594               8.00    -3200.00
02595              16.00    -3000.00
02596             -16.00    -3200.00
02597             -22.00    -3200.00
02598              16.00    -3400.00
02599              10.00    -3400.00
02600             -10.00    -3600.00
02601              -2.00    -3400.00
02602              -8.00    -3600.00
02603              -6.00    -3600.00
02604               8.00    -3400.00
02605               2.00    -3600.00
02606              -6.00    -3600.00
02607              -2.00    -3600.00
02608              -2.00    -3600.00
02609               2.00    -3600.00
02610              -6.00    -3600.00
02611             -10.00    -3800.00
02612              14.00    -3600.00
02613               6.00    -3800.00
02614             -16.00    -3800.00
02615               0.00    -3800.00
02616               6.00    -3800.00
02617              -6.00    -3800.00
02618              -2.00    -4000.00
02619               4.00    -3800.00
02620               0.00    -3800.00
02621              -2.00    -4000.00
02622               0.00    -3800.00
02623               2.00    -4000.00
02624               0.00    -3800.00
02625              -8.00    -4000.00
02626              -6.00    -3800.00
02627               6.00    -3800.00
02628               6.00    -4000.00
02629              -4.00    -4000.00
02630               0.00    -4000.00
02631              -2.00    -4000.00
02632              -2.00    -3800.00
02633               2.00    -4000.00
02634               6.00    -3800.00
02635               0.00    -3800.00
02636              -6.00    -4000.00
02637             -16.00    -4000.00
02638              -8.00    -4000.00
02639              10.00    -3800.00
02640              16.00    -3800.00
02641               8.00    -3800.00
02642             -16.00    -3800.00
02643             -26.00    -3800.00
02644              -2.00    -4000.00
02645              12.00    -4000.00
02646               8.00    -3800.00
02647              -2.00    -3800.00
02648             -10.00    -3800.00
02649             -10.00    -3800.00
02650               0.00    -3600.00
02651               0.00    -3800.00
02652               2.00    -3800.00
02653              -2.00    -3600.00
02654              -4.00    -3600.00
02655              -6.00    -3600.00
02656              -2.00    -3600.00
02657              -2.00    -3600.00
02658               6.00    -3600.00
02659               2.00    -3400.00
02660              -4.00    -3400.00
02661              -6.00    -3600.00
02662              -2.00    -3400.00
02663              -2.00    -3600.00
02664               0.00    -3400.00
02665               2.00    -3400.00
02666               0.00    -3200.00
02667              -2.00    -3200.00
02668              -8.00    -3200.00
02669              -2.00    -3200.00
02670               0.00    -3200.00
02671              -2.00    -3200.00
02672              -4.00    -3200.00
02673               0.00    -3000.00
02674               0.00    -3000.00
02675               0.00    -3000.00
02676              -2.00    -3000.00
02677              -2.00    -2800.00
02678               0.00    -2800.00
02679              -2.00    -2800.00
02680               0.00    -2800.00
02681              -4.00    -2800.00
02682              -4.00    -2800.00
02683               0.00    -2600.00
02684               0.00    -2400.00
02685               0.00    -2600.00
02686              -2.00    -2400.00
02687              -2.00    -2400.00
02688              -2.00    -2400.00
02689               0.00    -2400.00
02690               0.00    -2200.00
02691              -2.00    -2000.00
02692              -2.00    -2200.00
02693               0.00    -2000.00
02694               0.00    -2000.00
02695              -2.00    -2000.00
02696              -4.00    -1800.00
02697              -2.00    -1800.00
02698               0.00    -1600.00
02699               0.00    -1600.00
02700              -2.00    -1400.00
02701              -6.00    -1400.00
02702              -4.00    -1400.00
02703              -2.00    -1400.00
02704               0.00    -1400.00
02705               0.00    -1200.00
02706              -2.00    -1400.00
02707              -6.00    -1000.00
02708              -4.00    -1000.00
02709              -2.00    -1000.00
02710              -6.00    -1200.00
02711              -2.00     -800.00
02712               0.00     -800.00
02713              -2.00     -800.00
02714              -2.00     -600.00
02715              -6.00     -600.00
02716              -6.00     -600.00
02717              -6.00     -600.00
02718              -6.00     -400.00
02719               0.00     -400.00
02720               0.00        0.00
02721              -2.00     -400.00
02722              -4.00     -200.00
02723              -8.00        0.00
02724              -2.00        0.00
02725               0.00        0.00
02726              -8.00        0.00
02727              -4.00      200.00
02728               2.00      400.00
02729               0.00      200.00
02730               0.00      400.00
02731               0.00      400.00
02732               2.00      400.00
02733               0.00      400.00
02734              -6.00      800.00
02735              -2.00      800.00
02736              22.00      800.00
02737             128.00     1000.00
02738             102.00     1000.00
02739            -254.00      800.00
02740            -254.00      800.00
02741             246.00     1200.00
02742             246.00     1600.00
02743            -254.00     1000.00
02744            -254.00     1000.00
02745             246.00     1600.00
02746             246.00     1600.00
02747            -254.00     1200.00
02748            -254.00     1400.00
02749             246.00     1800.00
02750             136.00     1600.00
02751            -254.00     1600.00
02752              46.00     2000.00
02753             182.00     1600.00
02754            -138.00     1800.00
02755              26.00     2000.00
02756             112.00     2000.00
02757            -154.00     2000.00
02758               2.00     2200.00
02759              84.00     2400.00
02760             -62.00     2200.00
02761              26.00     2400.00
02762             -14.00     2400.00
02763             -70.00     2400.00
02764             128.00     2800.00
02765             -22.00     2600.00
02766            -160.00     2600.00
02767             122.00     3000.00
02768              50.00     2800.00
02769            -126.00     2600.00
02770              54.00     2800.00
02771               0.00     2800.00
02772             -58.00     3200.00
02773              78.00     3200.00
02774             -34.00     3000.00
02775             -48.00     3000.00
02776              54.00     3200.00
02777             -40.00     3400.00
02778               0.00     3200.00
02779              48.00     3400.00
02780             -66.00     3400.00
02781              -2.00     3400.00
02782              38.00     3400.00
02783             -40.00     3400.00
02784               2.00     3600.00
02785              22.00     3400.00
02786             -24.00     3600.00
02787             -10.00     3600.00
02788             -10.00     3600.00
02789               8.00     3600.00
02790              14.00     3800.00
02791             -26.00     3800.00
02792             -10.00     3600.00
02793              10.00     3800.00
02794             -18.00     4000.00
02795              -8.00     3800.00
02796              16.00     4000.00
02797              -2.00     4000.00
02798             -18.00     4000.00
02799               4.00     4200.00
02800               0.00     4000.00
02801             -18.00     4200.00
02802              -8.00     4000.00
02803               6.00     4000.00
02804               6.00     4200.00
02805             -10.00     4200.00
02806             -14.00     4200.00
02807               4.00     4200.00
02808              -2.00     4200.00
02809             -16.00     4200.00
02810               8.00     4400.00
02811               6.00     4200.00
02812             -16.00     4200.00
02813              -6.00     4400.00
02814               2.00     4400.00
02815              -2.00     4200.00
02816              -6.00     4400.00
02817              -2.00     4400.00
02818              -2.00     4400.00
02819              -6.00     4400.00
02820              -8.00     4400.00
02821              -2.00     4400.00
02822              -2.00     4400.00
02823              -6.00     4400.00
02824               0.00     4400.00
02825               4.00     4400.00
02826              -8.00     4400.00
02827             -10.00     4400.00
02828              -2.00     4400.00
02829              -6.00     4400.00
02830              -2.00     4400.00
02831               0.00     4400.00
02832              -2.00     4400.00
02833              -8.00     4400.00
02834             -10.00     4200.00
02835              -6.00     4400.00
02836               2.00     4200.00
02837              -6.00     4400.00
02838             -10.00     4200.00
02839              -4.00     4200.00
02840              -8.00     4200.00
02841             -10.00     4200.00
02842              -2.00     4200.00
02843              -2.00     4200.00
02844              -4.00     4000.00
02845              -2.00     4200.00
02846              -8.00     4000.00
02847             -10.00     4000.00
02848              -8.00     4000.00
02849              -2.00     4000.00
02850              -2.00     4000.00
02851              -6.00     4000.00
02852             -10.00     4000.00
02853              -8.00     4000.00
02854              -8.00     3800.00
02855              -8.00     4000.00
02856              -2.00     3600.00
02857              -2.00     3600.00
02858              -8.00     3600.00
02859             -10.00     3600.00
02860              -6.00     3600.00
02861               0.00     3600.00
02862              -6.00     3600.00
02863              -8.00     3600.00
02864              -6.00     3400.00
02865              -6.00     3400.00
02866              -6.00     3200.00
02867              -4.00     3400.00
02868              -6.00     3400.00
02869              -2.00     3200.00
02870              -8.00     3200.00
02871              -2.00     3200.00
02872              -4.00     3200.00
02873              -6.00     3200.00
02874              -2.00     3000.00
02875              -6.00     3000.00
02876             -10.00     3000.00
02877              -2.00     2800.00
02878               2.00     2800.00
02879             -10.00     2600.00
02880              -6.00     2800.00
02881              -2.00     2600.00
02882              -4.00     2600.00
02883               0.00     2600.00
02884              -6.00     2400.00
02885              -6.00     2400.00
02886              -2.00     2400.00
02887              -6.00     2200.00
02888              -8.00     2400.00
02889              -2.00     2200.00
02890              -6.00     2000.00
02891               0.00     2000.00
02892               0.00     2000.00
02893              -8.00     2000.00
02894             -10.00     1800.00
02895              -6.00     1800.00
02896               0.00     1600.00
02897               0.00     1600.00
02898              -4.00     1600.00
02899              -8.00     1400.00
02900              -6.00     1600.00
02901              -8.00     1400.00
02902              -6.00     1200.00
02903               0.00     1200.00
02904              -2.00     1200.00
02905              -6.00     1200.00
02906              -8.00     1000.00
02907              -8.00     1000.00
02908              -6.00     1000.00
02909              -6.00     1000.00
02910              -2.00      800.00
02911              -2.00      800.00
02912              -6.00      800.00
02913             -10.00      600.00
02914              -4.00      600.00
02915              -2.00      400.00
02916              -2.00      400.00
02917              -6.00      400.00
02918              -8.00      200.00
02919              -2.00      200.00
02920               0.00      200.00
02921               0.00        0.00
02922               6.00        0.00
02923               6.00        0.00
02924              -6.00        0.00
02925              -8.00        0.00
02926              -2.00        0.00
02927               8.00     -400.00
02928              32.00     -400.00
02929             120.00     -400.00
02930              76.00     -600.00
02931            -254.00     -800.00
02932            -254.00     -600.00
02933             246.00     -600.00
02934             246.00     -600.00
02935            -142.00     -800.00
02936            -254.00     -800.00
02937             160.00     -800.00
02938             246.00    -1200.00
02939            -248.00    -1000.00
02940            -254.00    -1200.00
02941             246.00    -1200.00
02942             222.00    -1000.00
02943            -182.00    -1400.00
02944             -40.00    -1400.00
02945              18.00    -1600.00
02946             -80.00    -1200.00
02947             124.00    -1600.00
02948             112.00    -1400.00
02949            -190.00    -1600.00
02950             -88.00    -2000.00
02951             162.00    -2000.00
02952              38.00    -1800.00
02953             -80.00    -2200.00
02954             -56.00    -2200.00
02955              34.00    -2000.00
02956              70.00    -2400.00
02957             -18.00    -2400.00
02958             -82.00    -2200.00
02959              22.00    -2400.00
02960              54.00    -2600.00
02961             -10.00    -2400.00
02962             -22.00    -2400.00
02963             -24.00    -2600.00
02964              16.00    -2400.00
02965              30.00    -2800.00
02966             -18.00    -2600.00
02967             -40.00    -2800.00
02968              14.00    -2800.00
02969              22.00    -2800.00
02970              -2.00    -2800.00
02971             -18.00    -3000.00
02972             -10.00    -3000.00
02973              10.00    -2800.00
02974               8.00    -3000.00
02975              -8.00    -3000.00
02976             -16.00    -3000.00
02977               8.00    -3200.00
02978              14.00    -3400.00
02979             -20.00    -3200.00
02980             -22.00    -3200.00
02981              16.00    -3400.00
02982              14.00    -3400.00
02983             -10.00    -3200.00
02984              -8.00    -3400.00
02985              -8.00    -3600.00
02986              -8.00    -3600.00
02987               6.00    -3600.00
02988               2.00    -3600.00
02989              -6.00    -3600.00
02990              -4.00    -3600.00
02991               0.00    -3600.00
02992               2.00    -3800.00
02993              -6.00    -3600.00
02994             -10.00    -3800.00
02995               8.00    -3800.00
02996               8.00    -3800.00
02997              -6.00    -3800.00
02998              -4.00    -3800.00
02999               2.00    -3800.00
03000              -4.00    -3800.00
03001              -8.00    -3800.00
03002               2.00    -3800.00
03003               6.00    -4000.00
03004               0.00    -3800.00
03005              -2.00    -3800.00
03006              -2.00    -3800.00
03007               0.00    -3800.00
03008              -2.00    -3800.00
03009               0.00    -3800.00
03010               2.00    -3800.00
03011               0.00    -3800.00
03012              -6.00    -4000.00
03013              -2.00    -3800.00
03014               0.00    -4000.00
03015               0.00    -4000.00
03016               6.00    -4000.00
03017               0.00    -4000.00
03018              -4.00    -4000.00
03019              -6.00    -4000.00
03020              -4.00    -4000.00
03021               2.00    -3800.00
03022               0.00    -4000.00
03023               0.00    -3800.00
03024               0.00    -4000.00
03025              -2.00    -3800.00
03026              -8.00    -4000.00
03027              -2.00    -4000.00
03028               0.00    -3800.00
03029               2.00    -3800.00
03030               0.00    -3800.00
03031              -2.00    -3800.00
03032             -10.00    -3800.00
03033              -6.00    -3800.00
03034              -2.00    -3600.00
03035               2.00    -3800.00
03036               0.00    -3600.00
03037               0.00    -3600.00
03038              -2.00    -3600.00
03039              -6.00    -3600.00
03040              -8.00    -3600.00
03041              -2.00    -3600.00
03042               0.00    -3600.00
03043               2.00    -3600.00
03044              -2.00    -3400.00
03045              -2.00    -3600.00
03046              -6.00    -3200.00
03047              -2.00    -3200.00
03048               0.00    -3200.00
03049               0.00    -3200.00
03050              -2.00    -3200.00
03051              -6.00    -3200.00
03052              -2.00    -3200.00
03053              -2.00    -3200.00
03054              -4.00    -3200.00
03055               2.00    -3000.00
03056              -2.00    -3000.00
03057              -2.00    -3000.00
03058               0.00    -3000.00
03059               0.00    -2800.00
03060              -6.00    -2800.00
03061               0.00    -2800.00
03062              -4.00    -2600.00
03063               0.00    -2800.00
03064               4.00    -2800.00
03065              -8.00    -2600.00
03066              -8.00    -2600.00
03067               0.00    -2400.00
03068               6.00    -2400.00
03069               0.00    -2400.00
03070             -10.00    -2200.00
03071              -4.00    -2400.00
03072               8.00    -2200.00
03073              -8.00    -2200.00
03074              -2.00    -2000.00
03075               2.00    -2000.00
03076              -2.00    -2000.00
03077               4.00    -1800.00
03078              -8.00    -2000.00
03079             -14.00    -1600.00
03080               2.00    -1600.00
03081               8.00    -1600.00
03082               2.00    -1600.00
03083              -6.00    -1400.00
03084             -18.00    -1600.00
03085              -2.00    -1400.00
03086              22.00    -1400.00
03087               6.00    -1200.00
03088             -14.00    -1200.00
03089             -10.00    -1000.00
03090              -2.00    -1000.00
03091               2.00    -1000.00
03092               2.00    -1000.00
03093              -2.00     -800.00
03094              -8.00     -800.00
03095              -2.00     -800.00
03096              -2.00     -800.00
03097              -2.00     -800.00
03098               2.00     -400.00
03099              -2.00     -600.00
03100             -10.00     -600.00
03101             -10.00     -400.00
03102              -2.00     -400.00
03103               8.00     -400.00
03104               6.00        0.00
03105             -10.00        0.00
03106             -14.00        0.00
03107               0.00        0.00
03108              -2.00      200.00
03109              -2.00        0.00
03110              -2.00      200.00
03111               0.00      400.00
03112               2.00      400.00
03113               2.00      400.00
03114               2.00      400.00
03115              -2.00      600.00
03116             -10.00      600.00
03117               0.00      600.00
03118              10.00      800.00
03119              22.00      800.00
03120             118.00      800.00
03121             106.00     1000.00
03122            -254.00     1000.00
03123            -254.00      800.00
03124             246.00     1200.00
03125             246.00     1400.00
03126            -210.00     1200.00
03127            -254.00     1000.00
03128             246.00     1600.00
03129             246.00     1600.00
03130            -254.00     1200.00
03131            -254.00     1600.00
03132             246.00     2000.00
03133             186.00     1600.00
03134            -254.00     1600.00
03135              14.00     2000.00
03136             200.00     1800.00
03137            -134.00     1800.00
03138               6.00     2000.00
03139             128.00     2000.00
03140            -146.00     2000.00
03141             -14.00     2200.00
03142              90.00     2400.00
03143             -56.00     2200.00
03144              18.00     2400.00
03145             -10.00     2400.00
03146             -78.00     2400.00
03147             128.00     2600.00
03148               2.00     2600.00
03149            -172.00     2600.00
03150             102.00     2800.00
03151              72.00     2800.00
03152            -114.00     2800.00
03153              48.00     3000.00
03154              10.00     3000.00
03155             -66.00     2800.00
03156              70.00     3200.00
03157             -22.00     3200.00
03158             -56.00     3200.00
03159              56.00     3200.00
03160             -32.00     3200.00
03161             -10.00     3200.00
03162              54.00     3400.00
03163             -56.00     3400.00
03164             -14.00     3400.00
03165              40.00     3600.00
03166             -40.00     3200.00
03167              -2.00     3600.00
03168              26.00     3600.00
03169             -22.00     3600.00
03170             -16.00     3800.00
03171             -16.00     3600.00
03172               2.00     3600.00
03173              22.00     3800.00
03174             -18.00     3600.00
03175             -14.00     3800.00
03176               6.00     4000.00
03177             -16.00     3800.00
03178             -10.00     3800.00
03179              14.00     4000.00
03180              -6.00     4000.00
03181             -16.00     4000.00
03182               6.00     4200.00
03183               6.00     4000.00
03184             -16.00     4000.00
03185              -8.00     4200.00
03186               0.00     4200.00
03187              -2.00     4200.00
03188              -8.00     4200.00
03189              -8.00     4200.00
03190               6.00     4200.00
03191               0.00     4200.00
03192             -20.00     4400.00
03193               0.00     4200.00
03194               2.00     4200.00
03195             -12.00     4400.00
03196              -6.00     4400.00
03197               0.00     4200.00
03198              -8.00     4400.00
03199              -8.00     4200.00
03200               0.00     4400.00
03201               0.00     4400.00
03202              -6.00     4400.00
03203             -10.00     4400.00
03204              -6.00     4200.00
03205               0.00     4400.00
03206              -8.00     4200.00
03207              -4.00     4200.00
03208               0.00     4400.00
03209             -10.00     4400.00
03210              -8.00     4200.00
03211               0.00     4400.00
03212              -2.00     4200.00
03213              -6.00     4400.00
03214              -4.00     4400.00
03215              -2.00     4200.00
03216              -8.00     4400.00
03217              -8.00     4400.00
03218              -2.00     4400.00
03219               2.00     4200.00
03220              -6.00     4200.00
03221             -10.00     4400.00
03222              -6.00     4200.00
03223              -8.00     4200.00
03224              -6.00     4400.00
03225               0.00     4200.00
03226              -2.00     4000.00
03227             -10.00     4200.00
03228              -8.00     4200.00
03229              -6.00     4000.00
03230              -6.00     4000.00
03231              -8.00     4000.00
03232              -4.00     4000.00
03233              -2.00     4000.00
03234             -10.00     4000.00
03235              -8.00     4000.00
03236              -2.00     3800.00
03237              -6.00     4000.00
03238             -10.00     3600.00
03239              -6.00     3800.00
03240              -6.00     3800.00
03241              -8.00     3600.00
03242              -6.00     3800.00
03243              -2.00     3600.00
03244              -6.00     3600.00
03245              -8.00     3600.00
03246              -6.00     3600.00
03247              -6.00     3400.00
03248              -6.00     3400.00
03249              -8.00     3400.00
03250              -2.00     3200.00
03251              -6.00     3200.00
03252             -10.00     3400.00
03253              -6.00     3200.00
03254              -2.00     3200.00
03255              -6.00     3200.00
03256              -6.00     3200.00
03257              -4.00     3000.00
03258              -4.00     3000.00
03259              -8.00     2800.00
03260              -2.00     2800.00
03261               0.00     2800.00
03262             -10.00     2800.00
03263              -8.00     2800.00
03264              -2.00     2600.00
03265               2.00     2600.00
03266               0.00     2400.00
03267              -6.00     2400.00
03268             -10.00     2200.00
03269             -10.00     2400.00
03270              -6.00     2200.00
03271               0.00     2000.00
03272               6.00     2200.00
03273              -2.00     2000.00
03274             -10.00     2000.00
03275             -10.00     2000.00
03276              -8.00     1800.00
03277              -2.00     1800.00
03278               0.00     1800.00
03279              -2.00     1600.00
03280              -6.00     1600.00
03281              -8.00     1600.00
03282              -2.00     1600.00
03283              -2.00     1600.00
03284              -6.00     1600.00
03285              -2.00     1400.00
03286              -2.00     1400.00
03287              -2.00     1200.00
03288              -6.00     1200.00
03289              -8.00     1000.00
03290              -6.00     1000.00
03291              -4.00     1000.00
03292              -8.00      800.00
03293              -2.00      800.00
03294               0.00      800.00
03295              -6.00      600.00
03296              -8.00      600.00
03297              -6.00      600.00
03298              -2.00      400.00
03299              -2.00      400.00
03300              -6.00      400.00
03301              -6.00      200.00
03302               0.00      200.00
03303               2.00      200.00
03304              -2.00      200.00
03305               0.00        0.00
03306               4.00        0.00
03307              -2.00        0.00
03308              -6.00        0.00
03309              -6.00     -400.00
03310               2.00     -400.00
03311              26.00     -400.00
03312             112.00     -400.00
03313              94.00     -600.00
03314            -248.00     -800.00
03315            -254.00     -400.00
03316             214.00     -400.00
03317             246.00     -800.00
03318             -66.00     -800.00
03319            -254.00     -800.00
03320              98.00    -1000.00
03321             246.00    -1000.00
03322            -194.00    -1000.00
03323            -254.00    -1200.00
03324             208.00    -1400.00
03325             246.00    -1200.00
03326            -168.00    -1200.00
03327             -56.00    -1400.00
03328              22.00    -1600.00
03329             -86.00    -1400.00
03330             108.00    -1600.00
03331             134.00    -1600.00
03332            -176.00    -1600.00
03333            -104.00    -2000.00
03334             156.00    -2000.00
03335              50.00    -2000.00
03336             -78.00    -2000.00
03337             -62.00    -2000.00
03338              30.00    -2000.00
03339              70.00    -2200.00
03340              -8.00    -2200.00
03341             -88.00    -2200.00
03342              14.00    -2400.00
03343              56.00    -2400.00
03344              -6.00    -2400.00
03345             -22.00    -2400.00
03346             -26.00    -2600.00
03347              16.00    -2600.00
03348              32.00    -2600.00
03349             -12.00    -2800.00
03350             -42.00    -2800.00
03351               8.00    -2800.00
03352              24.00    -2600.00
03353               6.00    -2800.00
03354             -18.00    -3000.00
03355             -14.00    -3000.00
03356               4.00    -3000.00
03357               8.00    -3200.00
03358              -2.00    -3200.00
03359             -16.00    -3000.00
03360               4.00    -3200.00
03361              14.00    -3200.00
03362             -14.00    -3200.00
03363             -24.00    -3200.00
03364              14.00    -3400.00
03365              14.00    -3200.00
03366              -6.00    -3200.00
03367              -6.00    -3400.00
03368             -10.00    -3600.00
03369             -10.00    -3400.00
03370               6.00    -3600.00
03371               8.00    -3400.00
03372               0.00    -3600.00
03373              -4.00    -3600.00
03374             -10.00    -3800.00
03375              -2.00    -3600.00
03376               2.00    -3800.00
03377              -2.00    -3800.00
03378               4.00    -3800.00
03379               0.00    -3800.00
03380             -16.00    -3800.00
03381              -2.00    -3800.00
03382              10.00    -3800.00
03383              -2.00    -4000.00
03384              -8.00    -3800.00
03385              -2.00    -3800.00
03386               0.00    -3800.00
03387               2.00    -3800.00
03388              -2.00    -3800.00
03389              -2.00    -4000.00
03390              -6.00    -4000.00
03391              -2.00    -3800.00
03392               0.00    -4000.00
03393               6.00    -4000.00
03394               0.00    -3800.00
03395              -8.00    -3800.00
03396              -4.00    -3800.00
03397               0.00    -4000.00
03398               0.00    -3800.00
03399               2.00    -3800.00
03400               0.00    -4000.00
03401              -2.00    -4000.00
03402              -2.00    -3800.00
03403              -2.00    -4000.00
03404               0.00    -3800.00
03405               2.00    -4000.00
03406               0.00    -3800.00
03407               0.00    -3800.00
03408              -2.00    -3800.00
03409              -8.00    -3800.00
03410               0.00    -4000.00
03411               6.00    -3800.00
03412               0.00    -3800.00
03413               0.00    -3800.00
03414              -2.00    -3800.00
03415              -6.00    -3800.00
03416              -2.00    -3800.00
03417               0.00    -3600.00
03418               4.00    -3600.00
03419              -2.00    -3800.00
03420              -6.00    -3800.00
03421              -4.00    -3600.00
03422               0.00    -3600.00
03423              -2.00    -3600.00
03424               0.00    -3600.00
03425               0.00    -3600.00
03426              -2.00    -3600.00
03427              -2.00    -3600.00
03428              -2.00    -3400.00
03429              -4.00    -3400.00
03430               0.00    -3400.00
03431               0.00    -3200.00
03432               0.00    -3200.00
03433              -6.00    -3200.00
03434              -6.00    -3200.00
03435              -2.00    -3200.00
03436               0.00    -3200.00
03437              -6.00    -3200.00
03438              -2.00    -3000.00
03439               0.00    -3000.00
03440              -2.00    -3000.00
03441              -2.00    -3000.00
03442              -6.00    -3000.00
03443              -2.00    -3000.00
03444               0.00    -2800.00
03445               0.00    -2800.00
03446               0.00    -2800.00
03447              -2.00    -2800.00
03448              -6.00    -2800.00
03449              -2.00    -2600.00
03450               0.00    -2400.00
03451              -2.00    -2600.00
03452               0.00    -2400.00
03453               0.00    -2400.00
03454              -6.00    -2400.00
03455              -6.00    -2200.00
03456              -2.00    -2200.00
03457               0.00    -2200.00
03458               0.00    -2000.00
03459              -2.00    -2000.00
03460               0.00    -2000.00
03461               0.00    -2000.00
03462              -2.00    -2000.00
03463              -4.00    -1800.00
03464              -2.00    -1800.00
03465              -2.00    -1600.00
03466               0.00    -1600.00
03467               0.00    -1400.00
03468              -2.00    -1400.00
03469              -2.00    -1400.00
03470              -2.00    -1400.00
03471               0.00    -1000.00
03472               0.00    -1000.00
03473               0.00    -1200.00
03474              -2.00    -1000.00
03475              -2.00    -1000.00
03476              -2.00     -800.00
03477              -2.00     -800.00
03478              -2.00     -800.00
03479              -2.00     -800.00
03480               0.00     -800.00
03481              -4.00     -600.00
03482              -2.00     -600.00
03483              -6.00     -600.00
03484              -6.00     -400.00
03485               0.00     -400.00
03486               0.00     -200.00
03487              -6.00     -400.00
03488              -6.00     -200.00
03489              -2.00        0.00
03490              -2.00        0.00
03491               0.00      200.00
03492              -6.00        0.00
03493              -2.00        0.00
03494               0.00      200.00
03495               0.00      400.00
03496              -2.00      200.00
03497               6.00      400.00
03498               0.00      400.00
03499              -2.00      400.00
03500              -8.00      600.00
03501              -6.00      800.00
03502              14.00      800.00
03503             120.00     1000.00
03504             128.00     1000.00
03505            -254.00      800.00
03506            -254.00      800.00
03507             246.00     1200.00
03508             246.00     1400.00
03509            -124.00     1000.00
03510            -254.00      800.00
03511             178.00     1600.00
03512             246.00     1600.00
03513            -254.00     1200.00
03514            -254.00     1600.00
03515             246.00     1800.00
03516             240.00     1600.00
03517            -254.00     1400.00
03518             -22.00     2000.00
03519             218.00     1800.00
03520            -128.00     1800.00
03521             -16.00     2000.00
03522             134.00     2000.00
03523            -138.00     1800.00
03524             -24.00     2200.00
03525              96.00     2200.00
03526             -48.00     2400.00
03527              10.00     2400.00
03528              -8.00     2400.00
03529             -86.00     2400.00
03530             122.00     2600.00
03531              22.00     2600.00
03532            -176.00     2600.00
03533              82.00     2800.00
03534              86.00     2800.00
03535            -118.00     2800.00
03536              38.00     2800.00
03537              20.00     3000.00
03538             -72.00     3000.00
03539              64.00     3000.00
03540             -10.00     3000.00
03541             -62.00     3000.00
03542              56.00     3400.00
03543             -26.00     3200.00
03544             -22.00     3400.00
03545              54.00     3400.00
03546             -56.00     3200.00
03547             -16.00     3400.00
03548              46.00     3600.00
03549             -38.00     3400.00
03550             -12.00     3600.00
03551              24.00     3600.00
03552             -16.00     3600.00
03553             -10.00     3600.00
03554             -16.00     3800.00
03555               0.00     3600.00
03556              18.00     4000.00
03557             -20.00     3800.00
03558             -14.00     3600.00
03559              10.00     3800.00
03560             -16.00     4000.00
03561             -16.00     3600.00
03562              14.00     4000.00
03563              -4.00     4000.00
03564             -18.00     4000.00
03565               0.00     4000.00
03566               0.00     4000.00
03567             -16.00     4200.00
03568              -8.00     4200.00
03569               6.00     4000.00
03570              -2.00     4200.00
03571             -10.00     4000.00
03572             -12.00     4200.00
03573               0.00     4200.00
03574              -2.00     4200.00
03575             -18.00     4200.00
03576               0.00     4200.00
03577               6.00     4200.00
03578             -10.00     4200.00
03579             -10.00     4400.00
03580              -2.00     4400.00
03581              -8.00     4400.00
03582              -8.00     4400.00
03583               0.00     4400.00
03584              -2.00     4200.00
03585             -10.00     4200.00
03586             -10.00     4400.00
03587              -8.00     4400.00
03588               0.00     4400.00
03589              -6.00     4400.00
03590              -6.00     4400.00
03591               0.00     4400.00
03592              -8.00     4400.00
03593             -10.00     4200.00
03594              -2.00     4400.00
03595              -2.00     4400.00
03596              -6.00     4200.00
03597              -2.00     4400.00
03598              -2.00     4200.00
03599             -10.00     4400.00
03600             -10.00     4200.00
03601              -6.00     4200.00
03602               0.00     4200.00
03603              -2.00     4200.00
03604              -8.00     4200.00
03605              -2.00     4200.00
03606              -6.00     4200.00
03607             -10.00     4200.00
03608              -4.00     4200.00
03609               0.00     4200.00
03610              -8.00     4200.00
03611              -2.00     4200.00
03612              -2.00     4000.00
03613              -8.00     4000.00
03614              -8.00     4000.00
03615              -2.00     4000.00
03616               0.00     4000.00
03617              -8.00     4000.00
03618              -8.00     3800.00
03619              -6.00     4000.00
03620              -6.00     4000.00
03621             -10.00     3600.00
03622              -8.00     3600.00
03623              -6.00     3600.00
03624               0.00     3600.00
03625              -4.00     3600.00
03626              -8.00     3600.00
03627              -8.00     3600.00
03628              -8.00     3600.00
03629              -2.00     3600.00
03630               0.00     3400.00
03631              -2.00     3400.00
03632             -14.00     3400.00
03633             -10.00     3400.00
03634              -8.00     3400.00
03635              -2.00     3400.00
03636               2.00     3200.00
03637               0.00     3200.00
03638             -10.00     3200.00
03639             -16.00     3200.00
03640             -10.00     3000.00
03641              -2.00     3000.00
03642               0.00     3000.00
03643               0.00     2800.00
03644              -2.00     2800.00
03645             -12.00     2800.00
03646             -10.00     2600.00
03647              -2.00     2800.00
03648               2.00     2400.00
03649              -2.00     2600.00
03650              -8.00     2400.00
03651              -6.00     2600.00
03652              -2.00     2400.00
03653              -6.00     2400.00
03654              -2.00     2400.00
03655               0.00     2000.00
03656              -4.00     2000.00
03657              -6.00     2000.00
03658              -6.00     2000.00
03659              -2.00     1800.00
03660              -2.00     1800.00
03661              -4.00     1600.00
03662              -2.00     1600.00
03663              -2.00     1600.00
03664               0.00     1600.00
03665              -2.00     1600.00
03666              -2.00     1600.00
03667              -6.00     1400.00
03668              -6.00     1200.00
03669              -2.00     1200.00
03670              -2.00     1200.00
03671              -6.00     1000.00
03672              -2.00     1000.00
03673              -2.00     1000.00
03674              -6.00     1000.00
03675              -6.00      800.00
03676              -4.00      800.00
03677               0.00      800.00
03678              -4.00      800.00
03679              -8.00      600.00
03680              -2.00      400.00
03681              -2.00      400.00
03682              -2.00      400.00
03683             -10.00      200.00
03684              -8.00      200.00
03685               2.00      200.00
03686               2.00        0.00
03687              -2.00        0.00
03688               2.00        0.00
03689               4.00        0.00
03690              -2.00        0.00
03691              -8.00        0.00
03692              -2.00     -400.00
03693               0.00     -400.00
03694              22.00     -400.00
03695             110.00     -400.00
03696             106.00     -800.00
03697            -224.00     -800.00
03698            -254.00     -600.00
03699             166.00     -600.00
03700             246.00     -800.00
03701               8.00    -1000.00
03702            -254.00     -800.00
03703              32.00     -800.00
03704             246.00    -1000.00
03705            -138.00    -1000.00
03706            -254.00    -1000.00
03707             174.00    -1200.00
03708             246.00    -1200.00
03709            -162.00    -1200.00
03710             -72.00    -1600.00
03711              32.00    -1400.00
03712             -82.00    -1400.00
03713              86.00    -2000.00
03714             148.00    -1600.00
03715            -168.00    -1600.00
03716            -118.00    -2000.00
03717             150.00    -2000.00
03718              58.00    -2000.00
03719             -80.00    -2000.00
03720             -64.00    -2000.00
03721              26.00    -2000.00
03722              72.00    -2200.00
03723               0.00    -2200.00
03724             -94.00    -2200.00
03725               8.00    -2400.00
03726              56.00    -2400.00
03727              -2.00    -2400.00
03728             -22.00    -2400.00
03729             -24.00    -2600.00
03730              10.00    -2600.00
03731              32.00    -2800.00
03732             -10.00    -2800.00
03733             -40.00    -2800.00
03734              10.00    -2800.00
03735              24.00    -3000.00
03736               2.00    -2800.00
03737             -18.00    -3000.00
03738             -12.00    -3000.00
03739               8.00    -3000.00
03740              14.00    -3200.00
03741              -6.00    -3200.00
03742             -16.00    -3000.00
03743               2.00    -3200.00
03744              18.00    -3200.00
03745             -10.00    -3200.00
03746             -22.00    -3400.00
03747              14.00    -3400.00
03748              14.00    -3200.00
03749              -8.00    -3400.00
03750              -2.00    -3600.00
03751              -4.00    -3600.00
03752              -8.00    -3600.00
03753               6.00    -3600.00
03754               0.00    -3600.00
03755              -6.00    -3600.00
03756              -2.00    -3600.00
03757              -2.00    -3600.00
03758               0.00    -3800.00
03759              -6.00    -3600.00
03760             -10.00    -3800.00
03761               2.00    -3800.00
03762               8.00    -3600.00
03763              -8.00    -3800.00
03764              -8.00    -3800.00
03765               4.00    -3800.00
03766              -2.00    -4000.00
03767              -6.00    -3800.00
03768               0.00    -3800.00
03769               0.00    -3800.00
03770               0.00    -3800.00
03771              -2.00    -3800.00
03772              -2.00    -3800.00
03773              -4.00    -3800.00
03774              -2.00    -3800.00
03775              -2.00    -4000.00
03776               4.00    -4000.00
03777              -2.00    -3800.00
03778              -8.00    -3800.00
03779              -2.00    -4000.00
03780               0.00    -3800.00
03781              -2.00    -4000.00
03782               0.00    -3800.00
03783               2.00    -4000.00
03784              -6.00    -4000.00
03785              -6.00    -3800.00
03786              -4.00    -4000.00
03787               0.00    -3800.00
03788               2.00    -3800.00
03789               0.00    -3800.00
03790               0.00    -3800.00
03791              -2.00    -3800.00
03792              -8.00    -3800.00
03793               0.00    -3800.00
03794               4.00    -3800.00
03795              -2.00    -3800.00
03796               0.00    -3800.00
03797               0.00    -3800.00
03798              -2.00    -3600.00
03799               2.00    -3600.00
03800              -2.00    -3800.00
03801               0.00    -3600.00
03802              -4.00    -3800.00
03803               0.00    -3600.00
03804               0.00    -3600.00
03805               0.00    -3600.00
03806              -2.00    -3600.00
03807              -2.00    -3600.00
03808               0.00    -3600.00
03809               0.00    -3600.00
03810               0.00    -3600.00
03811               2.00    -3400.00
03812              -2.00    -3600.00
03813              -6.00    -3400.00
03814              -6.00    -3200.00
03815               0.00    -3200.00
03816               0.00    -3200.00
03817              -2.00    -3200.00
03818               0.00    -3200.00
03819              -2.00    -3200.00
03820              -8.00    -3200.00
03821              -2.00    -3000.00
03822               2.00    -3000.00
03823               0.00    -2800.00
03824              -2.00    -3000.00
03825              -6.00    -3000.00
03826              -6.00    -3000.00
03827              -2.00    -2800.00
03828               0.00    -2800.00
03829               0.00    -2800.00
03830              -2.00    -2800.00
03831              -8.00    -2800.00
03832              -6.00    -2600.00
03833              -2.00    -2400.00
03834              -2.00    -2400.00
03835               0.00    -2600.00
03836              -2.00    -2400.00
03837              -6.00    -2400.00
03838              -6.00    -2200.00
03839              -2.00    -2200.00
03840               0.00    -2000.00
03841               0.00    -2000.00
03842              -2.00    -2000.00
03843              -2.00    -2000.00
03844              -2.00    -2000.00
03845              -2.00    -2000.00
03846              -2.00    -1800.00
03847               0.00    -1600.00
03848               0.00    -1600.00
03849              -2.00    -1600.00
03850               0.00    -1400.00
03851               0.00    -1400.00
03852              -2.00    -1400.00
03853              -2.00    -1200.00
03854               0.00    -1000.00
03855               0.00    -1000.00
03856               0.00    -1000.00
03857              -2.00    -1000.00
03858              -2.00    -1000.00
03859              -2.00     -800.00
03860              -2.00     -800.00
03861               0.00     -800.00
03862               0.00     -600.00
03863               0.00     -800.00
03864              -2.00     -600.00
03865              -2.00     -600.00
03866               0.00     -400.00
03867              -4.00     -400.00
03868               0.00     -400.00
03869              -2.00     -200.00
03870              -2.00     -200.00
03871              -4.00        0.00
03872              -2.00        0.00
03873               0.00        0.00
03874              -2.00        0.00
03875              -8.00      200.00
03876              -2.00      200.00
03877               6.00      200.00
03878               0.00      200.00
03879               0.00      400.00
03880               6.00      400.00
03881               2.00      400.00
03882              -6.00      400.00
03883              -8.00      400.00
03884              -2.00      600.00
03885              14.00      800.00
03886             112.00     1000.00
03887             138.00     1000.00
03888            -240.00      800.00
03889            -254.00      800.00
03890             200.00     1000.00
03891             246.00     1400.00
03892             -42.00     1200.00
03893            -254.00     1000.00
03894             110.00     1600.00
03895             246.00     1600.00
03896            -254.00     1600.00
03897            -254.00     1400.00
03898             246.00     1800.00
03899             246.00     1600.00
03900            -254.00     1600.00
03901             -64.00     2000.00
03902             226.00     2000.00
03903            -114.00     1800.00
03904             -34.00     2000.00
03905             150.00     2000.00
03906            -126.00     2000.00
03907             -42.00     2200.00
03908              98.00     2200.00
03909             -40.00     2000.00
03910               2.00     2400.00
03911               0.00     2400.00
03912             -90.00     2600.00
03913             110.00     2600.00
03914              40.00     2400.00
03915            -178.00     2400.00
03916              64.00     2800.00
03917             102.00     2800.00
03918            -116.00     2800.00
03919              28.00     2800.00
03920              30.00     3000.00
03921             -74.00     2800.00
03922              58.00     3200.00
03923               0.00     3200.00
03924             -66.00     3000.00
03925              56.00     3200.00
03926             -22.00     3200.00
03927             -30.00     3200.00
03928              56.00     3400.00
03929             -48.00     3400.00
03930             -24.00     3400.00
03931              48.00     3600.00
03932             -30.00     3600.00
03933             -14.00     3600.00
03934              24.00     3600.00
03935             -16.00     3600.00
03936             -10.00     3600.00
03937             -12.00     3800.00
03938               0.00     3600.00
03939              22.00     3600.00
03940             -18.00     3800.00
03941             -18.00     3800.00
03942              10.00     3800.00
03943             -16.00     4000.00
03944             -14.00     3800.00
03945              14.00     4000.00
03946              -2.00     4000.00
03947             -22.00     4000.00
03948              -2.00     4000.00
03949               4.00     4000.00
03950             -14.00     4000.00
03951             -10.00     4200.00
03952               2.00     4200.00
03953               0.00     4000.00
03954             -10.00     4200.00
03955             -14.00     4200.00
03956               0.00     4200.00
03957              -2.00     4200.00
03958             -18.00     4200.00
03959               0.00     4200.00
03960               8.00     4400.00
03961             -14.00     4200.00
03962             -10.00     4200.00
03963              -2.00     4400.00
03964              -8.00     4200.00
03965              -8.00     4400.00
03966              -2.00     4400.00
03967              -4.00     4400.00
03968              -6.00     4400.00
03969             -10.00     4400.00
03970              -8.00     4400.00
03971               0.00     4400.00
03972              -6.00     4400.00
03973              -6.00     4400.00
03974               0.00     4400.00
03975             -10.00     4400.00
03976             -14.00     4400.00
03977              -2.00     4400.00
03978              -2.00     4400.00
03979              -6.00     4400.00
03980              -2.00     4400.00
03981              -2.00     4400.00
03982              -6.00     4400.00
03983              -6.00     4400.00
03984              -8.00     4200.00
03985              -2.00     4200.00
03986              -2.00     4200.00
03987              -6.00     4200.00
03988               0.00     4200.00
03989              -4.00     4200.00
03990             -10.00     4200.00
03991              -6.00     4200.00
03992               0.00     4200.00
03993              -2.00     4000.00
03994              -2.00     4000.00
03995              -6.00     4000.00
03996              -6.00     4200.00
03997              -8.00     4000.00
03998              -2.00     4000.00
03999               0.00     4000.00
04000              -6.00     4000.00
04001              -6.00     4000.00
04002               0.00     3800.00
04003              -2.00     4000.00
04004             -10.00     3800.00
04005              -2.00     3600.00
04006              -8.00     3600.00
04007              -2.00     3600.00
04008             -26.00     3600.00
04009             -10.00     3600.00
04010               6.00     3600.00
04011               8.00     3400.00
04012              10.00     3400.00
04013               0.00     3400.00
04014               0.00     3400.00
04015             -22.00     3400.00
04016             -24.00     3400.00
04017             -26.00     3200.00
04018               4.00     3200.00
04019              10.00     3200.00
04020               2.00     3200.00
04021              -4.00     3000.00
04022              -6.00     3000.00
04023               0.00     2800.00
04024             -10.00     3000.00
04025              -8.00     2800.00
04026             -10.00     3000.00
04027             -10.00     2800.00
04028             -12.00     2600.00
04029              -6.00     2800.00
04030               4.00     2600.00
04031               2.00     2600.00
04032              -8.00     2600.00
04033              -6.00     2600.00
04034              -2.00     2400.00
04035              -6.00     2400.00
04036             -10.00     2200.00
04037             -10.00     2200.00
04038              -6.00     2000.00
04039              -6.00     2000.00
04040              -6.00     2000.00
04041               2.00     2000.00
04042               2.00     2000.00
04043              -2.00     1800.00
04044              -6.00     1800.00
04045              -6.00     1600.00
04046              -8.00     1600.00
04047              -8.00     1600.00
04048              -6.00     1600.00
04049              -2.00     1600.00
04050              -6.00     1400.00
04051               2.00     1200.00
04052               0.00     1200.00
04053               0.00     1200.00
04054              -8.00     1000.00
04055             -10.00     1000.00
04056              -4.00     1200.00
04057              -6.00     1000.00
04058              -6.00     1000.00
04059               0.00      800.00
04060               0.00      800.00
04061              -2.00      800.00
04062              -6.00      800.00
04063              -8.00      600.00
04064              -4.00      400.00
04065              -2.00      400.00
04066              -6.00      400.00
04067              -2.00      400.00
04068               0.00      200.00
04069               0.00      200.00
04070              -2.00      200.00
04071               0.00        0.00
04072               6.00        0.00
04073              -2.00        0.00
04074             -10.00        0.00
04075              -8.00     -200.00
04076               0.00     -400.00
04077              22.00     -200.00
04078             102.00     -400.00
04079             114.00     -600.00
04080            -194.00     -800.00
04081            -254.00     -600.00
04082             120.00     -400.00
04083             246.00     -600.00
04084              78.00    -1000.00
04085            -254.00     -800.00
04086             -30.00     -800.00
04087             246.00    -1000.00
04088             -76.00    -1000.00
04089            -254.00    -1000.00
04090             130.00    -1200.00
04091             246.00    -1200.00
04092            -146.00    -1000.00
04093             -88.00    -1400.00
04094              32.00    -1400.00
04095             -84.00    -1400.00
04096              70.00    -1600.00
04097             166.00    -1600.00
04098            -154.00    -1600.00
04099            -136.00    -2000.00
04100             138.00    -1800.00
04101              78.00    -1600.00
04102             -70.00    -2000.00
04103             -70.00    -2200.00
04104              18.00    -2000.00
04105              70.00    -2400.00
04106               8.00    -2400.00
04107             -94.00    -2000.00
04108               6.00    -2400.00
04109              56.00    -2400.00
04110               0.00    -2400.00
04111             -22.00    -2400.00
04112             -26.00    -2600.00
04113               8.00    -2600.00
04114              34.00    -2600.00
04115              -6.00    -2400.00
04116             -42.00    -2800.00
04117               6.00    -2800.00
04118              22.00    -2800.00
04119               6.00    -2800.00
04120             -16.00    -3000.00
04121             -16.00    -3000.00
04122               6.00    -2800.00
04123              10.00    -3200.00
04124               0.00    -3000.00
04125             -16.00    -3000.00
04126               0.00    -3200.00
04127              16.00    -3200.00
04128              -8.00    -3200.00
04129             -26.00    -3200.00
04130              12.00    -3200.00
04131              14.00    -3200.00
04132              -8.00    -3400.00
04133              -4.00    -3200.00
04134              -6.00    -3600.00
04135              -8.00    -3400.00
04136               4.00    -3600.00
04137               6.00    -3600.00
04138              -2.00    -3600.00
04139              -2.00    -3600.00
04140              -2.00    -3600.00
04141              -2.00    -3600.00
04142              -2.00    -3600.00
04143              -8.00    -3600.00
04144               4.00    -3600.00
04145               8.00    -3800.00
04146             -10.00    -3600.00
04147             -10.00    -3800.00
04148               2.00    -3800.00
04149              -2.00    -4000.00
04150              -2.00    -3800.00
04151               2.00    -3800.00
04152               0.00    -4000.00
04153               0.00    -3800.00
04154              -2.00    -4000.00
04155              -2.00    -3800.00
04156               0.00    -4000.00
04157              -2.00    -3800.00
04158              -2.00    -4000.00
04159               4.00    -4000.00
04160               0.00    -4000.00
04161             -10.00    -4000.00
04162              -2.00    -4000.00
04163               0.00    -4000.00
04164              -2.00    -4000.00
04165               2.00    -4000.00
04166              -2.00    -4000.00
04167              -2.00    -4000.00
04168               0.00    -3800.00
04169              -2.00    -3800.00
04170               0.00    -3800.00
04171               2.00    -4000.00
04172               0.00    -3800.00
04173               0.00    -3800.00
04174               0.00    -4000.00
04175              -8.00    -4000.00
04176               0.00    -3800.00
04177               6.00    -3800.00
04178              -2.00    -3800.00
04179               0.00    -3800.00
04180              -2.00    -3800.00
04181              -2.00    -3800.00
04182               0.00    -3800.00
04183              -2.00    -3800.00
04184               2.00    -3600.00
04185               2.00    -3600.00
04186              -2.00    -3800.00
04187              -2.00    -3600.00
04188               0.00    -3600.00
04189              -2.00    -3600.00
04190               0.00    -3600.00
04191               0.00    -3600.00
04192               0.00    -3600.00
04193               0.00    -3600.00
04194               0.00    -3200.00
04195              -4.00    -3400.00
04196              -2.00    -3200.00
04197               0.00    -3200.00
04198               2.00    -3200.00
04199               0.00    -3200.00
04200              -4.00    -3200.00
04201              -2.00    -3200.00
04202               0.00    -3200.00
04203              -6.00    -3200.00
04204               0.00    -3000.00
04205               2.00    -3000.00
04206              -2.00    -3000.00
04207              -4.00    -3000.00
04208              -6.00    -3000.00
04209              -2.00    -2800.00
04210               0.00    -2800.00
04211              -2.00    -2600.00
04212               0.00    -2800.00
04213               0.00    -3000.00
04214              -4.00    -2600.00
04215              -2.00    -2400.00
04216              -2.00    -2400.00
04217              -2.00    -2400.00
04218               0.00    -2400.00
04219               0.00    -2400.00
04220              -2.00    -2200.00
04221              -6.00    -2400.00
04222              -2.00    -2200.00
04223              -2.00    -2200.00
04224               0.00    -2000.00
04225               0.00    -2000.00
04226              -2.00    -2000.00
04227              -2.00    -2000.00
04228              -2.00    -1800.00
04229              -2.00    -1600.00
04230              -2.00    -1800.00
04231               0.00    -1600.00
04232               0.00    -1400.00
04233              -2.00    -1600.00
04234              -2.00    -1400.00
04235              -4.00    -1400.00
04236              -2.00    -1400.00
04237               0.00    -1400.00
04238              -2.00    -1000.00
04239              -2.00    -1200.00
04240              -2.00    -1000.00
04241              -2.00     -800.00
04242              -4.00     -800.00
04243              -2.00     -800.00
04244               0.00     -800.00
04245               0.00     -800.00
04246              -2.00     -600.00
04247              -2.00     -600.00
04248              -2.00     -400.00
04249              -2.00     -600.00
04250              -2.00     -400.00
04251              -2.00     -400.00
04252               0.00     -200.00
04253              -2.00        0.00
04254              -6.00        0.00
04255              -2.00        0.00
04256               0.00        0.00
04257              -2.00        0.00
04258              -6.00      200.00
04259              -2.00      200.00
04260               6.00      200.00
04261               0.00      400.00
04262               0.00      400.00
04263               8.00      400.00
04264               6.00      400.00
04265              -2.00      600.00
04266              -8.00      800.00
04267              -6.00      600.00
04268              14.00      800.00
04269             104.00      800.00
04270             150.00      800.00
04271            -204.00     1000.00
04272            -254.00      800.00
04273             150.00     1200.00
04274             246.00     1400.00
04275              40.00     1200.00
04276            -254.00      800.00
04277              38.00     1400.00
04278             246.00     1600.00
04279            -200.00     1200.00
04280            -254.00     1400.00
04281             246.00     1800.00
04282             246.00     1600.00
04283            -254.00     1600.00
04284            -104.00     1800.00
04285             240.00     2000.00
04286            -102.00     1800.00
04287             -56.00     2000.00
04288             152.00     2000.00
04289            -114.00     2000.00
04290             -58.00     2200.00
04291              98.00     2400.00
04292             -38.00     2200.00
04293              -2.00     2400.00
04294              10.00     2400.00
04295             -98.00     2400.00
04296              96.00     2600.00
04297              60.00     2600.00
04298            -182.00     2600.00
04299              48.00     2800.00
04300             112.00     2800.00
04301            -112.00     2600.00
04302              18.00     2800.00
04303              34.00     3000.00
04304             -78.00     2800.00
04305              56.00     3200.00
04306              10.00     3000.00
04307             -72.00     3200.00
04308              52.00     3200.00
04309             -14.00     3200.00
04310             -32.00     3200.00
04311              56.00     3400.00
04312             -40.00     3200.00
04313             -26.00     3400.00
04314              48.00     3600.00
04315             -32.00     3400.00
04316             -18.00     3600.00
04317              32.00     3600.00
04318             -14.00     3600.00
04319             -16.00     3600.00
04320             -14.00     3600.00
04321               0.00     3600.00
04322              26.00     3800.00
04323             -14.00     3800.00
04324             -22.00     3800.00
04325              14.00     3800.00
04326             -10.00     4000.00
04327             -14.00     4000.00
04328              14.00     4000.00
04329               0.00     4000.00
04330             -16.00     4000.00
04331              -2.00     4200.00
04332               2.00     4000.00
04333             -14.00     4200.00
04334              -8.00     4000.00
04335               0.00     4000.00
04336              -2.00     4000.00
04337             -10.00     4200.00
04338             -10.00     4200.00
04339               6.00     4200.00
04340               2.00     4200.00
04341             -18.00     4200.00
04342              -6.00     4200.00
04343               8.00     4200.00
04344              -8.00     4200.00
04345             -10.00     4400.00
04346              -2.00     4400.00
04347              -8.00     4200.00
04348              -2.00     4400.00
04349               0.00     4400.00
04350              -2.00     4200.00
04351             -10.00     4200.00
04352             -10.00     4400.00
04353              -4.00     4200.00
04354               2.00     4400.00
04355              -2.00     4400.00
04356              -8.00     4400.00
04357              -2.00     4200.00
04358             -10.00     4400.00
04359              -8.00     4200.00
04360               0.00     4400.00
04361              -2.00     4400.00
04362              -6.00     4200.00
04363               0.00     4200.00
04364              -2.00     4200.00
04365              -8.00     4400.00
04366             -10.00     4400.00
04367              -6.00     4400.00
04368               2.00     4200.00
04369              -2.00     4200.00
04370              -8.00     4200.00
04371               0.00     4200.00
04372              -2.00     4200.00
04373             -10.00     4200.00
04374              -8.00     4200.00
04375              -2.00     4200.00
04376              -2.00     4000.00
04377               0.00     4000.00
04378              -4.00     4200.00
04379              -6.00     4200.00
04380             -10.00     4000.00
04381              -2.00     4000.00
04382              -2.00     4000.00
04383               0.00     4000.00
04384              -6.00     4000.00
04385              -2.00     3800.00
04386              -6.00     4000.00
04387              -8.00     3800.00
04388              -2.00     3800.00
04389               2.00     3600.00
04390              -2.00     3800.00
04391              -8.00     3800.00
04392              -8.00     3400.00
04393              -2.00     3600.00
04394              -6.00     3600.00
04395              -2.00     3400.00
04396               0.00     3600.00
04397              -4.00     3400.00
04398              -8.00     3400.00
04399              -6.00     3400.00
04400              -8.00     3200.00
04401              -6.00     3200.00
04402               0.00     3200.00
04403              -6.00     3200.00
04404              -6.00     3200.00
04405             -10.00     3000.00
04406              -8.00     3000.00
04407              -6.00     3000.00
04408              -6.00     2800.00
04409              -8.00     2800.00
04410              -2.00     2800.00
04411             -10.00     2600.00
04412              -8.00     2800.00
04413              -2.00     2600.00
04414              -2.00     2600.00
04415              -6.00     2600.00
04416              -6.00     2600.00
04417              -8.00     2400.00
04418              -2.00     2400.00
04419              -8.00     2400.00
04420             -10.00     2200.00
04421              -2.00     2000.00
04422              -6.00     2000.00
04423              -2.00     2000.00
04424              -6.00     2000.00
04425              -8.00     1800.00
04426              -4.00     1800.00
04427              -6.00     1800.00
04428              -6.00     1600.00
04429              -2.00     1800.00
04430              -2.00     1600.00
04431              -2.00     1600.00
04432              -6.00     1600.00
04433              -8.00     1400.00
04434              -8.00     1400.00
04435              -2.00     1200.00
04436               0.00     1200.00
04437              -6.00     1000.00
04438              -2.00     1000.00
04439              -4.00     1000.00
04440              -2.00     1000.00
04441              -6.00      800.00
04442              -6.00      800.00
04443               0.00      800.00
04444               0.00      800.00
04445              -6.00      600.00
04446              -6.00      600.00
04447              -2.00      400.00
04448              -2.00      400.00
04449              -2.00      400.00
04450              -2.00      200.00
04451               0.00      200.00
04452               2.00      200.00
04453               0.00        0.00
04454               2.00        0.00
04455               8.00        0.00
04456              -2.00        0.00
04457              -6.00     -400.00
04458              -4.00     -400.00
04459               0.00     -200.00
04460              16.00     -400.00
04461              98.00     -400.00
04462             122.00     -800.00
04463            -170.00     -800.00
04464            -254.00     -600.00
04465              74.00     -600.00
04466             246.00     -800.00
04467             146.00    -1000.00
04468            -254.00     -800.00
04469             -86.00     -800.00
04470             246.00    -1000.00
04471             -18.00    -1000.00
04472            -254.00    -1200.00
04473              90.00    -1200.00
04474             246.00    -1400.00
04475            -126.00    -1400.00
04476            -102.00    -1400.00
04477              34.00    -1600.00
04478             -82.00    -1400.00
04479              54.00    -1600.00
04480             176.00    -1600.00
04481            -138.00    -1800.00
04482            -152.00    -2000.00
04483             126.00    -1800.00
04484              88.00    -1800.00
04485             -66.00    -2000.00
04486             -72.00    -2200.00
04487              10.00    -2000.00
04488              66.00    -2200.00
04489              16.00    -2200.00
04490             -94.00    -2200.00
04491               0.00    -2400.00
04492              56.00    -2400.00
04493               2.00    -2400.00
04494             -22.00    -2400.00
04495             -18.00    -2600.00
04496              -2.00    -2400.00
04497              30.00    -2800.00
04498               2.00    -2800.00
04499             -40.00    -2800.00
04500               2.00    -2800.00
04501              22.00    -2800.00
04502               6.00    -2800.00
04503             -16.00    -2800.00
04504             -10.00    -3000.00
04505              14.00    -3000.00
04506              16.00    -3200.00
04507              -6.00    -3200.00
04508             -24.00    -3200.00
04509              -2.00    -3200.00
04510              24.00    -3200.00
04511               8.00    -3200.00
04512             -18.00    -3200.00
04513               0.00    -3200.00
04514               2.00    -3200.00
04515             -16.00    -3400.00
04516               6.00    -3400.00
04517              16.00    -3600.00
04518              -8.00    -3600.00
04519             -10.00    -3600.00
04520             -14.00    -3600.00
04521               0.00    -3600.00
04522              18.00    -3600.00
04523              16.00    -3600.00
04524              -4.00    -3800.00
04525             -16.00    -3800.00
04526             -18.00    -3800.00
04527               8.00    -3600.00
04528              16.00    -3800.00
04529              -6.00    -3800.00
04530              -8.00    -3800.00
04531               6.00    -3800.00
04532               0.00    -3800.00
04533             -14.00    -3800.00
04534              -6.00    -3800.00
04535               2.00    -3800.00
04536               6.00    -4000.00
04537               0.00    -3800.00
04538             -12.00    -4000.00
04539              -6.00    -4000.00
04540               0.00    -4000.00
04541               6.00    -3800.00
04542               8.00    -4000.00
04543              -6.00    -4000.00
04544             -10.00    -4000.00
04545              -6.00    -4000.00
04546               0.00    -3800.00
04547               0.00    -4000.00
04548               2.00    -3800.00
04549               0.00    -4000.00
04550              -6.00    -4000.00
04551              -8.00    -3800.00
04552              -2.00    -4000.00
04553               6.00    -3800.00
04554               0.00    -3800.00
04555              -6.00    -4000.00
04556               0.00    -3800.00
04557               0.00    -3800.00
04558              -2.00    -4000.00
04559               0.00    -3800.00
04560               0.00    -3800.00
04561              -2.00    -3800.00
04562              -2.00    -3800.00
04563              -2.00    -3800.00
04564              -2.00    -3800.00
04565              -2.00    -3800.00
04566               0.00    -3800.00
04567               2.00    -3600.00
04568               0.00    -3600.00
04569              -2.00    -3600.00
04570              -2.00    -3800.00
04571               0.00    -3600.00
04572              -2.00    -3600.00
04573               0.00    -3600.00
04574               0.00    -3600.00
04575               0.00    -3400.00
04576              -2.00    -3600.00
04577               0.00    -3600.00
04578               0.00    -3400.00
04579              -2.00    -3400.00
04580               0.00    -3200.00
04581               0.00    -3200.00
04582               0.00    -3200.00
04583              -2.00    -3200.00
04584              -2.00    -3200.00
04585              -2.00    -3200.00
04586              -2.00    -3200.00
04587               2.00    -3000.00
04588               2.00    -3000.00
04589               0.00    -3000.00
04590              -4.00    -3000.00
04591              -8.00    -2800.00
04592               0.00    -2800.00
04593               0.00    -2800.00
04594               0.00    -2800.00
04595               0.00    -2800.00
04596              -2.00    -2800.00
04597              -8.00    -2800.00
04598              -2.00    -2600.00
04599              -2.00    -2600.00
04600              -2.00    -2400.00
04601               0.00    -2400.00
04602              -2.00    -2400.00
04603              -2.00    -2400.00
04604              -4.00    -2200.00
04605              -6.00    -2400.00
04606               0.00    -2200.00
04607              -2.00    -2200.00
04608              -6.00    -2000.00
04609              -2.00    -2000.00
04610               0.00    -2000.00
04611              -2.00    -1800.00
04612              -6.00    -1600.00
04613              -4.00    -1800.00
04614              -2.00    -1600.00
04615               0.00    -1600.00
04616              -2.00    -1400.00
04617              -6.00    -1600.00
04618              -6.00    -1400.00
04619              -8.00    -1400.00
04620              -2.00    -1200.00
04621               2.00    -1000.00
04622              -2.00    -1200.00
04623              -8.00    -1000.00
04624               0.00    -1000.00
04625              -6.00    -1000.00
04626              -2.00     -800.00
04627              -2.00     -800.00
04628              -2.00     -800.00
04629              -6.00     -600.00
04630              -2.00     -600.00
04631              -4.00     -600.00
04632              -2.00     -400.00
04633              -2.00     -400.00
04634               0.00     -200.00
04635               0.00     -400.00
04636              -2.00     -200.00
04637              -6.00        0.00
04638              -2.00        0.00
04639               0.00        0.00
04640              -2.00        0.00
04641              -8.00        0.00
04642              -2.00      200.00
04643               2.00      200.00
04644               2.00      200.00
04645               2.00      400.00
04646               6.00      400.00
04647               6.00      400.00
04648              -2.00      600.00
04649              -6.00      400.00
04650              -2.00      800.00
04651               8.00      800.00
04652              94.00     1000.00
04653             158.00     1000.00
04654            -174.00      800.00
04655            -254.00      800.00
04656             104.00     1200.00
04657             246.00     1200.00
04658             118.00     1200.00
04659            -254.00     1000.00
04660             -32.00     1600.00
04661             246.00     1600.00
04662            -128.00     1200.00
04663            -254.00     1600.00
04664             246.00     1800.00
04665             246.00     1600.00
04666            -254.00     1600.00
04667            -152.00     2000.00
04668             240.00     2000.00
04669             -74.00     1600.00
04670             -58.00     1800.00
04671             142.00     2000.00
04672            -112.00     2000.00
04673             -64.00     2000.00
04674             106.00     2200.00
04675             -24.00     2200.00
04676             -14.00     2400.00
04677              14.00     2400.00
04678            -104.00     2400.00
04679              86.00     2600.00
04680              82.00     2600.00
04681            -176.00     2600.00
04682              28.00     2800.00
04683             120.00     2800.00
04684            -108.00     2600.00
04685               2.00     3000.00
04686              46.00     2800.00
04687             -76.00     2800.00
04688              54.00     3200.00
04689              16.00     3200.00
04690             -84.00     3000.00
04691              48.00     3200.00
04692               0.00     3200.00
04693             -34.00     3200.00
04694              54.00     3400.00
04695             -38.00     3400.00
04696             -40.00     3200.00
04697              50.00     3600.00
04698             -18.00     3400.00
04699             -18.00     3400.00
04700              26.00     3600.00
04701             -18.00     3600.00
04702             -18.00     3600.00
04703              -8.00     3600.00
04704               0.00     3600.00
04705              24.00     3800.00
04706             -14.00     3800.00
04707             -24.00     3800.00
04708              10.00     4000.00
04709              -8.00     4000.00
04710             -14.00     4000.00
04711              16.00     4000.00
04712               0.00     4000.00
04713             -24.00     4000.00
04714               0.00     4000.00
04715              10.00     4000.00
04716             -14.00     4000.00
04717              -8.00     4000.00
04718               2.00     4200.00
04719              -2.00     4000.00
04720              -2.00     4200.00
04721             -14.00     4200.00
04722               0.00     4200.00
04723               6.00     4200.00
04724             -20.00     4000.00
04725              -6.00     4200.00
04726              10.00     4200.00
04727             -10.00     4200.00
04728             -12.00     4400.00
04729               0.00     4400.00
04730              -8.00     4200.00
04731              -8.00     4200.00
04732              -2.00     4400.00
04733              -6.00     4200.00
04734              -2.00     4400.00
04735              -8.00     4400.00
04736              -6.00     4400.00
04737              -2.00     4400.00
04738             -10.00     4400.00
04739             -10.00     4400.00
04740               6.00     4400.00
04741               0.00     4400.00
04742             -16.00     4400.00
04743             -10.00     4400.00
04744              -8.00     4200.00
04745              -2.00     4200.00
04746               0.00     4200.00
04747              -2.00     4400.00
04748             -10.00     4400.00
04749             -10.00     4200.00
04750              -8.00     4400.00
04751               0.00     4400.00
04752              -2.00     4200.00
04753              -6.00     4200.00
04754              -6.00     4200.00
04755              -8.00     4000.00
04756             -10.00     4400.00
04757               0.00     4000.00
04758               2.00     4200.00
04759              -6.00     4000.00
04760              -8.00     4000.00
04761              -6.00     4000.00
04762              -8.00     4000.00
04763              -6.00     4000.00
04764              -6.00     4000.00
04765               0.00     4000.00
04766              -2.00     3800.00
04767             -10.00     4000.00
04768              -8.00     4000.00
04769              -2.00     4000.00
04770              -8.00     3800.00
04771              -6.00     3600.00
04772              -4.00     3600.00
04773              -6.00     3800.00
04774              -6.00     3600.00
04775              -2.00     3600.00
04776              -2.00     3600.00
04777              -8.00     3600.00
04778              -6.00     3600.00
04779              -6.00     3400.00
04780              -2.00     3600.00
04781              -2.00     3400.00
04782              -2.00     3400.00
04783              -6.00     3400.00
04784              -8.00     3200.00
04785              -6.00     3200.00
04786              -2.00     3400.00
04787              -2.00     3200.00
04788              -4.00     3200.00
04789              -6.00     3200.00
04790              -6.00     2800.00
04791              -8.00     3000.00
04792              -8.00     2800.00
04793              -2.00     2800.00
04794              -4.00     2800.00
04795              -6.00     2600.00
04796              -6.00     2600.00
04797              -2.00     2600.00
04798              -6.00     2400.00
04799              -8.00     2600.00
04800              -4.00     2600.00
04801              -6.00     2400.00
04802              -8.00     2400.00
04803             -10.00     2200.00
04804              -4.00     2000.00
04805              -4.00     2000.00
04806              -6.00     2000.00
04807              -2.00     2000.00
04808              -6.00     1800.00
04809              -8.00     1800.00
04810              -8.00     1800.00
04811              -6.00     1600.00
04812              -6.00     1600.00
04813              -6.00     1600.00
04814              -6.00     1600.00
04815              -6.00     1400.00
04816              -6.00     1400.00
04817              -6.00     1400.00
04818              -2.00     1200.00
04819              -2.00     1200.00
04820              -6.00     1200.00
04821              -6.00     1000.00
04822              -4.00     1000.00
04823              -6.00     1000.00
04824              -2.00     1000.00
04825              -2.00      800.00
04826               0.00      800.00
04827              -2.00      800.00
04828              -6.00      800.00
04829              -6.00      600.00
04830              -2.00      600.00
04831              -2.00      400.00
04832              -2.00      400.00
04833              -2.00      400.00
04834               0.00      200.00
04835               0.00      200.00
04836              -2.00      200.00
04837               2.00        0.00
04838               6.00      200.00
04839               0.00        0.00
04840              -6.00     -200.00
04841              -8.00     -200.00
04842               0.00     -400.00
04843              16.00     -400.00
04844              92.00     -400.00
04845             130.00     -600.00
04846            -142.00    -1000.00
04847            -254.00     -600.00
04848              32.00     -400.00
04849             246.00     -600.00
04850             208.00    -1000.00
04851            -254.00     -800.00
04852            -144.00     -800.00
04853             246.00    -1200.00
04854              46.00    -1000.00
04855            -254.00    -1200.00
04856              48.00    -1000.00
04857             246.00    -1400.00
04858            -110.00    -1400.00
04859            -116.00    -1400.00
04860              38.00    -1600.00
04861             -78.00    -1400.00
04862              38.00    -1600.00
04863             184.00    -1600.00
04864            -128.00    -1600.00
04865            -162.00    -2000.00
04866             114.00    -2000.00
04867             100.00    -2000.00
04868             -66.00    -2000.00
04869             -74.00    -2200.00
04870               6.00    -2000.00
04871              64.00    -2200.00
04872              24.00    -2200.00
04873             -96.00    -2200.00
04874              -8.00    -2200.00
04875              56.00    -2400.00
04876               8.00    -2400.00
04877             -26.00    -2400.00
04878             -26.00    -2600.00
04879               0.00    -2600.00
04880              34.00    -2600.00
04881               0.00    -2800.00
04882             -42.00    -2600.00
04883               0.00    -2800.00
04884              22.00    -2800.00
04885               8.00    -2800.00
04886             -16.00    -3000.00
04887             -14.00    -2800.00
04888               0.00    -3000.00
04889              14.00    -3000.00
04890              -2.00    -3200.00
04891             -14.00    -3000.00
04892              -2.00    -3200.00
04893              16.00    -3200.00
04894              -2.00    -3200.00
04895             -26.00    -3200.00
04896               8.00    -3200.00
04897              18.00    -3200.00
04898              -6.00    -3200.00
04899              -2.00    -3400.00
04900              -2.00    -3600.00
04901             -14.00    -3600.00
04902               6.00    -3600.00
04903               8.00    -3600.00
04904              -2.00    -3600.00
04905               2.00    -3600.00
04906               0.00    -3600.00
04907              -4.00    -3600.00
04908               0.00    -3800.00
04909              -4.00    -3800.00
04910               2.00    -3800.00
04911              10.00    -3600.00
04912              -6.00    -3800.00
04913             -10.00    -3800.00
04914               6.00    -3800.00
04915               0.00    -3800.00
04916              -8.00    -3800.00
04917               6.00    -3800.00
04918               2.00    -4000.00
04919              -6.00    -3800.00
04920               2.00    -3800.00
04921              -2.00    -4000.00
04922              -2.00    -4000.00
04923              -2.00    -3800.00
04924             -10.00    -4000.00
04925               6.00    -4000.00
04926               6.00    -3800.00
04927             -10.00    -4000.00
04928              -6.00    -4000.00
04929               2.00    -4000.00
04930              -2.00    -4000.00
04931               0.00    -3800.00
04932              -2.00    -3800.00
04933              -4.00    -4000.00
04934              -4.00    -3800.00
04935              -4.00    -3800.00
04936              -4.00    -3800.00
04937               2.00    -3800.00
04938              -2.00    -4000.00
04939               0.00    -4000.00
04940              -2.00    -4000.00
04941             -10.00    -3800.00
04942              -8.00    -3800.00
04943               6.00    -3800.00
04944              -6.00    -3800.00
04945              -6.00    -3800.00
04946               6.00    -3800.00
04947              -6.00    -3800.00
04948             -10.00    -3800.00
04949               6.00    -3800.00
04950              -2.00    -3800.00
04951               0.00    -3600.00
04952               2.00    -3600.00
04953             -10.00    -3600.00
04954              -4.00    -3600.00
04955               0.00    -3600.00
04956               2.00    -3600.00
04957               8.00    -3600.00
04958             -10.00    -3600.00
04959             -16.00    -3200.00
04960              10.00    -3400.00
04961              14.00    -3400.00
04962              -8.00    -3200.00
04963             -14.00    -3200.00
04964              -2.00    -3400.00
04965               2.00    -3200.00
04966               6.00    -3200.00
04967              -2.00    -3200.00
04968              -4.00    -3200.00
04969               0.00    -3000.00
04970               0.00    -3000.00
04971               0.00    -3000.00
04972               2.00    -3000.00
04973              -4.00    -3000.00
04974              -6.00    -2800.00
04975               0.00    -2800.00
04976              -2.00    -2800.00
04977               0.00    -2800.00
04978               6.00    -2800.00
04979               0.00    -2800.00
04980              -6.00    -2600.00
04981              -6.00    -2600.00
04982              -4.00    -2400.00
04983               2.00    -2400.00
04984               0.00    -2400.00
04985              -6.00    -2400.00
04986              -2.00    -2400.00
04987              -2.00    -2200.00
04988               0.00    -2400.00
04989               0.00    -2200.00
04990              -6.00    -2000.00
04991             -10.00    -2200.00
04992              -2.00    -2000.00
04993               6.00    -2000.00
04994               0.00    -2000.00
04995              -8.00    -2000.00
04996             -10.00    -1800.00
04997              -2.00    -1600.00
04998               2.00    -1600.00
04999               0.00    -1400.00
05000               0.00    -1400.00
