Unit:(mV)
                     CH1         CH2
Frequency              ? 298.952 kHz
00001             160.00    -1800.00
00002             660.00    -2200.00
00003             720.00    -2600.00
00004             -80.00    -2600.00
00005            -740.00    -3000.00
00006            -740.00    -3000.00
00007            -700.00    -2800.00
00008            -140.00    -3000.00
00009             400.00    -3800.00
00010            -160.00    -3600.00
00011              60.00    -4000.00
00012              80.00    -4400.00
00013            -180.00    -4200.00
00014             160.00    -4600.00
00015             -60.00    -4600.00
00016             -20.00    -5000.00
00017             140.00    -5200.00
00018            -140.00    -5200.00
00019            -180.00    -5800.00
00020            -140.00    -5400.00
00021              60.00    -5800.00
00022            -100.00    -6200.00
00023            -100.00    -6200.00
00024               0.00    -6600.00
00025            -120.00    -6600.00
00026             -60.00    -7000.00
00027             -20.00    -6800.00
00028             -60.00    -7000.00
00029             -80.00    -7600.00
00030             -80.00    -7200.00
00031             -60.00    -7600.00
00032            -100.00    -7800.00
00033            -100.00    -8000.00
00034             -40.00    -8200.00
00035             -60.00    -8400.00
00036            -120.00    -8600.00
00037             -60.00    -8600.00
00038             -60.00    -8600.00
00039            -100.00    -9000.00
00040            -100.00    -9000.00
00041            -100.00    -9200.00
00042            -120.00    -9400.00
00043            -100.00    -9600.00
00044             -60.00    -9400.00
00045             -80.00    -9800.00
00046            -100.00    -9800.00
00047            -100.00   -10000.00
00048            -100.00   -10000.00
00049            -140.00   -10200.00
00050            -100.00   -10200.00
00051             -80.00   -10200.00
00052            -100.00   -10600.00
00053            -100.00   -10600.00
00054             -80.00   -10600.00
00055            -100.00   -10800.00
00056            -100.00   -10800.00
00057             -80.00   -11000.00
00058             -80.00   -11000.00
00059            -100.00   -11000.00
00060            -100.00   -11000.00
00061            -100.00   -11200.00
00062            -100.00   -11400.00
00063            -100.00   -11200.00
00064             -80.00   -11400.00
00065             -80.00   -11400.00
00066            -100.00   -11400.00
00067            -100.00   -11600.00
00068            -100.00   -11400.00
00069             -80.00   -11600.00
00070             -80.00   -11600.00
00071             -80.00   -11600.00
00072            -100.00   -11600.00
00073            -100.00   -11600.00
00074            -100.00   -11600.00
00075             -80.00   -11600.00
00076            -100.00   -11600.00
00077             -80.00   -11600.00
00078             -80.00   -11600.00
00079             -80.00   -11600.00
00080             -80.00   -11400.00
00081            -100.00   -11600.00
00082             -80.00   -11600.00
00083             -80.00   -11400.00
00084             -60.00   -11400.00
00085             -80.00   -11600.00
00086             -80.00   -11400.00
00087             -80.00   -11400.00
00088             -60.00   -11200.00
00089             -60.00   -11200.00
00090             -60.00   -11400.00
00091             -80.00   -11000.00
00092             -60.00   -11000.00
00093             -60.00   -11000.00
00094             -80.00   -10800.00
00095             -60.00   -10800.00
00096             -60.00   -10600.00
00097             -60.00   -10600.00
00098             -40.00   -10600.00
00099             -60.00   -10600.00
00100             -60.00   -10200.00
00101             -60.00   -10200.00
00102             -60.00   -10200.00
00103             -20.00   -10000.00
00104             -40.00    -9800.00
00105             -40.00    -9800.00
00106             -20.00    -9800.00
00107             -60.00    -9600.00
00108             -60.00    -9400.00
00109             -60.00    -9400.00
00110             -60.00    -9200.00
00111             -20.00    -9200.00
00112             -20.00    -9000.00
00113             -60.00    -8800.00
00114             -60.00    -8600.00
00115             -20.00    -8600.00
00116             -20.00    -8400.00
00117             -20.00    -8200.00
00118             -20.00    -8000.00
00119             -20.00    -8000.00
00120             -20.00    -7600.00
00121             -20.00    -7600.00
00122             -20.00    -7200.00
00123             -20.00    -7400.00
00124             -20.00    -7000.00
00125             -20.00    -7000.00
00126             -20.00    -6800.00
00127             -20.00    -6600.00
00128             -20.00    -6400.00
00129               0.00    -6000.00
00130               0.00    -6000.00
00131               0.00    -6000.00
00132               0.00    -5600.00
00133               0.00    -5400.00
00134             -20.00    -5200.00
00135             -20.00    -5000.00
00136               0.00    -4800.00
00137               0.00    -4800.00
00138               0.00    -4400.00
00139               0.00    -4200.00
00140               0.00    -4200.00
00141               0.00    -3800.00
00142               0.00    -3600.00
00143              20.00    -3400.00
00144              20.00    -3200.00
00145               0.00    -3000.00
00146              20.00    -2800.00
00147              20.00    -2600.00
00148              20.00    -2400.00
00149              20.00    -2000.00
00150              40.00    -2000.00
00151              20.00    -1800.00
00152              20.00    -1600.00
00153              20.00    -1200.00
00154              20.00    -1200.00
00155              60.00     -800.00
00156              40.00     -600.00
00157              60.00     -400.00
00158              60.00     -200.00
00159              60.00     -200.00
00160              80.00      200.00
00161              80.00      600.00
00162             160.00      600.00
00163             180.00      600.00
00164             160.00     1000.00
00165             140.00     1200.00
00166             140.00     1400.00
00167             160.00     1600.00
00168             400.00     1800.00
00169            1040.00     2200.00
00170             780.00     2200.00
00171            -280.00     2600.00
00172            -900.00     2600.00
00173            -900.00     2800.00
00174            -340.00     3200.00
00175             780.00     3400.00
00176             180.00     3200.00
00177               0.00     3800.00
00178             320.00     3800.00
00179            -160.00     4200.00
00180             160.00     4800.00
00181             100.00     4000.00
00182              80.00     5000.00
00183             420.00     5000.00
00184            -100.00     4800.00
00185               0.00     5600.00
00186              80.00     5200.00
00187              80.00     6000.00
00188             160.00     5800.00
00189              60.00     6000.00
00190             180.00     6600.00
00191               0.00     6200.00
00192             100.00     6800.00
00193             160.00     6600.00
00194              60.00     7000.00
00195              80.00     7200.00
00196              80.00     7000.00
00197             140.00     7800.00
00198              40.00     7400.00
00199              80.00     7800.00
00200             100.00     8200.00
00201             160.00     8200.00
00202             100.00     8400.00
00203             100.00     8400.00
00204             100.00     8800.00
00205              60.00     8600.00
00206             140.00     9000.00
00207              80.00     9000.00
00208             120.00     9200.00
00209              60.00     9400.00
00210             100.00     9400.00
00211             100.00     9400.00
00212             120.00     9600.00
00213             140.00     9800.00
00214              80.00    10000.00
00215              80.00    10000.00
00216             100.00    10000.00
00217             140.00    10200.00
00218             120.00    10400.00
00219             100.00    10600.00
00220              80.00    10600.00
00221              80.00    10800.00
00222             100.00    10600.00
00223             140.00    10800.00
00224             100.00    11000.00
00225              80.00    10800.00
00226              80.00    11000.00
00227              80.00    11000.00
00228              80.00    11200.00
00229             100.00    11000.00
00230             120.00    11400.00
00231             140.00    11400.00
00232             100.00    11600.00
00233              80.00    11400.00
00234              80.00    11400.00
00235              80.00    11400.00
00236              80.00    11600.00
00237             100.00    11600.00
00238              80.00    11400.00
00239              80.00    11600.00
00240              80.00    11600.00
00241              80.00    11400.00
00242              80.00    11600.00
00243             100.00    11600.00
00244              80.00    11600.00
00245              80.00    11600.00
00246              80.00    12000.00
00247              80.00    11400.00
00248              60.00    11600.00
00249              60.00    11600.00
00250              80.00    11400.00
00251              80.00    11600.00
00252              60.00    11600.00
00253              60.00    11400.00
00254              60.00    11400.00
00255              60.00    11400.00
00256              80.00    11200.00
00257              80.00    11000.00
00258              80.00    11000.00
00259              60.00    11200.00
00260              60.00    10800.00
00261              60.00    10800.00
00262              60.00    10600.00
00263              80.00    10800.00
00264              60.00    10600.00
00265              60.00    10600.00
00266              60.00    10600.00
00267              60.00    10400.00
00268              40.00    10200.00
00269              60.00    10200.00
00270              60.00    10000.00
00271              60.00    10000.00
00272              60.00     9800.00
00273              60.00     9800.00
00274              60.00     9600.00
00275              60.00     9600.00
00276              60.00     9200.00
00277              60.00     9200.00
00278              60.00     9200.00
00279              20.00     9000.00
00280              20.00     9000.00
00281              20.00     8600.00
00282              40.00     8600.00
00283              40.00     8400.00
00284              40.00     8200.00
00285              20.00     8000.00
00286              20.00     8000.00
00287              20.00     7800.00
00288              20.00     7600.00
00289              20.00     7600.00
00290              20.00     7400.00
00291               0.00     7000.00
00292              20.00     6800.00
00293               0.00     6800.00
00294               0.00     6600.00
00295               0.00     6400.00
00296               0.00     6200.00
00297              20.00     6200.00
00298               0.00     5800.00
00299               0.00     5800.00
00300             -20.00     5400.00
00301             -20.00     5200.00
00302               0.00     5000.00
00303             -20.00     4800.00
00304               0.00     4600.00
00305               0.00     4400.00
00306             -20.00     4400.00
00307             -20.00     4200.00
00308             -20.00     3800.00
00309               0.00     3600.00
00310               0.00     3400.00
00311             -20.00     3400.00
00312             -60.00     3000.00
00313             -40.00     2800.00
00314             -20.00     2600.00
00315             -20.00     2200.00
00316             -20.00     2200.00
00317             -20.00     1800.00
00318             -20.00     1800.00
00319             -60.00     1600.00
00320             -60.00     1400.00
00321             -40.00     1200.00
00322             -60.00     1000.00
00323             -80.00      600.00
00324             -40.00      400.00
00325               0.00      400.00
00326             -20.00        0.00
00327             -20.00        0.00
00328               0.00     -400.00
00329              60.00     -600.00
00330              60.00     -600.00
00331              60.00    -1000.00
00332              20.00    -1000.00
00333              20.00    -1400.00
00334              20.00    -1400.00
00335              80.00    -1600.00
00336             380.00    -2000.00
00337             800.00    -2400.00
00338             360.00    -2600.00
00339            -480.00    -2800.00
00340            -780.00    -3000.00
00341            -720.00    -2800.00
00342            -500.00    -2800.00
00343             260.00    -3400.00
00344             140.00    -3800.00
00345            -140.00    -3400.00
00346             200.00    -4200.00
00347            -160.00    -4200.00
00348               0.00    -4400.00
00349             100.00    -4600.00
00350            -120.00    -4600.00
00351             140.00    -5400.00
00352               0.00    -5000.00
00353            -180.00    -5400.00
00354            -160.00    -5800.00
00355             -20.00    -5400.00
00356              20.00    -6200.00
00357            -160.00    -6000.00
00358             -20.00    -6400.00
00359            -100.00    -6600.00
00360            -100.00    -6800.00
00361               0.00    -7000.00
00362             -20.00    -6800.00
00363             -80.00    -7400.00
00364            -100.00    -7400.00
00365             -60.00    -7600.00
00366             -80.00    -7800.00
00367            -120.00    -7800.00
00368             -60.00    -8200.00
00369               0.00    -8200.00
00370            -100.00    -8600.00
00371            -100.00    -8600.00
00372             -60.00    -8600.00
00373            -100.00    -9000.00
00374            -100.00    -9200.00
00375             -80.00    -9000.00
00376            -100.00    -9200.00
00377            -140.00    -9400.00
00378             -80.00    -9400.00
00379             -60.00    -9800.00
00380            -100.00    -9800.00
00381            -100.00    -9800.00
00382             -80.00   -10000.00
00383            -100.00   -10000.00
00384            -120.00   -10200.00
00385             -80.00   -10400.00
00386             -80.00   -10600.00
00387            -100.00   -10600.00
00388            -100.00   -10600.00
00389             -80.00   -10800.00
00390            -100.00   -10600.00
00391             -80.00   -11000.00
00392             -60.00   -11000.00
00393             -80.00   -11000.00
00394            -120.00   -11000.00
00395            -100.00   -11000.00
00396            -100.00   -11200.00
00397            -100.00   -11400.00
00398             -80.00   -11200.00
00399             -60.00   -11400.00
00400            -100.00   -11400.00
00401            -100.00   -11400.00
00402             -80.00   -11400.00
00403            -100.00   -11400.00
00404            -100.00   -11600.00
00405             -80.00   -11400.00
00406             -80.00   -11600.00
00407            -100.00   -11600.00
00408            -100.00   -11600.00
00409            -100.00   -11600.00
00410             -80.00   -11600.00
00411            -100.00   -11600.00
00412             -80.00   -11600.00
00413             -80.00   -11600.00
00414            -100.00   -11600.00
00415            -100.00   -11600.00
00416             -80.00   -11400.00
00417             -80.00   -11600.00
00418             -60.00   -11400.00
00419             -60.00   -11400.00
00420             -80.00   -11400.00
00421             -80.00   -11400.00
00422             -80.00   -11200.00
00423             -60.00   -11400.00
00424             -60.00   -11200.00
00425             -60.00   -11200.00
00426             -80.00   -11000.00
00427             -60.00   -11000.00
00428             -80.00   -10800.00
00429             -80.00   -10800.00
00430             -60.00   -10800.00
00431             -60.00   -10600.00
00432             -20.00   -10800.00
00433             -60.00   -10600.00
00434             -60.00   -10600.00
00435             -60.00   -10200.00
00436             -60.00   -10600.00
00437             -60.00   -10000.00
00438             -20.00    -9800.00
00439             -60.00   -10000.00
00440             -60.00    -9800.00
00441             -80.00    -9600.00
00442             -60.00    -9400.00
00443             -60.00    -9400.00
00444             -20.00    -9200.00
00445             -20.00    -9200.00
00446             -20.00    -9000.00
00447             -60.00    -9000.00
00448             -60.00    -9000.00
00449             -20.00    -8600.00
00450             -20.00    -8400.00
00451             -20.00    -8400.00
00452             -20.00    -8200.00
00453             -20.00    -8200.00
00454             -20.00    -7800.00
00455             -60.00    -7600.00
00456               0.00    -7400.00
00457             -20.00    -7400.00
00458             -20.00    -7000.00
00459             -20.00    -7000.00
00460             -20.00    -6800.00
00461             -20.00    -6600.00
00462               0.00    -6600.00
00463               0.00    -6200.00
00464               0.00    -6200.00
00465             -20.00    -6000.00
00466             -20.00    -5600.00
00467             -20.00    -5600.00
00468               0.00    -5400.00
00469               0.00    -5000.00
00470               0.00    -5000.00
00471               0.00    -4600.00
00472              20.00    -4600.00
00473              20.00    -4400.00
00474              20.00    -4200.00
00475               0.00    -3800.00
00476               0.00    -3800.00
00477               0.00    -3600.00
00478              20.00    -3200.00
00479              20.00    -3000.00
00480              20.00    -2800.00
00481               0.00    -2600.00
00482               0.00    -2600.00
00483              20.00    -2200.00
00484              20.00    -2000.00
00485              20.00    -1800.00
00486              20.00    -1800.00
00487              20.00    -1400.00
00488              20.00    -1200.00
00489              20.00    -1000.00
00490              60.00     -800.00
00491              60.00     -600.00
00492              60.00     -400.00
00493              40.00     -200.00
00494              60.00      200.00
00495              80.00      400.00
00496             100.00      600.00
00497             180.00      800.00
00498             160.00     1000.00
00499             140.00     1000.00
00500             140.00     1200.00
00501             140.00     1400.00
00502             240.00     1800.00
00503             740.00     2000.00
00504            1060.00     2200.00
00505             260.00     2600.00
00506            -740.00     2600.00
00507            -940.00     2800.00
00508            -780.00     3000.00
00509             340.00     3600.00
00510             660.00     3400.00
00511            -120.00     3600.00
00512             300.00     3800.00
00513              80.00     3800.00
00514             -80.00     4600.00
00515             260.00     4400.00
00516             -20.00     4400.00
00517             340.00     5200.00
00518             180.00     4600.00
00519            -140.00     5400.00
00520             140.00     5600.00
00521              20.00     5600.00
00522             160.00     6200.00
00523              80.00     5600.00
00524             160.00     6600.00
00525             120.00     6200.00
00526               0.00     6600.00
00527             180.00     6800.00
00528              80.00     6800.00
00529             120.00     7400.00
00530              80.00     7000.00
00531             160.00     7600.00
00532             100.00     7600.00
00533              60.00     7800.00
00534             140.00     8200.00
00535             140.00     8000.00
00536             160.00     8200.00
00537              60.00     8200.00
00538             140.00     8600.00
00539              80.00     8600.00
00540             100.00     9000.00
00541             140.00     9200.00
00542             100.00     9000.00
00543              80.00     9200.00
00544              80.00     9400.00
00545             140.00     9800.00
00546             140.00     9800.00
00547             140.00     9800.00
00548              80.00     9800.00
00549              60.00    10000.00
00550              60.00    10200.00
00551             100.00    10200.00
00552             140.00    10200.00
00553             100.00    10400.00
00554              80.00    10600.00
00555              80.00    10600.00
00556             100.00    10800.00
00557             140.00    10800.00
00558             120.00    10800.00
00559              80.00    10800.00
00560             100.00    11000.00
00561              80.00    11000.00
00562              80.00    11000.00
00563              80.00    11400.00
00564              80.00    11200.00
00565             100.00    11200.00
00566              80.00    11400.00
00567             100.00    11400.00
00568             100.00    11600.00
00569              80.00    11400.00
00570              80.00    11600.00
00571             100.00    11400.00
00572              80.00    11400.00
00573              60.00    11600.00
00574              80.00    11600.00
00575              80.00    11600.00
00576              80.00    11600.00
00577              80.00    11600.00
00578              80.00    11600.00
00579              80.00    11600.00
00580              60.00    11600.00
00581              80.00    11400.00
00582              80.00    11600.00
00583              80.00    11400.00
00584              80.00    11400.00
00585              80.00    11600.00
00586              60.00    11400.00
00587              60.00    11600.00
00588              80.00    11400.00
00589              80.00    11400.00
00590              80.00    11400.00
00591              80.00    11200.00
00592              80.00    11400.00
00593              80.00    11000.00
00594              60.00    11000.00
00595              60.00    10800.00
00596              60.00    11000.00
00597              60.00    10600.00
00598              60.00    10800.00
00599              80.00    10600.00
00600              60.00    10600.00
00601              60.00    10400.00
00602              60.00    10200.00
00603              60.00    10400.00
00604              60.00    10200.00
00605              60.00    10000.00
00606              60.00    10000.00
00607              60.00     9800.00
00608              20.00     9800.00
00609              20.00     9600.00
00610              60.00     9400.00
00611              60.00     9400.00
00612              60.00     9200.00
00613              60.00     9000.00
00614              20.00     9000.00
00615              20.00     8600.00
00616              20.00     8600.00
00617              40.00     8400.00
00618              60.00     8400.00
00619              20.00     8200.00
00620              20.00     8000.00
00621              20.00     7800.00
00622               0.00     7800.00
00623               0.00     7600.00
00624              20.00     7400.00
00625              20.00     7200.00
00626              20.00     7000.00
00627              20.00     6800.00
00628               0.00     6600.00
00629               0.00     6400.00
00630               0.00     6200.00
00631               0.00     6200.00
00632               0.00     6000.00
00633               0.00     5800.00
00634             -20.00     5400.00
00635             -20.00     5600.00
00636             -20.00     5200.00
00637             -20.00     5000.00
00638             -20.00     4600.00
00639             -20.00     4600.00
00640             -20.00     4400.00
00641             -20.00     4200.00
00642             -20.00     3800.00
00643             -40.00     3800.00
00644             -20.00     3600.00
00645               0.00     3400.00
00646             -20.00     3200.00
00647             -40.00     3000.00
00648             -60.00     2800.00
00649             -20.00     2400.00
00650             -20.00     2200.00
00651             -20.00     2000.00
00652             -20.00     1800.00
00653             -60.00     1800.00
00654             -20.00     1400.00
00655             -40.00     1200.00
00656             -20.00     1000.00
00657             -60.00      800.00
00658             -20.00      600.00
00659             -40.00      400.00
00660             -40.00      200.00
00661             -40.00     -200.00
00662             -20.00     -200.00
00663              40.00     -600.00
00664              80.00     -600.00
00665              60.00     -800.00
00666              20.00    -1200.00
00667               0.00    -1200.00
00668              20.00    -1200.00
00669              20.00    -1800.00
00670             180.00    -1800.00
00671             660.00    -2200.00
00672             700.00    -2600.00
00673             -80.00    -2600.00
00674            -720.00    -2800.00
00675            -720.00    -3000.00
00676            -700.00    -2800.00
00677            -160.00    -3000.00
00678             380.00    -3800.00
00679            -160.00    -3600.00
00680              80.00    -3800.00
00681              80.00    -4600.00
00682            -180.00    -4200.00
00683             160.00    -4600.00
00684             -60.00    -4600.00
00685               0.00    -5200.00
00686             140.00    -5200.00
00687            -140.00    -5000.00
00688            -180.00    -5800.00
00689            -120.00    -5400.00
00690              60.00    -5800.00
00691            -100.00    -6200.00
00692            -100.00    -6200.00
00693             -20.00    -6800.00
00694            -140.00    -6600.00
00695             -60.00    -7000.00
00696             -20.00    -7000.00
00697             -60.00    -7000.00
00698             -80.00    -7600.00
00699             -80.00    -7400.00
00700             -60.00    -7800.00
00701            -100.00    -7800.00
00702            -100.00    -8000.00
00703             -60.00    -8200.00
00704             -80.00    -8400.00
00705            -140.00    -8600.00
00706             -80.00    -8600.00
00707             -60.00    -8800.00
00708            -100.00    -9000.00
00709             -80.00    -9000.00
00710             -80.00    -9000.00
00711            -120.00    -9400.00
00712            -140.00    -9400.00
00713             -60.00    -9400.00
00714             -80.00    -9800.00
00715            -100.00   -10000.00
00716             -80.00   -10000.00
00717            -100.00   -10000.00
00718            -140.00   -10200.00
00719             -80.00   -10200.00
00720             -60.00   -10400.00
00721            -100.00   -10600.00
00722            -100.00   -10600.00
00723            -100.00   -10600.00
00724            -100.00   -10600.00
00725            -100.00   -10800.00
00726             -60.00   -11000.00
00727             -80.00   -11000.00
00728            -100.00   -11200.00
00729            -100.00   -11200.00
00730            -100.00   -11200.00
00731            -100.00   -11200.00
00732            -100.00   -11200.00
00733             -80.00   -11400.00
00734             -60.00   -11400.00
00735            -100.00   -11400.00
00736            -100.00   -11400.00
00737             -80.00   -11400.00
00738            -100.00   -11400.00
00739            -100.00   -11400.00
00740             -80.00   -11600.00
00741             -80.00   -11600.00
00742            -100.00   -11600.00
00743            -100.00   -11600.00
00744            -100.00   -11600.00
00745            -100.00   -11400.00
00746             -80.00   -11600.00
00747             -60.00   -11400.00
00748             -80.00   -11600.00
00749            -100.00   -11600.00
00750             -80.00   -11400.00
00751             -80.00   -11400.00
00752             -60.00   -11600.00
00753             -60.00   -11400.00
00754             -60.00   -11600.00
00755             -80.00   -11400.00
00756             -60.00   -11200.00
00757             -80.00   -11200.00
00758             -80.00   -11200.00
00759             -80.00   -11200.00
00760             -60.00   -11000.00
00761             -60.00   -11000.00
00762             -80.00   -11000.00
00763             -80.00   -10800.00
00764             -80.00   -10800.00
00765             -60.00   -10800.00
00766             -60.00   -10800.00
00767             -60.00   -10600.00
00768             -60.00   -10600.00
00769             -80.00   -10200.00
00770             -80.00   -10400.00
00771             -60.00   -10200.00
00772             -60.00   -10200.00
00773             -40.00   -10000.00
00774             -60.00    -9800.00
00775             -80.00    -9800.00
00776             -60.00    -9600.00
00777             -60.00    -9400.00
00778             -40.00    -9400.00
00779             -40.00    -9200.00
00780             -20.00    -9000.00
00781             -60.00    -9000.00
00782             -60.00    -9000.00
00783             -40.00    -8600.00
00784             -60.00    -8600.00
00785             -20.00    -8400.00
00786             -20.00    -8400.00
00787             -20.00    -8000.00
00788             -40.00    -7800.00
00789             -20.00    -7600.00
00790             -20.00    -7600.00
00791             -20.00    -7200.00
00792             -20.00    -7200.00
00793             -20.00    -7000.00
00794               0.00    -6800.00
00795             -20.00    -6800.00
00796             -20.00    -6600.00
00797             -20.00    -6400.00
00798               0.00    -6200.00
00799               0.00    -6000.00
00800             -20.00    -5800.00
00801               0.00    -5800.00
00802               0.00    -5400.00
00803               0.00    -5200.00
00804               0.00    -5000.00
00805               0.00    -5000.00
00806               0.00    -4600.00
00807               0.00    -4400.00
00808               0.00    -4400.00
00809               0.00    -4000.00
00810               0.00    -3800.00
00811              20.00    -3600.00
00812              20.00    -3400.00
00813               0.00    -3200.00
00814               0.00    -3000.00
00815               0.00    -2800.00
00816              20.00    -2600.00
00817              20.00    -2400.00
00818              20.00    -2200.00
00819              20.00    -2000.00
00820              20.00    -1800.00
00821              40.00    -1800.00
00822              20.00    -1200.00
00823              20.00     -800.00
00824              20.00    -1000.00
00825              20.00     -600.00
00826              20.00     -400.00
00827              60.00     -200.00
00828              60.00        0.00
00829              60.00      200.00
00830              80.00      400.00
00831             160.00      400.00
00832             180.00      800.00
00833             160.00     1000.00
00834             140.00     1200.00
00835             140.00     1400.00
00836             140.00     1600.00
00837             400.00     1800.00
00838            1020.00     2200.00
00839             780.00     2400.00
00840            -320.00     2600.00
00841            -900.00     2600.00
00842            -920.00     2800.00
00843            -320.00     3400.00
00844             780.00     3400.00
00845             160.00     3200.00
00846               0.00     4000.00
00847             320.00     3600.00
00848            -160.00     4200.00
00849             160.00     4800.00
00850             100.00     4200.00
00851             100.00     5000.00
00852             420.00     5000.00
00853            -100.00     5000.00
00854              20.00     5800.00
00855              80.00     5200.00
00856              60.00     6000.00
00857             160.00     5800.00
00858              60.00     6000.00
00859             200.00     6600.00
00860             -20.00     6200.00
00861             120.00     7000.00
00862             160.00     6600.00
00863              80.00     7000.00
00864             100.00     7200.00
00865             100.00     7200.00
00866             140.00     7600.00
00867              20.00     7600.00
00868             100.00     8000.00
00869             140.00     8000.00
00870             160.00     8200.00
00871             100.00     8400.00
00872              80.00     8400.00
00873             120.00     8600.00
00874              80.00     8600.00
00875             160.00     9000.00
00876             100.00     9000.00
00877             100.00     9200.00
00878              60.00     9400.00
00879             100.00     9600.00
00880             100.00     9800.00
00881             140.00     9800.00
00882             140.00     9800.00
00883              80.00    10000.00
00884              80.00    10000.00
00885              80.00    10200.00
00886             120.00    10200.00
00887             100.00    10400.00
00888              80.00    10400.00
00889              80.00    10400.00
00890              80.00    10800.00
00891             100.00    10600.00
00892             140.00    10800.00
00893             100.00    10800.00
00894             100.00    11000.00
00895              60.00    11000.00
00896             100.00    11000.00
00897              80.00    11200.00
00898             100.00    11200.00
00899             100.00    11200.00
00900             100.00    11400.00
00901             100.00    11200.00
00902              60.00    11400.00
00903              80.00    11600.00
00904              80.00    11400.00
00905             100.00    11600.00
00906             100.00    11600.00
00907              80.00    11400.00
00908              80.00    11600.00
00909              80.00    11600.00
00910              80.00    12000.00
00911              80.00    11600.00
00912              80.00    11600.00
00913              80.00    11600.00
00914              80.00    11600.00
00915              80.00    11600.00
00916              80.00    11600.00
00917              80.00    11600.00
00918              80.00    11600.00
00919             100.00    11400.00
00920              80.00    11400.00
00921              80.00    11400.00
00922              60.00    11400.00
00923              80.00    11400.00
00924              60.00    11400.00
00925              80.00    11400.00
00926              80.00    11200.00
00927              60.00    11000.00
00928              80.00    11000.00
00929              80.00    11000.00
00930              60.00    10800.00
00931              60.00    10800.00
00932              80.00    10800.00
00933              80.00    10800.00
00934              60.00    10600.00
00935              60.00    10400.00
00936              60.00    10400.00
00937              60.00    10200.00
00938              60.00    10200.00
00939              60.00    10200.00
00940              60.00    10200.00
00941              60.00     9800.00
00942              40.00     9800.00
00943              20.00     9800.00
00944              60.00     9400.00
00945              40.00     9400.00
00946              60.00     9200.00
00947              60.00     9200.00
00948              60.00     9000.00
00949              20.00     9000.00
00950               0.00     8600.00
00951              20.00     8400.00
00952              20.00     8200.00
00953              20.00     8200.00
00954               0.00     8000.00
00955              20.00     8000.00
00956               0.00     7800.00
00957               0.00     7600.00
00958               0.00     7600.00
00959              20.00     7200.00
00960               0.00     7000.00
00961               0.00     6800.00
00962               0.00     6800.00
00963               0.00     6600.00
00964               0.00     6400.00
00965               0.00     6200.00
00966               0.00     6000.00
00967               0.00     5800.00
00968               0.00     5800.00
00969             -20.00     5400.00
00970               0.00     5200.00
00971             -20.00     5000.00
00972               0.00     5000.00
00973               0.00     4600.00
00974             -20.00     4400.00
00975             -20.00     4200.00
00976             -20.00     4200.00
00977             -20.00     4000.00
00978             -20.00     3600.00
00979             -20.00     3400.00
00980             -20.00     3400.00
00981             -20.00     3000.00
00982             -20.00     2800.00
00983             -20.00     2800.00
00984             -20.00     2200.00
00985             -20.00     2200.00
00986             -20.00     2000.00
00987             -20.00     1600.00
00988             -20.00     1600.00
00989             -60.00     1200.00
00990             -20.00     1000.00
00991             -20.00     1000.00
00992             -20.00      600.00
00993             -60.00      600.00
00994             -20.00      400.00
00995             -60.00        0.00
00996             -20.00     -200.00
00997               0.00     -200.00
00998              60.00     -600.00
00999              80.00     -600.00
01000              60.00    -1000.00
01001              20.00    -1200.00
01002               0.00    -1400.00
01003              20.00    -1400.00
01004              80.00    -1600.00
01005             400.00    -1800.00
01006             820.00    -2200.00
01007             340.00    -2600.00
01008            -480.00    -2800.00
01009            -760.00    -3000.00
01010            -720.00    -3000.00
01011            -500.00    -2800.00
01012             280.00    -3600.00
01013             140.00    -3800.00
01014            -140.00    -3600.00
01015             180.00    -4400.00
01016            -140.00    -4000.00
01017              20.00    -4200.00
01018             100.00    -4800.00
01019            -100.00    -4600.00
01020             140.00    -5400.00
01021               0.00    -5000.00
01022            -160.00    -5600.00
01023            -160.00    -5800.00
01024             -20.00    -5400.00
01025               0.00    -6200.00
01026            -160.00    -6200.00
01027             -20.00    -6400.00
01028             -80.00    -6600.00
01029            -100.00    -6800.00
01030             -20.00    -7000.00
01031             -60.00    -6800.00
01032             -80.00    -7200.00
01033            -100.00    -7400.00
01034             -60.00    -7600.00
01035             -80.00    -8200.00
01036            -160.00    -7800.00
01037             -60.00    -8200.00
01038             -20.00    -8200.00
01039            -100.00    -8400.00
01040            -100.00    -8600.00
01041             -40.00    -8600.00
01042             -80.00    -9000.00
01043             -80.00    -9200.00
01044             -80.00    -9200.00
01045            -100.00    -9200.00
01046            -140.00    -9400.00
01047             -80.00    -9400.00
01048             -80.00    -9800.00
01049            -100.00    -9800.00
01050            -100.00    -9800.00
01051             -80.00   -10000.00
01052            -100.00   -10000.00
01053            -100.00   -10200.00
01054             -80.00   -10200.00
01055             -80.00   -10400.00
01056            -100.00   -10600.00
01057            -100.00   -10600.00
01058            -100.00   -10800.00
01059            -100.00   -10800.00
01060             -80.00   -10800.00
01061             -60.00   -10800.00
01062            -100.00   -11000.00
01063            -100.00   -11000.00
01064            -100.00   -11000.00
01065            -100.00   -11200.00
01066            -100.00   -11400.00
01067             -60.00   -11200.00
01068             -60.00   -11400.00
01069            -100.00   -11400.00
01070            -100.00   -11400.00
01071            -100.00   -11400.00
01072            -100.00   -11400.00
01073             -80.00   -11600.00
01074             -80.00   -11600.00
01075             -80.00   -11600.00
01076            -100.00   -11600.00
01077             -60.00   -11600.00
01078             -80.00   -11600.00
01079            -120.00   -11600.00
01080             -80.00   -11400.00
01081            -100.00   -11600.00
01082            -100.00   -11600.00
01083            -160.00   -11600.00
01084             -40.00   -11400.00
01085               0.00   -11400.00
01086               0.00   -11400.00
01087               0.00   -11600.00
01088             -80.00   -11400.00
01089            -140.00   -11400.00
01090            -200.00   -11400.00
01091            -140.00   -11400.00
01092            -100.00   -11400.00
01093             -20.00   -11200.00
01094               0.00   -11000.00
01095               0.00   -11000.00
01096             -60.00   -11000.00
01097             -60.00   -11000.00
01098             -80.00   -10800.00
01099            -100.00   -10800.00
01100            -100.00   -10600.00
01101             -80.00   -10600.00
01102             -80.00   -10600.00
01103             -80.00   -10600.00
01104             -60.00   -10400.00
01105             -40.00   -10200.00
01106             -40.00   -10200.00
01107             -20.00   -10000.00
01108             -20.00   -10000.00
01109             -80.00    -9800.00
01110             -80.00    -9800.00
01111             -80.00    -9400.00
01112             -80.00    -9400.00
01113             -60.00    -9200.00
01114             -20.00    -9000.00
01115               0.00    -9000.00
01116             -20.00    -9000.00
01117             -20.00    -8600.00
01118             -20.00    -8600.00
01119             -20.00    -8400.00
01120             -60.00    -8400.00
01121             -60.00    -8200.00
01122             -40.00    -8200.00
01123             -20.00    -7800.00
01124               0.00    -7600.00
01125               0.00    -7200.00
01126               0.00    -7400.00
01127               0.00    -7200.00
01128               0.00    -7000.00
01129             -20.00    -6800.00
01130             -20.00    -6600.00
01131               0.00    -6600.00
01132               0.00    -6200.00
01133               0.00    -6200.00
01134               0.00    -5800.00
01135               0.00    -5800.00
01136             -20.00    -5400.00
01137             -20.00    -5400.00
01138               0.00    -5200.00
01139               0.00    -5000.00
01140               0.00    -4800.00
01141               0.00    -4600.00
01142               0.00    -4400.00
01143               0.00    -4200.00
01144               0.00    -3800.00
01145               0.00    -3800.00
01146              20.00    -3400.00
01147               0.00    -3200.00
01148              20.00    -3000.00
01149              20.00    -2800.00
01150               0.00    -2600.00
01151              20.00    -2600.00
01152               0.00    -2200.00
01153              20.00    -2200.00
01154               0.00    -2000.00
01155              20.00    -1600.00
01156              20.00    -1400.00
01157              20.00    -1200.00
01158              20.00     -800.00
01159              60.00     -600.00
01160              60.00     -600.00
01161              40.00     -400.00
01162              40.00     -200.00
01163              40.00      200.00
01164              60.00      400.00
01165             100.00      400.00
01166             160.00      600.00
01167             180.00     1000.00
01168             140.00     1000.00
01169             140.00     1200.00
01170             140.00     1400.00
01171             220.00     1600.00
01172             720.00     2200.00
01173            1060.00     2200.00
01174             240.00     2600.00
01175            -740.00     2600.00
01176            -940.00     2600.00
01177            -760.00     3000.00
01178             380.00     3600.00
01179             640.00     3200.00
01180            -100.00     3400.00
01181             300.00     4000.00
01182              60.00     3600.00
01183             -80.00     5000.00
01184             260.00     4400.00
01185             -20.00     4400.00
01186             380.00     5200.00
01187             180.00     4600.00
01188            -140.00     5400.00
01189             140.00     5400.00
01190              20.00     5600.00
01191             160.00     6200.00
01192              80.00     5800.00
01193             140.00     6600.00
01194             120.00     6400.00
01195               0.00     6600.00
01196             220.00     7000.00
01197             100.00     6600.00
01198             100.00     7400.00
01199              80.00     7000.00
01200             140.00     7400.00
01201              80.00     7600.00
01202              60.00     7600.00
01203             120.00     8000.00
01204             140.00     7800.00
01205             160.00     8200.00
01206              80.00     8200.00
01207             140.00     8600.00
01208              80.00     8600.00
01209             100.00     9000.00
01210             140.00     9200.00
01211             100.00     9200.00
01212              80.00     9400.00
01213              80.00     9400.00
01214             140.00     9600.00
01215             100.00     9400.00
01216             140.00     9800.00
01217             100.00     9800.00
01218              80.00    10000.00
01219              60.00    10000.00
01220             120.00    10200.00
01221             140.00    10200.00
01222              80.00    10400.00
01223              80.00    10400.00
01224              60.00    10600.00
01225              80.00    10600.00
01226             140.00    10800.00
01227             140.00    10800.00
01228             100.00    10800.00
01229              80.00    11000.00
01230              80.00    11000.00
01231              80.00    11000.00
01232             100.00    11400.00
01233             100.00    11200.00
01234             100.00    11400.00
01235             100.00    11400.00
01236              80.00    11400.00
01237              80.00    11600.00
01238              80.00    11600.00
01239              80.00    11600.00
01240             120.00    11400.00
01241              80.00    11600.00
01242              80.00    11600.00
01243              80.00    11600.00
01244              80.00    11600.00
01245              80.00    11600.00
01246             100.00    11600.00
01247             100.00    11600.00
01248              80.00    11600.00
01249              80.00    11600.00
01250              80.00    11600.00
01251              80.00    11600.00
01252              60.00    11600.00
01253              80.00    11600.00
01254             100.00    11600.00
01255              80.00    11400.00
01256              80.00    11400.00
01257              80.00    11400.00
01258              80.00    11200.00
01259              80.00    11400.00
01260              80.00    11400.00
01261              80.00    11200.00
01262              80.00    11200.00
01263              60.00    11000.00
01264              60.00    11000.00
01265              60.00    10800.00
01266              60.00    10800.00
01267              80.00    10800.00
01268              80.00    10600.00
01269              60.00    10600.00
01270              60.00    10600.00
01271              40.00    10400.00
01272              60.00    10200.00
01273              60.00    10200.00
01274              60.00    10200.00
01275              40.00    10000.00
01276              40.00     9800.00
01277              60.00     9800.00
01278              40.00     9400.00
01279              60.00     9400.00
01280              40.00     9400.00
01281              40.00     9200.00
01282              40.00     9200.00
01283              20.00     8800.00
01284              20.00     8600.00
01285               0.00     8600.00
01286              20.00     8400.00
01287              60.00     8200.00
01288               0.00     8200.00
01289               0.00     8200.00
01290              20.00     7800.00
01291               0.00     7800.00
01292               0.00     7600.00
01293              20.00     7400.00
01294               0.00     7200.00
01295               0.00     7000.00
01296               0.00     6800.00
01297               0.00     6800.00
01298             -20.00     6600.00
01299               0.00     6200.00
01300               0.00     6200.00
01301               0.00     6000.00
01302               0.00     5800.00
01303               0.00     5600.00
01304             -20.00     5200.00
01305             -20.00     5200.00
01306               0.00     5000.00
01307               0.00     4800.00
01308             -20.00     4600.00
01309               0.00     4200.00
01310             -20.00     4200.00
01311             -20.00     4000.00
01312               0.00     3800.00
01313             -20.00     3600.00
01314             -20.00     3400.00
01315             -20.00     3000.00
01316             -20.00     3000.00
01317             -20.00     2800.00
01318             -20.00     2600.00
01319             -20.00     2200.00
01320             -20.00     2200.00
01321             -20.00     2000.00
01322             -20.00     1800.00
01323             -20.00     1400.00
01324             -20.00     1200.00
01325             -60.00     1000.00
01326             -20.00      800.00
01327             -60.00      600.00
01328             -20.00      400.00
01329             -20.00      200.00
01330             -60.00        0.00
01331             -20.00     -200.00
01332              20.00     -400.00
01333              80.00     -600.00
01334              80.00     -600.00
01335              20.00    -1000.00
01336               0.00    -1200.00
01337               0.00    -1200.00
01338              40.00    -1600.00
01339             180.00    -1800.00
01340             660.00    -2000.00
01341             700.00    -2600.00
01342            -100.00    -2800.00
01343            -720.00    -3000.00
01344            -720.00    -3000.00
01345            -700.00    -3000.00
01346            -140.00    -3000.00
01347             380.00    -3800.00
01348            -160.00    -3600.00
01349              60.00    -4000.00
01350              80.00    -4400.00
01351            -180.00    -4200.00
01352             140.00    -4600.00
01353             -60.00    -4800.00
01354               0.00    -5000.00
01355             140.00    -5200.00
01356            -140.00    -5000.00
01357            -220.00    -5800.00
01358            -140.00    -5600.00
01359              40.00    -6000.00
01360            -100.00    -6200.00
01361            -100.00    -6200.00
01362             -20.00    -6600.00
01363            -140.00    -6400.00
01364             -40.00    -7000.00
01365             -40.00    -7000.00
01366             -60.00    -7000.00
01367            -100.00    -7600.00
01368             -80.00    -7400.00
01369             -60.00    -7600.00
01370            -100.00    -7800.00
01371            -100.00    -8000.00
01372             -20.00    -8200.00
01373             -60.00    -8400.00
01374            -120.00    -8600.00
01375             -80.00    -8400.00
01376             -60.00    -8800.00
01377            -100.00    -8800.00
01378            -100.00    -9000.00
01379             -80.00    -9200.00
01380            -120.00    -9200.00
01381            -120.00    -9800.00
01382             -60.00    -9400.00
01383             -80.00    -9800.00
01384            -100.00   -10000.00
01385             -80.00   -10000.00
01386             -80.00   -10000.00
01387            -100.00   -10200.00
01388             -80.00   -10200.00
01389             -60.00   -10600.00
01390            -100.00   -10600.00
01391            -120.00   -10600.00
01392             -80.00   -10600.00
01393            -100.00   -10800.00
01394            -100.00   -10800.00
01395             -60.00   -10800.00
01396             -80.00   -11000.00
01397            -100.00   -11000.00
01398            -100.00   -11000.00
01399             -80.00   -11000.00
01400            -100.00   -11200.00
01401            -100.00   -11200.00
01402             -80.00   -11400.00
01403             -80.00   -11400.00
01404            -100.00   -11400.00
01405            -100.00   -11400.00
01406             -80.00   -11400.00
01407             -80.00   -11400.00
01408             -80.00   -11600.00
01409             -60.00   -11400.00
01410             -80.00   -11600.00
01411            -100.00   -11600.00
01412            -100.00   -11600.00
01413            -100.00   -11800.00
01414            -100.00   -11600.00
01415             -80.00   -11600.00
01416             -80.00   -11600.00
01417             -80.00   -11600.00
01418            -100.00   -11600.00
01419             -80.00   -11400.00
01420             -80.00   -11400.00
01421             -80.00   -11600.00
01422             -80.00   -11400.00
01423             -80.00   -11200.00
01424            -100.00   -11400.00
01425             -80.00   -11200.00
01426             -80.00   -11200.00
01427             -80.00   -11200.00
01428             -80.00   -11000.00
01429             -60.00   -11000.00
01430             -80.00   -11000.00
01431             -80.00   -11000.00
01432             -60.00   -11000.00
01433             -80.00   -10800.00
01434             -60.00   -10800.00
01435             -60.00   -10600.00
01436             -60.00   -10600.00
01437             -80.00   -10600.00
01438             -60.00   -10400.00
01439             -60.00   -10200.00
01440             -60.00   -10000.00
01441             -60.00   -10000.00
01442             -60.00   -10000.00
01443             -20.00    -9800.00
01444             -60.00    -9800.00
01445             -60.00    -9400.00
01446             -60.00    -9400.00
01447             -60.00    -9400.00
01448             -20.00    -9200.00
01449             -20.00    -9000.00
01450             -20.00    -9000.00
01451             -20.00    -8800.00
01452             -60.00    -8600.00
01453             -20.00    -8600.00
01454             -20.00    -8400.00
01455             -20.00    -8200.00
01456             -20.00    -8200.00
01457             -40.00    -7800.00
01458             -20.00    -7800.00
01459             -20.00    -7600.00
01460             -20.00    -7400.00
01461             -20.00    -7200.00
01462             -20.00    -7000.00
01463             -20.00    -6800.00
01464             -20.00    -6800.00
01465             -20.00    -6600.00
01466               0.00    -6400.00
01467               0.00    -6200.00
01468               0.00    -6000.00
01469               0.00    -5800.00
01470             -20.00    -5600.00
01471               0.00    -5400.00
01472               0.00    -5200.00
01473               0.00    -5000.00
01474               0.00    -4800.00
01475               0.00    -4600.00
01476               0.00    -4600.00
01477               0.00    -4400.00
01478               0.00    -4200.00
01479               0.00    -3800.00
01480               0.00    -3600.00
01481               0.00    -3600.00
01482               0.00    -3200.00
01483              20.00    -3000.00
01484              20.00    -2600.00
01485              20.00    -2600.00
01486              20.00    -2400.00
01487               0.00    -2200.00
01488              20.00    -1800.00
01489              20.00    -1800.00
01490              20.00    -1400.00
01491              20.00    -1200.00
01492              20.00    -1000.00
01493              20.00     -600.00
01494              20.00     -600.00
01495              20.00     -600.00
01496              60.00     -200.00
01497              40.00        0.00
01498              60.00      200.00
01499              60.00      400.00
01500             160.00      600.00
01501             180.00      600.00
01502             160.00     1000.00
01503             140.00     1200.00
01504             140.00     1400.00
01505             160.00     1600.00
01506             420.00     1800.00
01507            1040.00     2200.00
01508             760.00     2200.00
01509            -320.00     2600.00
01510            -900.00     2600.00
01511            -940.00     2800.00
01512            -300.00     3400.00
01513             800.00     3400.00
01514             160.00     3400.00
01515              20.00     4000.00
01516             320.00     3600.00
01517            -160.00     4200.00
01518             180.00     4600.00
01519             120.00     4200.00
01520             100.00     5000.00
01521             420.00     4800.00
01522            -100.00     5000.00
01523              20.00     5800.00
01524              80.00     5200.00
01525              80.00     6000.00
01526             160.00     5800.00
01527              60.00     6000.00
01528             220.00     6600.00
01529               0.00     6000.00
01530             140.00     6800.00
01531             160.00     6800.00
01532              80.00     7000.00
01533              80.00     7000.00
01534              80.00     7000.00
01535             160.00     7600.00
01536              20.00     7600.00
01537              80.00     7800.00
01538             140.00     8000.00
01539             160.00     8200.00
01540              80.00     8400.00
01541             100.00     8400.00
01542             100.00     8600.00
01543              60.00     8600.00
01544             140.00     9000.00
01545             100.00     9000.00
01546              80.00     9200.00
01547              60.00     9400.00
01548             100.00     9400.00
01549             100.00     9800.00
01550             140.00     9600.00
01551             140.00     9800.00
01552              80.00    10000.00
01553              60.00    10000.00
01554             100.00    10000.00
01555             140.00    10200.00
01556             100.00    10400.00
01557              80.00    10600.00
01558              80.00    10600.00
01559              80.00    10600.00
01560             100.00    10600.00
01561             140.00    10800.00
01562             100.00    11000.00
01563              80.00    11000.00
01564              80.00    11000.00
01565              80.00    11000.00
01566              80.00    11000.00
01567              80.00    11200.00
01568             100.00    11400.00
01569             100.00    11400.00
01570             100.00    11400.00
01571              80.00    11400.00
01572              80.00    11400.00
01573              80.00    11600.00
01574             100.00    11600.00
01575             140.00    11600.00
01576              80.00    11600.00
01577              80.00    11600.00
01578              80.00    11600.00
01579             100.00    11600.00
01580              80.00    11600.00
01581              80.00    11600.00
01582             100.00    11400.00
01583             100.00    11600.00
01584              60.00    11600.00
01585              80.00    11600.00
01586              80.00    11600.00
01587              80.00    11600.00
01588              80.00    11400.00
01589              80.00    11600.00
01590              80.00    11600.00
01591              60.00    11600.00
01592              60.00    11400.00
01593              80.00    11400.00
01594             100.00    11400.00
01595              80.00    11200.00
01596              80.00    11200.00
01597              60.00    11000.00
01598              60.00    11000.00
01599              60.00    11000.00
01600              80.00    10800.00
01601              60.00    10800.00
01602              80.00    10600.00
01603              60.00    10600.00
01604              60.00    10600.00
01605              60.00    10400.00
01606              60.00    10200.00
01607              60.00    10200.00
01608              60.00    10000.00
01609              60.00    10000.00
01610              20.00    10000.00
01611              20.00     9800.00
01612              20.00     9800.00
01613              20.00     9600.00
01614              60.00     9400.00
01615              60.00     9200.00
01616              40.00     9000.00
01617              20.00     9000.00
01618              20.00     8600.00
01619               0.00     8600.00
01620              20.00     8600.00
01621              40.00     8400.00
01622              20.00     8200.00
01623              20.00     8200.00
01624               0.00     8000.00
01625               0.00     7800.00
01626               0.00     7800.00
01627              20.00     7400.00
01628               0.00     7400.00
01629               0.00     7000.00
01630               0.00     7000.00
01631               0.00     6800.00
01632               0.00     6600.00
01633               0.00     6200.00
01634              20.00     6200.00
01635               0.00     6000.00
01636               0.00     6000.00
01637               0.00     5600.00
01638               0.00     5400.00
01639               0.00     5400.00
01640               0.00     5000.00
01641               0.00     4800.00
01642               0.00     4600.00
01643             -20.00     4400.00
01644             -20.00     4200.00
01645             -20.00     4000.00
01646             -20.00     4000.00
01647               0.00     3600.00
01648               0.00     3400.00
01649             -20.00     3400.00
01650             -20.00     3000.00
01651             -20.00     3000.00
01652             -20.00     2600.00
01653             -20.00     2400.00
01654             -20.00     2200.00
01655             -20.00     2000.00
01656             -20.00     1800.00
01657             -20.00     1600.00
01658             -20.00     1400.00
01659             -40.00     1200.00
01660             -20.00     1000.00
01661             -20.00      800.00
01662             -20.00      600.00
01663             -20.00      400.00
01664             -20.00      200.00
01665             -60.00     -200.00
01666               0.00     -400.00
01667              80.00     -600.00
01668              80.00     -600.00
01669              60.00    -1000.00
01670               0.00    -1200.00
01671              20.00    -1200.00
01672              20.00    -1400.00
01673              60.00    -1600.00
01674             400.00    -2000.00
01675             820.00    -2400.00
01676             340.00    -2800.00
01677            -500.00    -2800.00
01678            -780.00    -3000.00
01679            -720.00    -3000.00
01680            -520.00    -3000.00
01681             300.00    -3600.00
01682             100.00    -3800.00
01683            -140.00    -3600.00
01684             180.00    -4400.00
01685            -140.00    -4200.00
01686               0.00    -4400.00
01687              80.00    -5000.00
01688            -100.00    -4600.00
01689             140.00    -5400.00
01690             -20.00    -5000.00
01691            -180.00    -5400.00
01692            -180.00    -5800.00
01693             -60.00    -5400.00
01694               0.00    -6200.00
01695            -160.00    -6000.00
01696             -20.00    -6600.00
01697            -100.00    -6600.00
01698            -100.00    -6800.00
01699             -20.00    -7000.00
01700             -60.00    -6800.00
01701             -80.00    -7400.00
01702            -100.00    -7400.00
01703             -60.00    -7600.00
01704             -80.00    -7600.00
01705            -140.00    -8000.00
01706             -80.00    -8200.00
01707             -20.00    -8200.00
01708            -100.00    -8400.00
01709            -100.00    -8600.00
01710             -60.00    -8600.00
01711             -80.00    -8800.00
01712             -80.00    -9000.00
01713             -80.00    -9000.00
01714            -100.00    -9200.00
01715            -100.00    -9400.00
01716             -80.00    -9400.00
01717             -40.00    -9800.00
01718            -100.00    -9800.00
01719            -100.00    -9800.00
01720             -80.00   -10000.00
01721            -100.00   -10200.00
01722            -100.00   -10200.00
01723             -80.00   -10200.00
01724             -80.00   -10400.00
01725            -100.00   -10600.00
01726            -100.00   -10600.00
01727            -100.00   -10600.00
01728            -100.00   -10800.00
01729             -80.00   -10800.00
01730             -60.00   -11000.00
01731            -100.00   -11000.00
01732            -100.00   -11000.00
01733            -100.00   -11000.00
01734            -100.00   -11200.00
01735            -100.00   -11200.00
01736            -100.00   -11400.00
01737             -60.00   -11400.00
01738            -100.00   -11400.00
01739            -100.00   -11400.00
01740             -80.00   -11400.00
01741            -100.00   -11400.00
01742            -100.00   -11600.00
01743             -80.00   -11400.00
01744            -100.00   -11600.00
01745            -100.00   -11600.00
01746            -100.00   -11600.00
01747            -100.00   -11600.00
01748            -100.00   -11600.00
01749             -80.00   -11600.00
01750             -80.00   -11400.00
01751             -80.00   -11600.00
01752             -80.00   -11800.00
01753             -80.00   -11400.00
01754             -80.00   -11400.00
01755             -80.00   -11400.00
01756             -80.00   -11400.00
01757             -60.00   -11400.00
01758             -80.00   -11400.00
01759             -80.00   -11400.00
01760             -80.00   -11400.00
01761             -80.00   -11200.00
01762             -80.00   -11200.00
01763             -60.00   -11000.00
01764             -60.00   -11200.00
01765             -80.00   -11000.00
01766             -80.00   -11000.00
01767             -60.00   -10800.00
01768             -80.00   -10800.00
01769             -60.00   -10800.00
01770             -40.00   -10800.00
01771             -60.00   -10600.00
01772             -60.00   -10400.00
01773             -80.00   -10600.00
01774             -60.00   -10400.00
01775             -20.00   -10200.00
01776             -20.00   -10000.00
01777             -40.00   -10000.00
01778             -40.00    -9800.00
01779             -60.00    -9800.00
01780             -40.00    -9400.00
01781             -60.00    -9400.00
01782             -20.00    -9200.00
01783             -20.00    -9200.00
01784             -20.00    -9000.00
01785             -20.00    -8800.00
01786             -40.00    -8600.00
01787             -40.00    -8600.00
01788             -20.00    -8400.00
01789             -20.00    -8400.00
01790             -20.00    -8200.00
01791               0.00    -7800.00
01792             -20.00    -7800.00
01793             -20.00    -7600.00
01794             -20.00    -7600.00
01795             -20.00    -7400.00
01796               0.00    -7000.00
01797               0.00    -7000.00
01798             -20.00    -6800.00
01799             -20.00    -6600.00
01800               0.00    -6400.00
01801               0.00    -6200.00
01802               0.00    -6200.00
01803               0.00    -6000.00
01804               0.00    -5800.00
01805               0.00    -5400.00
01806               0.00    -5400.00
01807               0.00    -5200.00
01808             -20.00    -5000.00
01809             -20.00    -4800.00
01810               0.00    -4600.00
01811               0.00    -4200.00
01812              20.00    -4200.00
01813              20.00    -3800.00
01814               0.00    -3800.00
01815               0.00    -3400.00
01816               0.00    -3200.00
01817               0.00    -3000.00
01818               0.00    -3000.00
01819               0.00    -2600.00
01820              20.00    -2400.00
01821              20.00    -2200.00
01822               0.00    -2200.00
01823              20.00    -2000.00
01824              20.00    -1800.00
01825              20.00    -1400.00
01826               0.00    -1200.00
01827              40.00     -800.00
01828               0.00     -600.00
01829              20.00     -600.00
01830              60.00     -400.00
01831              60.00        0.00
01832              60.00      200.00
01833              80.00      200.00
01834             140.00      600.00
01835             180.00      600.00
01836             160.00     1000.00
01837             120.00     1000.00
01838             160.00     1400.00
01839             140.00     1400.00
01840             240.00     1800.00
01841             740.00     2200.00
01842            1080.00     2200.00
01843             220.00     2600.00
01844            -740.00     2600.00
01845            -940.00     2800.00
01846            -760.00     3000.00
01847             380.00     3600.00
01848             640.00     3400.00
01849            -100.00     3600.00
01850             320.00     3800.00
01851              60.00     3800.00
01852             -80.00     4600.00
01853             260.00     4200.00
01854             -20.00     4400.00
01855             380.00     5200.00
01856             160.00     4600.00
01857            -140.00     5600.00
01858             140.00     5400.00
01859              20.00     5600.00
01860             180.00     6000.00
01861              80.00     5600.00
01862             160.00     6600.00
01863             100.00     6200.00
01864             -20.00     6600.00
01865             180.00     6800.00
01866              80.00     6600.00
01867             120.00     7200.00
01868              80.00     7000.00
01869             140.00     7600.00
01870              80.00     7600.00
01871              60.00     7600.00
01872             100.00     7800.00
01873             140.00     7800.00
01874             140.00     8200.00
01875              60.00     8200.00
01876             100.00     8600.00
01877              60.00     8800.00
01878             100.00     9000.00
01879             100.00     9000.00
01880             100.00     9200.00
01881              80.00     9200.00
01882              60.00     9400.00
01883             100.00     9400.00
01884             100.00     9600.00
01885             100.00     9800.00
01886              80.00     9800.00
01887              60.00    10000.00
01888              60.00    10000.00
01889             100.00    10200.00
01890             140.00    10200.00
01891             100.00    10400.00
01892              80.00    10400.00
01893              80.00    10600.00
01894             100.00    10600.00
01895             100.00    10800.00
01896             100.00    10800.00
01897             100.00    11000.00
01898              80.00    11000.00
01899              80.00    11200.00
01900              80.00    11000.00
01901              80.00    11200.00
01902             100.00    11000.00
01903             120.00    11400.00
01904             100.00    11400.00
01905              80.00    11400.00
01906             100.00    11400.00
01907              80.00    11400.00
01908             100.00    11600.00
01909             100.00    11600.00
01910              80.00    11600.00
01911              80.00    11600.00
01912              80.00    11600.00
01913             100.00    11600.00
01914              80.00    11600.00
01915              80.00    11600.00
01916              80.00    11800.00
01917              80.00    11600.00
01918             100.00    11800.00
01919              80.00    11600.00
01920              80.00    11400.00
01921              80.00    11600.00
01922              80.00    11400.00
01923             100.00    11600.00
01924              80.00    11400.00
01925              80.00    11400.00
01926              60.00    11400.00
01927              80.00    11400.00
01928              80.00    11400.00
01929              80.00    11000.00
01930              80.00    11200.00
01931              60.00    11000.00
01932              60.00    11000.00
01933              60.00    11000.00
01934              60.00    10800.00
01935              60.00    10800.00
01936              80.00    10600.00
01937              80.00    10600.00
01938              60.00    10600.00
01939              60.00    10400.00
01940              40.00    10200.00
01941              60.00    10200.00
01942              60.00    10200.00
01943              40.00    10000.00
01944              60.00    10000.00
01945              60.00    10000.00
01946              40.00     9800.00
01947              60.00     9600.00
01948              60.00     9400.00
01949              40.00     9200.00
01950              60.00     9200.00
01951              20.00     9000.00
01952              20.00     9000.00
01953               0.00     8600.00
01954              20.00     8600.00
01955              20.00     8600.00
01956              20.00     8200.00
01957              20.00     8200.00
01958              20.00     7800.00
01959               0.00     7800.00
01960               0.00     7800.00
01961               0.00     7600.00
01962              20.00     7400.00
01963              20.00     7000.00
01964               0.00     7000.00
01965               0.00     6800.00
01966               0.00     6800.00
01967               0.00     6600.00
01968               0.00     6200.00
01969               0.00     6200.00
01970              20.00     6000.00
01971               0.00     5800.00
01972             -20.00     5600.00
01973               0.00     5400.00
01974               0.00     5200.00
01975             -20.00     5000.00
01976               0.00     4600.00
01977               0.00     4600.00
01978             -20.00     4400.00
01979             -20.00     4200.00
01980             -20.00     4000.00
01981             -20.00     3800.00
01982               0.00     3600.00
01983               0.00     3600.00
01984             -20.00     3000.00
01985             -20.00     3000.00
01986             -20.00     2800.00
01987             -20.00     2600.00
01988             -20.00     2200.00
01989             -20.00     2000.00
01990             -20.00     1800.00
01991             -20.00     1800.00
01992             -20.00     1400.00
01993             -20.00     1200.00
01994             -40.00     1200.00
01995             -20.00     1000.00
01996             -20.00      600.00
01997             -40.00      400.00
01998             -60.00      200.00
01999             -40.00     -200.00
02000             -20.00     -200.00
02001              20.00     -400.00
02002              80.00     -600.00
02003              80.00     -800.00
02004              20.00    -1200.00
02005               0.00    -1200.00
02006              20.00    -1400.00
02007               0.00    -1600.00
02008             180.00    -1800.00
02009             700.00    -2200.00
02010             700.00    -2600.00
02011            -140.00    -2600.00
02012            -740.00    -3000.00
02013            -720.00    -3000.00
02014            -700.00    -3000.00
02015            -100.00    -3000.00
02016             380.00    -3800.00
02017            -160.00    -3600.00
02018              60.00    -3800.00
02019              60.00    -4400.00
02020            -180.00    -4200.00
02021             160.00    -4800.00
02022             -80.00    -4600.00
02023               0.00    -5200.00
02024             140.00    -5200.00
02025            -140.00    -5200.00
02026            -180.00    -5800.00
02027            -100.00    -5600.00
02028              60.00    -6000.00
02029            -100.00    -6200.00
02030            -100.00    -6200.00
02031             -20.00    -6600.00
02032            -140.00    -6400.00
02033             -40.00    -7000.00
02034             -20.00    -7000.00
02035             -60.00    -7000.00
02036            -100.00    -7400.00
02037             -80.00    -7400.00
02038             -40.00    -7800.00
02039            -100.00    -7800.00
02040            -100.00    -8200.00
02041             -20.00    -8200.00
02042             -60.00    -8200.00
02043            -100.00    -8600.00
02044             -60.00    -8600.00
02045             -60.00    -8800.00
02046             -80.00    -9000.00
02047            -100.00    -9000.00
02048             -80.00    -9200.00
02049            -100.00    -9400.00
02050            -100.00    -9400.00
02051             -60.00    -9400.00
02052             -80.00    -9800.00
02053            -100.00    -9800.00
02054             -80.00   -10000.00
02055            -100.00   -10000.00
02056            -100.00   -10200.00
02057             -80.00   -10200.00
02058             -60.00   -10200.00
02059             -80.00   -10600.00
02060            -100.00   -10600.00
02061            -100.00   -10600.00
02062             -80.00   -10800.00
02063            -100.00   -10800.00
02064             -60.00   -11000.00
02065             -80.00   -11000.00
02066            -100.00   -11000.00
02067            -100.00   -11000.00
02068            -100.00   -11000.00
02069            -100.00   -11200.00
02070            -100.00   -11400.00
02071             -80.00   -11200.00
02072             -80.00   -11400.00
02073            -100.00   -11400.00
02074             -80.00   -11400.00
02075            -100.00   -11400.00
02076            -100.00   -11600.00
02077             -80.00   -11600.00
02078             -80.00   -11600.00
02079            -100.00   -11600.00
02080            -100.00   -11600.00
02081            -100.00   -11600.00
02082            -100.00   -11400.00
02083             -80.00   -11600.00
02084             -80.00   -11600.00
02085             -60.00   -11600.00
02086            -100.00   -11600.00
02087            -100.00   -11600.00
02088             -80.00   -11400.00
02089             -80.00   -11400.00
02090             -80.00   -11400.00
02091             -60.00   -11600.00
02092             -80.00   -11400.00
02093             -80.00   -11200.00
02094             -80.00   -11400.00
02095             -80.00   -11400.00
02096             -60.00   -11000.00
02097             -60.00   -11000.00
02098             -60.00   -11000.00
02099             -60.00   -11000.00
02100             -80.00   -11000.00
02101             -80.00   -10800.00
02102             -60.00   -10800.00
02103             -60.00   -10800.00
02104             -40.00   -10600.00
02105             -60.00   -10600.00
02106             -60.00   -10600.00
02107             -80.00   -10400.00
02108             -60.00   -10200.00
02109             -20.00   -10000.00
02110             -60.00   -10000.00
02111             -60.00   -10000.00
02112             -20.00    -9800.00
02113             -60.00    -9600.00
02114             -60.00    -9600.00
02115             -40.00    -9400.00
02116             -20.00    -9400.00
02117             -40.00    -9200.00
02118             -20.00    -9000.00
02119             -20.00    -9000.00
02120             -40.00    -9000.00
02121             -60.00    -8600.00
02122             -20.00    -8600.00
02123             -20.00    -8400.00
02124             -20.00    -8200.00
02125             -20.00    -8000.00
02126             -20.00    -8000.00
02127             -60.00    -7800.00
02128             -20.00    -7600.00
02129             -20.00    -7400.00
02130             -20.00    -7200.00
02131             -20.00    -7000.00
02132               0.00    -6800.00
02133             -20.00    -6800.00
02134             -20.00    -6600.00
02135             -20.00    -6200.00
02136             -20.00    -6200.00
02137               0.00    -6000.00
02138               0.00    -6000.00
02139               0.00    -5800.00
02140             -20.00    -5400.00
02141             -20.00    -5400.00
02142             -20.00    -5000.00
02143               0.00    -5000.00
02144               0.00    -4600.00
02145               0.00    -4400.00
02146               0.00    -4400.00
02147               0.00    -4200.00
02148               0.00    -3800.00
02149               0.00    -3600.00
02150               0.00    -3400.00
02151               0.00    -3200.00
02152               0.00    -3000.00
02153              20.00    -2800.00
02154               0.00    -2600.00
02155              20.00    -2400.00
02156              20.00    -2200.00
02157              20.00    -1800.00
02158              20.00    -1800.00
02159              40.00    -1800.00
02160              20.00    -1200.00
02161              20.00    -1000.00
02162              60.00     -800.00
02163              60.00     -600.00
02164              20.00     -400.00
02165              60.00     -200.00
02166              60.00     -200.00
02167              60.00      200.00
02168             100.00      400.00
02169             160.00      600.00
02170             180.00      800.00
02171             160.00     1000.00
02172             140.00     1200.00
02173             100.00     1400.00
02174             160.00     1400.00
02175             440.00     1800.00
02176            1060.00     2200.00
02177             740.00     2400.00
02178            -340.00     2600.00
02179            -900.00     2600.00
02180            -900.00     3000.00
02181            -260.00     3400.00
02182             820.00     3400.00
02183             160.00     3200.00
02184               0.00     4000.00
02185             300.00     3600.00
02186            -160.00     4200.00
02187             220.00     4600.00
02188             100.00     4200.00
02189             140.00     5000.00
02190             420.00     5000.00
02191            -140.00     5000.00
02192              20.00     5600.00
02193             100.00     5200.00
02194              80.00     6000.00
02195             140.00     5800.00
02196              60.00     6000.00
02197             180.00     6400.00
02198             -20.00     6200.00
02199             120.00     6800.00
02200             160.00     6600.00
02201              80.00     7000.00
02202              60.00     7200.00
02203              80.00     7000.00
02204             140.00     7600.00
02205              60.00     7400.00
02206              80.00     7800.00
02207             120.00     8000.00
02208             160.00     8200.00
02209              80.00     8200.00
02210              80.00     8400.00
02211             100.00     8800.00
02212              60.00     8600.00
02213             140.00     9000.00
02214             100.00     9000.00
02215             100.00     9200.00
02216              60.00     9400.00
02217             100.00     9400.00
02218             100.00     9600.00
02219             140.00     9800.00
02220             100.00     9800.00
02221              80.00     9800.00
02222              80.00    10200.00
02223              80.00    10200.00
02224             140.00    10200.00
02225             100.00    10600.00
02226              80.00    10600.00
02227              80.00    10600.00
02228              80.00    10800.00
02229             120.00    10600.00
02230             120.00    10600.00
02231             100.00    11000.00
02232              80.00    10800.00
02233             100.00    11000.00
02234             100.00    11200.00
02235              80.00    11400.00
02236              80.00    11200.00
02237             100.00    11400.00
02238             140.00    11400.00
02239              80.00    11400.00
02240              80.00    11400.00
02241             100.00    11600.00
02242              80.00    11400.00
02243             100.00    11600.00
02244             100.00    11600.00
02245              80.00    11600.00
02246              80.00    11600.00
02247             100.00    11600.00
02248              80.00    11600.00
02249              80.00    11600.00
02250              80.00    11600.00
02251             100.00    11600.00
02252              80.00    11600.00
02253              80.00    11600.00
02254              80.00    11600.00
02255              80.00    11400.00
02256              80.00    11600.00
02257             100.00    11400.00
02258              80.00    11600.00
02259              80.00    11400.00
02260              60.00    11400.00
02261              60.00    11400.00
02262              60.00    11400.00
02263              80.00    11200.00
02264              80.00    11000.00
02265              80.00    11000.00
02266              80.00    11000.00
02267              60.00    11000.00
02268              60.00    11000.00
02269              60.00    10800.00
02270              80.00    10800.00
02271              60.00    10600.00
02272              60.00    10600.00
02273              60.00    10600.00
02274              60.00    10400.00
02275              20.00    10200.00
02276              60.00    10200.00
02277              60.00    10000.00
02278              60.00    10000.00
02279              20.00     9800.00
02280              20.00     9800.00
02281              20.00     9600.00
02282              40.00     9600.00
02283              20.00     9400.00
02284              40.00     9200.00
02285              60.00     9200.00
02286              40.00     9000.00
02287              20.00     8800.00
02288              20.00     8600.00
02289              20.00     8600.00
02290              20.00     8400.00
02291              40.00     8200.00
02292              20.00     8200.00
02293               0.00     8000.00
02294               0.00     7800.00
02295              20.00     7800.00
02296               0.00     7400.00
02297              20.00     7400.00
02298              20.00     7000.00
02299              20.00     6800.00
02300               0.00     6800.00
02301               0.00     6600.00
02302               0.00     6400.00
02303               0.00     6200.00
02304              20.00     6000.00
02305               0.00     5800.00
02306               0.00     5800.00
02307             -20.00     5400.00
02308             -20.00     5200.00
02309               0.00     5200.00
02310               0.00     5000.00
02311               0.00     4600.00
02312               0.00     4400.00
02313               0.00     4400.00
02314             -20.00     4200.00
02315             -20.00     3800.00
02316             -20.00     3600.00
02317             -20.00     3400.00
02318             -20.00     3400.00
02319             -20.00     3000.00
02320             -20.00     2800.00
02321             -20.00     2600.00
02322             -20.00     2400.00
02323             -20.00     2200.00
02324             -20.00     2000.00
02325             -20.00     1800.00
02326             -40.00     1400.00
02327             -20.00     1400.00
02328             -60.00     1200.00
02329             -60.00     1000.00
02330             -40.00      600.00
02331             -20.00      400.00
02332             -60.00      200.00
02333             -60.00        0.00
02334             -20.00     -200.00
02335               0.00     -400.00
02336              60.00     -600.00
02337              80.00     -800.00
02338              20.00    -1000.00
02339               0.00    -1200.00
02340               0.00    -1400.00
02341               0.00    -1400.00
02342              60.00    -1800.00
02343             400.00    -1800.00
02344             820.00    -2600.00
02345             320.00    -2600.00
02346            -540.00    -2800.00
02347            -780.00    -3000.00
02348            -740.00    -3000.00
02349            -500.00    -3000.00
02350             320.00    -3600.00
02351              80.00    -3800.00
02352            -160.00    -3600.00
02353             180.00    -4400.00
02354            -140.00    -4200.00
02355              20.00    -4400.00
02356              80.00    -5000.00
02357            -120.00    -4600.00
02358             140.00    -5400.00
02359             -20.00    -5000.00
02360            -180.00    -5400.00
02361            -140.00    -5800.00
02362             -20.00    -5600.00
02363             -20.00    -6200.00
02364            -140.00    -6200.00
02365               0.00    -6400.00
02366            -100.00    -6600.00
02367            -100.00    -6800.00
02368             -20.00    -7000.00
02369             -60.00    -6800.00
02370             -60.00    -7400.00
02371            -100.00    -7400.00
02372             -60.00    -7400.00
02373             -80.00    -7800.00
02374            -140.00    -7800.00
02375             -80.00    -8200.00
02376             -20.00    -8000.00
02377            -100.00    -8600.00
02378             -80.00    -8600.00
02379             -60.00    -8600.00
02380             -80.00    -9000.00
02381            -100.00    -9000.00
02382            -100.00    -9000.00
02383            -100.00    -9400.00
02384            -140.00    -9400.00
02385             -80.00    -9400.00
02386             -40.00    -9800.00
02387            -100.00   -10000.00
02388            -100.00    -9800.00
02389            -100.00   -10000.00
02390            -100.00   -10200.00
02391            -100.00   -10200.00
02392             -80.00   -10200.00
02393            -100.00   -10600.00
02394            -120.00   -10600.00
02395            -100.00   -10600.00
02396            -100.00   -10800.00
02397            -100.00   -10800.00
02398             -80.00   -11000.00
02399             -60.00   -11000.00
02400            -100.00   -11000.00
02401            -100.00   -11000.00
02402            -100.00   -11000.00
02403            -100.00   -11200.00
02404            -100.00   -11400.00
02405             -80.00   -11400.00
02406             -80.00   -11400.00
02407            -100.00   -11400.00
02408            -100.00   -11400.00
02409            -100.00   -11400.00
02410            -100.00   -11400.00
02411            -100.00   -11600.00
02412             -80.00   -11600.00
02413             -80.00   -11600.00
02414            -100.00   -11600.00
02415             -80.00   -11600.00
02416             -80.00   -11600.00
02417            -100.00   -11600.00
02418             -80.00   -11400.00
02419             -60.00   -11400.00
02420             -80.00   -11600.00
02421             -80.00   -11600.00
02422             -80.00   -11400.00
02423             -80.00   -11600.00
02424             -80.00   -11400.00
02425             -80.00   -11400.00
02426             -60.00   -11400.00
02427             -80.00   -11400.00
02428             -80.00   -11400.00
02429             -80.00   -11200.00
02430             -60.00   -11000.00
02431             -80.00   -11200.00
02432             -60.00   -11000.00
02433             -40.00   -11000.00
02434             -80.00   -11000.00
02435             -80.00   -11000.00
02436             -60.00   -11000.00
02437             -60.00   -10800.00
02438             -60.00   -10800.00
02439             -60.00   -10600.00
02440             -20.00   -10600.00
02441             -60.00   -10400.00
02442             -80.00   -10400.00
02443             -40.00   -10200.00
02444             -60.00   -10000.00
02445             -40.00   -10000.00
02446             -20.00    -9800.00
02447             -20.00    -9800.00
02448             -80.00    -9600.00
02449             -80.00    -9400.00
02450             -80.00    -9200.00
02451             -40.00    -9200.00
02452               0.00    -9200.00
02453              20.00    -9000.00
02454             -20.00    -9000.00
02455             -80.00    -8800.00
02456             -60.00    -8600.00
02457             -60.00    -8400.00
02458             -20.00    -8400.00
02459             -20.00    -8200.00
02460             -20.00    -7800.00
02461             -60.00    -7800.00
02462             -20.00    -7600.00
02463             -20.00    -7400.00
02464             -40.00    -7200.00
02465             -20.00    -7000.00
02466             -20.00    -7000.00
02467             -20.00    -7000.00
02468             -20.00    -6600.00
02469             -20.00    -6600.00
02470             -20.00    -6400.00
02471             -20.00    -6200.00
02472             -20.00    -6000.00
02473               0.00    -5800.00
02474               0.00    -5400.00
02475               0.00    -5400.00
02476               0.00    -5200.00
02477               0.00    -5000.00
02478             -20.00    -4800.00
02479               0.00    -4600.00
02480               0.00    -4400.00
02481               0.00    -4200.00
02482              20.00    -3800.00
02483               0.00    -3600.00
02484               0.00    -3600.00
02485               0.00    -3400.00
02486               0.00    -3000.00
02487               0.00    -3000.00
02488              20.00    -2800.00
02489               0.00    -2600.00
02490              20.00    -2200.00
02491              20.00    -2000.00
02492               0.00    -1800.00
02493              20.00    -1600.00
02494              20.00    -1400.00
02495              40.00    -1200.00
02496              60.00     -800.00
02497              60.00     -800.00
02498              40.00     -400.00
02499              60.00     -200.00
02500              40.00     -200.00
02501              60.00      200.00
02502              80.00      400.00
02503             140.00      600.00
02504             180.00      800.00
02505             160.00     1000.00
02506             140.00     1000.00
02507             140.00     1400.00
02508             140.00     1400.00
02509             240.00     1800.00
02510             780.00     2000.00
02511            1060.00     2400.00
02512             220.00     2400.00
02513            -740.00     2600.00
02514            -940.00     2800.00
02515            -740.00     3200.00
02516             400.00     3600.00
02517             620.00     3200.00
02518            -120.00     3600.00
02519             300.00     3800.00
02520              40.00     3800.00
02521             -80.00     4600.00
02522             240.00     4400.00
02523             -20.00     4600.00
02524             380.00     5200.00
02525             160.00     4600.00
02526            -140.00     5800.00
02527             140.00     5400.00
02528               0.00     5600.00
02529             180.00     6000.00
02530              80.00     5800.00
02531             140.00     6600.00
02532              80.00     6200.00
02533               0.00     6600.00
02534             180.00     6800.00
02535              80.00     6800.00
02536             100.00     7400.00
02537              60.00     7000.00
02538             140.00     7600.00
02539              60.00     7600.00
02540              60.00     7600.00
02541             100.00     8000.00
02542             140.00     8200.00
02543             140.00     8200.00
02544              60.00     8200.00
02545             120.00     8600.00
02546              80.00     8600.00
02547             120.00     9000.00
02548             140.00     9000.00
02549             100.00     9200.00
02550              60.00     9200.00
02551              80.00     9400.00
02552             120.00     9600.00
02553             100.00     9600.00
02554             140.00     9800.00
02555              80.00    10000.00
02556              60.00    10000.00
02557              80.00    10200.00
02558             100.00    10200.00
02559             140.00    10400.00
02560             100.00    10400.00
02561             100.00    10600.00
02562              80.00    10600.00
02563             100.00    10800.00
02564             120.00    10800.00
02565             120.00    11000.00
02566             100.00    10800.00
02567              80.00    11000.00
02568             100.00    11000.00
02569              80.00    11000.00
02570              80.00    11200.00
02571             100.00    11000.00
02572             100.00    11400.00
02573             100.00    11400.00
02574              80.00    11400.00
02575              80.00    11400.00
02576             100.00    11400.00
02577             100.00    11400.00
02578             100.00    11400.00
02579              80.00    11600.00
02580              80.00    11600.00
02581              80.00    11400.00
02582              80.00    11600.00
02583              80.00    11800.00
02584              80.00    11600.00
02585              80.00    12000.00
02586              80.00    11600.00
02587              80.00    11600.00
02588              80.00    11400.00
02589              60.00    11600.00
02590              60.00    11600.00
02591              80.00    11600.00
02592              80.00    11600.00
02593              80.00    11400.00
02594              80.00    11400.00
02595              80.00    11400.00
02596              60.00    11200.00
02597              60.00    11400.00
02598              60.00    11000.00
02599              80.00    11200.00
02600              80.00    11000.00
02601              60.00    11000.00
02602              60.00    11000.00
02603              60.00    10800.00
02604              60.00    10800.00
02605              80.00    10600.00
02606              60.00    10600.00
02607              60.00    10600.00
02608              60.00    10600.00
02609              60.00    10200.00
02610              60.00    10400.00
02611              60.00    10200.00
02612              40.00    10000.00
02613              60.00     9800.00
02614              60.00     9800.00
02615              20.00     9800.00
02616              60.00     9600.00
02617              60.00     9400.00
02618              60.00     9200.00
02619              60.00     9200.00
02620              20.00     9200.00
02621              20.00     9000.00
02622               0.00     8800.00
02623              20.00     8600.00
02624              40.00     8600.00
02625              20.00     8200.00
02626              20.00     8200.00
02627              20.00     8000.00
02628              20.00     7800.00
02629              20.00     7600.00
02630              20.00     7400.00
02631              20.00     7400.00
02632              20.00     7400.00
02633              20.00     7000.00
02634               0.00     6800.00
02635               0.00     6600.00
02636               0.00     6600.00
02637              20.00     6200.00
02638              20.00     6200.00
02639               0.00     6000.00
02640               0.00     5800.00
02641               0.00     5400.00
02642               0.00     5400.00
02643             -20.00     5200.00
02644               0.00     5000.00
02645               0.00     4600.00
02646             -20.00     4600.00
02647             -20.00     4400.00
02648               0.00     4200.00
02649             -20.00     4000.00
02650             -20.00     3800.00
02651               0.00     3600.00
02652             -20.00     3400.00
02653             -20.00     3400.00
02654             -20.00     3000.00
02655             -40.00     2600.00
02656             -40.00     2400.00
02657             -20.00     2200.00
02658             -20.00     2200.00
02659             -20.00     1800.00
02660             -20.00     1800.00
02661             -40.00     1600.00
02662             -20.00     1200.00
02663             -60.00     1000.00
02664             -40.00     1000.00
02665             -20.00      400.00
02666             -20.00      400.00
02667             -60.00      200.00
02668             -40.00      200.00
02669             -20.00     -400.00
02670              20.00     -400.00
02671              80.00     -600.00
02672              60.00     -800.00
02673              20.00    -1000.00
02674               0.00    -1200.00
02675               0.00    -1400.00
02676              20.00    -1600.00
02677             200.00    -1800.00
02678             700.00    -2200.00
02679             660.00    -2600.00
02680            -140.00    -2600.00
02681            -740.00    -3000.00
02682            -740.00    -3200.00
02683            -700.00    -2800.00
02684            -100.00    -3000.00
02685             380.00    -3800.00
02686            -160.00    -3600.00
02687              80.00    -4000.00
02688              80.00    -4400.00
02689            -160.00    -4000.00
02690             160.00    -4600.00
02691             -60.00    -4600.00
02692               0.00    -5000.00
02693             140.00    -5200.00
02694            -140.00    -5200.00
02695            -180.00    -5800.00
02696            -120.00    -5400.00
02697              60.00    -5800.00
02698            -100.00    -6200.00
02699             -80.00    -6200.00
02700             -20.00    -6600.00
02701            -120.00    -6400.00
02702             -40.00    -7000.00
02703             -20.00    -6800.00
02704             -60.00    -7200.00
02705             -80.00    -7400.00
02706             -80.00    -7200.00
02707             -60.00    -7800.00
02708            -100.00    -8000.00
02709            -120.00    -8200.00
02710             -20.00    -8200.00
02711             -60.00    -8200.00
02712            -140.00    -8600.00
02713             -80.00    -8600.00
02714             -60.00    -8800.00
02715            -100.00    -9000.00
02716             -80.00    -9200.00
02717             -80.00    -9200.00
02718            -140.00    -9400.00
02719            -100.00    -9600.00
02720             -60.00    -9600.00
02721            -100.00    -9800.00
02722            -100.00   -10000.00
02723            -100.00   -10000.00
02724            -100.00   -10000.00
02725            -140.00   -10200.00
02726             -80.00   -10200.00
02727             -80.00   -10400.00
02728            -100.00   -10600.00
02729            -120.00   -10600.00
02730            -100.00   -10600.00
02731            -100.00   -10800.00
02732            -100.00   -10800.00
02733             -80.00   -10800.00
02734             -80.00   -11000.00
02735            -100.00   -11000.00
02736            -100.00   -11000.00
02737            -100.00   -11000.00
02738            -100.00   -11200.00
02739            -100.00   -11400.00
02740             -80.00   -11400.00
02741            -100.00   -11400.00
02742            -100.00   -11400.00
02743            -100.00   -11400.00
02744            -100.00   -11400.00
02745            -100.00   -11600.00
02746             -80.00   -11600.00
02747             -80.00   -11600.00
02748             -80.00   -11600.00
02749            -100.00   -11600.00
02750            -100.00   -11800.00
02751            -100.00   -11400.00
02752             -80.00   -11600.00
02753             -60.00   -11600.00
02754             -80.00   -11600.00
02755             -80.00   -11600.00
02756             -80.00   -11400.00
02757             -80.00   -11400.00
02758             -80.00   -11600.00
02759             -80.00   -11600.00
02760             -60.00   -11400.00
02761             -60.00   -11400.00
02762             -80.00   -11400.00
02763             -80.00   -11400.00
02764             -60.00   -11200.00
02765             -80.00   -11200.00
02766             -80.00   -11000.00
02767             -60.00   -11000.00
02768             -60.00   -11000.00
02769             -60.00   -10800.00
02770             -80.00   -10800.00
02771             -60.00   -10800.00
02772             -60.00   -10800.00
02773             -40.00   -10600.00
02774             -60.00   -10600.00
02775             -60.00   -10600.00
02776             -80.00   -10400.00
02777             -60.00   -10200.00
02778             -60.00   -10200.00
02779             -60.00   -10000.00
02780             -20.00   -10000.00
02781             -60.00    -9800.00
02782             -60.00    -9800.00
02783             -60.00    -9600.00
02784             -60.00    -9400.00
02785             -60.00    -9400.00
02786             -20.00    -9200.00
02787             -20.00    -9200.00
02788             -40.00    -9000.00
02789             -60.00    -8800.00
02790             -60.00    -8600.00
02791             -60.00    -8400.00
02792             -20.00    -8400.00
02793             -20.00    -8200.00
02794             -20.00    -8000.00
02795             -20.00    -7800.00
02796             -20.00    -7800.00
02797             -20.00    -7400.00
02798             -20.00    -7200.00
02799               0.00    -7200.00
02800             -20.00    -7000.00
02801             -20.00    -7000.00
02802             -20.00    -6800.00
02803             -20.00    -6600.00
02804             -20.00    -6400.00
02805               0.00    -6200.00
02806               0.00    -6000.00
02807               0.00    -5800.00
02808               0.00    -5600.00
02809             -20.00    -5400.00
02810               0.00    -5200.00
02811               0.00    -5000.00
02812               0.00    -4600.00
02813               0.00    -4600.00
02814               0.00    -4400.00
02815               0.00    -4200.00
02816               0.00    -4200.00
02817               0.00    -3800.00
02818               0.00    -3600.00
02819              20.00    -3400.00
02820              20.00    -3000.00
02821              20.00    -3000.00
02822               0.00    -2800.00
02823              20.00    -2600.00
02824              20.00    -2400.00
02825              20.00    -2200.00
02826              60.00    -2000.00
02827              40.00    -1800.00
02828              20.00    -1800.00
02829              20.00    -1200.00
02830              20.00    -1000.00
02831              40.00     -800.00
02832              20.00     -600.00
02833              60.00     -400.00
02834              60.00     -200.00
02835              60.00        0.00
02836              60.00      200.00
02837              80.00      200.00
02838             160.00      600.00
02839             160.00      800.00
02840             160.00     1000.00
02841             140.00     1200.00
02842             140.00     1400.00
02843             160.00     1600.00
02844             460.00     2000.00
02845            1060.00     2200.00
02846             720.00     2200.00
02847            -340.00     2600.00
02848            -900.00     2600.00
02849            -920.00     3000.00
02850            -260.00     3400.00
02851             800.00     3400.00
02852             120.00     3200.00
02853              20.00     3800.00
02854             300.00     3600.00
02855            -180.00     4200.00
02856             200.00     4600.00
02857              80.00     4200.00
02858             140.00     5000.00
02859             400.00     4800.00
02860            -140.00     5000.00
02861              20.00     5600.00
02862              60.00     5200.00
02863              80.00     6000.00
02864             140.00     5800.00
02865              60.00     6000.00
02866             180.00     6600.00
02867               0.00     6000.00
02868             140.00     7000.00
02869             160.00     6600.00
02870              80.00     7000.00
02871             100.00     7000.00
02872              80.00     7400.00
02873             140.00     7800.00
02874              20.00     7400.00
02875              80.00     8000.00
02876             120.00     8000.00
02877             160.00     8200.00
02878             100.00     8400.00
02879             100.00     8400.00
02880             100.00     8600.00
02881              60.00     8800.00
02882             140.00     9000.00
02883              80.00     9200.00
02884             100.00     9200.00
02885              60.00     9400.00
02886             100.00     9600.00
02887             140.00     9800.00
02888             140.00     9600.00
02889             140.00     9800.00
02890              80.00     9800.00
02891              60.00    10200.00
02892             100.00    10200.00
02893             140.00    10200.00
02894             100.00    10400.00
02895             100.00    10400.00
02896              60.00    10400.00
02897              80.00    10800.00
02898             100.00    10600.00
02899             140.00    10800.00
02900             120.00    11000.00
02901              80.00    10800.00
02902             100.00    11000.00
02903             100.00    11000.00
02904              80.00    11000.00
02905             100.00    11200.00
02906             100.00    11400.00
02907             100.00    11400.00
02908             100.00    11400.00
02909              80.00    11400.00
02910              80.00    11400.00
02911              80.00    11400.00
02912             100.00    11600.00
02913             100.00    11600.00
02914              80.00    11600.00
02915              80.00    11600.00
02916              80.00    11600.00
02917              80.00    11600.00
02918              80.00    11600.00
02919              80.00    11600.00
02920              80.00    11600.00
02921              80.00    11600.00
02922              60.00    11600.00
02923              80.00    11600.00
02924              60.00    11400.00
02925              60.00    11400.00
02926              80.00    11400.00
02927              80.00    11600.00
02928              80.00    11400.00
02929              60.00    11400.00
02930              80.00    11400.00
02931              60.00    11200.00
02932              60.00    11200.00
02933              80.00    11000.00
02934              80.00    11200.00
02935              60.00    11000.00
02936              60.00    11000.00
02937              60.00    10800.00
02938              80.00    10800.00
02939              60.00    10800.00
02940              80.00    10600.00
02941              80.00    10600.00
02942              60.00    10600.00
02943              60.00    10200.00
02944              60.00    10200.00
02945              60.00    10200.00
02946              60.00    10200.00
02947              40.00    10000.00
02948              60.00     9800.00
02949              60.00     9800.00
02950              60.00     9800.00
02951              60.00     9800.00
02952              60.00     9400.00
02953              60.00     9200.00
02954              60.00     9200.00
02955              40.00     9000.00
02956              20.00     9000.00
02957               0.00     8800.00
02958              20.00     8600.00
02959              20.00     8400.00
02960              20.00     8200.00
02961              20.00     8200.00
02962              20.00     8000.00
02963              20.00     7800.00
02964              20.00     7600.00
02965              20.00     7400.00
02966               0.00     7200.00
02967              20.00     7000.00
02968              20.00     6800.00
02969               0.00     6800.00
02970               0.00     6600.00
02971               0.00     6600.00
02972               0.00     6200.00
02973               0.00     6000.00
02974               0.00     5800.00
02975               0.00     5800.00
02976               0.00     5400.00
02977               0.00     5400.00
02978             -20.00     5200.00
02979               0.00     4600.00
02980             -20.00     4600.00
02981             -20.00     4600.00
02982               0.00     4200.00
02983               0.00     4000.00
02984             -20.00     3800.00
02985               0.00     3800.00
02986             -20.00     3400.00
02987             -20.00     3400.00
02988             -20.00     3000.00
02989             -40.00     2800.00
02990             -40.00     2800.00
02991             -60.00     2400.00
02992             -20.00     2200.00
02993             -20.00     2000.00
02994             -20.00     1800.00
02995             -20.00     1400.00
02996             -20.00     1400.00
02997             -40.00     1200.00
02998             -40.00     1000.00
02999             -60.00      800.00
03000             -20.00      600.00
03001             -20.00      200.00
03002             -60.00      200.00
03003             -40.00     -200.00
03004               0.00     -200.00
03005              60.00     -600.00
03006              80.00     -800.00
03007              60.00     -800.00
03008               0.00    -1200.00
03009               0.00    -1200.00
03010              20.00    -1400.00
03011              80.00    -1800.00
03012             420.00    -1800.00
03013             820.00    -2600.00
03014             300.00    -2600.00
03015            -540.00    -2800.00
03016            -780.00    -3000.00
03017            -720.00    -2800.00
03018            -500.00    -2800.00
03019             320.00    -3600.00
03020             100.00    -3800.00
03021            -140.00    -3400.00
03022             220.00    -4400.00
03023            -160.00    -4200.00
03024              40.00    -4400.00
03025              80.00    -4800.00
03026            -100.00    -4600.00
03027             140.00    -5400.00
03028               0.00    -5000.00
03029            -180.00    -5400.00
03030            -160.00    -5800.00
03031             -20.00    -5400.00
03032               0.00    -6200.00
03033            -140.00    -6000.00
03034             -20.00    -6600.00
03035            -100.00    -6600.00
03036            -100.00    -6600.00
03037             -20.00    -7000.00
03038             -60.00    -6800.00
03039             -80.00    -7400.00
03040            -100.00    -7200.00
03041             -20.00    -7600.00
03042            -100.00    -7800.00
03043            -140.00    -7800.00
03044             -60.00    -8200.00
03045             -40.00    -8200.00
03046            -100.00    -8600.00
03047            -100.00    -8600.00
03048             -60.00    -8600.00
03049             -80.00    -9000.00
03050            -100.00    -9000.00
03051             -80.00    -9200.00
03052            -100.00    -9400.00
03053            -140.00    -9400.00
03054            -100.00    -9400.00
03055             -60.00    -9600.00
03056            -100.00    -9800.00
03057            -100.00    -9800.00
03058             -80.00   -10000.00
03059            -100.00   -10000.00
03060            -120.00   -10200.00
03061             -80.00   -10400.00
03062            -100.00   -10400.00
03063            -140.00   -10600.00
03064            -100.00   -10600.00
03065            -100.00   -10600.00
03066            -100.00   -10800.00
03067             -80.00   -11000.00
03068             -60.00   -11000.00
03069            -100.00   -11000.00
03070            -100.00   -11000.00
03071            -100.00   -11000.00
03072            -100.00   -11200.00
03073            -100.00   -11200.00
03074             -60.00   -11200.00
03075             -80.00   -11400.00
03076            -100.00   -11400.00
03077            -100.00   -11400.00
03078             -80.00   -11600.00
03079            -100.00   -11400.00
03080             -80.00   -11400.00
03081             -80.00   -11600.00
03082             -80.00   -11600.00
03083            -100.00   -11600.00
03084            -100.00   -11600.00
03085             -80.00   -11400.00
03086            -100.00   -11600.00
03087             -80.00   -11600.00
03088             -60.00   -11600.00
03089             -80.00   -11600.00
03090            -100.00   -11400.00
03091             -60.00   -11400.00
03092             -80.00   -11600.00
03093             -80.00   -11600.00
03094             -80.00   -11400.00
03095             -60.00   -11400.00
03096             -80.00   -11400.00
03097             -80.00   -11400.00
03098             -80.00   -11400.00
03099             -60.00   -11200.00
03100             -80.00   -11200.00
03101             -60.00   -11000.00
03102             -60.00   -11000.00
03103             -80.00   -11000.00
03104             -80.00   -10800.00
03105             -80.00   -10800.00
03106             -80.00   -10800.00
03107             -60.00   -10600.00
03108             -60.00   -10600.00
03109             -60.00   -10600.00
03110             -80.00   -10600.00
03111             -80.00   -10200.00
03112             -80.00   -10200.00
03113             -60.00   -10200.00
03114             -60.00   -10000.00
03115             -20.00    -9800.00
03116             -60.00    -9800.00
03117             -60.00    -9600.00
03118             -60.00    -9400.00
03119             -60.00    -9400.00
03120             -40.00    -9400.00
03121             -20.00    -9000.00
03122             -40.00    -9000.00
03123             -60.00    -9000.00
03124             -20.00    -8800.00
03125             -20.00    -8600.00
03126             -40.00    -8400.00
03127             -20.00    -8200.00
03128             -20.00    -8200.00
03129             -20.00    -7800.00
03130             -20.00    -7600.00
03131             -20.00    -7800.00
03132             -20.00    -7400.00
03133             -20.00    -7200.00
03134             -20.00    -7000.00
03135             -20.00    -7000.00
03136             -20.00    -6800.00
03137             -20.00    -6600.00
03138             -20.00    -6600.00
03139               0.00    -6200.00
03140             -20.00    -6200.00
03141               0.00    -5800.00
03142               0.00    -5800.00
03143               0.00    -5400.00
03144               0.00    -5400.00
03145             -20.00    -5000.00
03146               0.00    -5000.00
03147               0.00    -4600.00
03148               0.00    -4600.00
03149               0.00    -4400.00
03150               0.00    -4200.00
03151               0.00    -4000.00
03152               0.00    -3600.00
03153               0.00    -3400.00
03154              20.00    -3400.00
03155               0.00    -3000.00
03156              20.00    -2800.00
03157               0.00    -2600.00
03158              20.00    -2600.00
03159              20.00    -2200.00
03160              60.00    -2000.00
03161              20.00    -1800.00
03162              20.00    -1800.00
03163              20.00    -1600.00
03164              20.00    -1200.00
03165              40.00     -800.00
03166              60.00     -800.00
03167              60.00     -400.00
03168              40.00     -200.00
03169              20.00     -200.00
03170              60.00      200.00
03171              60.00      200.00
03172             120.00      600.00
03173             180.00      600.00
03174             180.00     1000.00
03175             140.00     1000.00
03176             120.00     1200.00
03177             140.00     1400.00
03178             240.00     1800.00
03179             800.00     2000.00
03180            1040.00     2400.00
03181             180.00     2600.00
03182            -740.00     2600.00
03183            -940.00     2600.00
03184            -740.00     3000.00
03185             420.00     3600.00
03186             620.00     3200.00
03187            -140.00     3600.00
03188             300.00     3800.00
03189              60.00     3800.00
03190             -60.00     4800.00
03191             240.00     4200.00
03192             -20.00     4400.00
03193             380.00     5000.00
03194             140.00     4600.00
03195            -140.00     5600.00
03196             100.00     5200.00
03197              20.00     5600.00
03198             160.00     6200.00
03199              60.00     5800.00
03200             160.00     6400.00
03201             100.00     6200.00
03202               0.00     6600.00
03203             200.00     6800.00
03204              80.00     6600.00
03205             100.00     7400.00
03206              80.00     7000.00
03207             160.00     7600.00
03208              80.00     7400.00
03209              60.00     7600.00
03210             120.00     8000.00
03211             140.00     8000.00
03212             140.00     8200.00
03213              60.00     8200.00
03214             140.00     8600.00
03215              60.00     8800.00
03216             140.00     8600.00
03217             140.00     9000.00
03218             100.00     9000.00
03219              80.00     9400.00
03220              80.00     9400.00
03221             100.00     9400.00
03222             120.00     9600.00
03223             140.00     9800.00
03224              80.00     9800.00
03225              80.00    10000.00
03226              80.00    10000.00
03227             140.00    10200.00
03228             140.00    10200.00
03229             100.00    10600.00
03230              80.00    10600.00
03231              80.00    10600.00
03232             100.00    10600.00
03233             120.00    10800.00
03234             140.00    10800.00
03235             100.00    11000.00
03236             100.00    11000.00
03237              80.00    11000.00
03238              80.00    11200.00
03239              80.00    11000.00
03240             100.00    11200.00
03241             100.00    11400.00
03242             100.00    11400.00
03243              80.00    11400.00
03244              80.00    11400.00
03245              80.00    11600.00
03246              80.00    11400.00
03247             100.00    11600.00
03248              80.00    11600.00
03249              60.00    11600.00
03250              80.00    11600.00
03251              80.00    11600.00
03252              80.00    11600.00
03253              80.00    11400.00
03254              80.00    12000.00
03255              80.00    11400.00
03256              80.00    11600.00
03257              80.00    11600.00
03258              60.00    11400.00
03259              60.00    11600.00
03260              80.00    11400.00
03261              80.00    11600.00
03262              80.00    11600.00
03263              60.00    11400.00
03264              60.00    11400.00
03265              60.00    11400.00
03266              60.00    11400.00
03267              80.00    11200.00
03268              80.00    11200.00
03269              80.00    11000.00
03270              80.00    11000.00
03271              60.00    11000.00
03272              60.00    11000.00
03273              60.00    10800.00
03274              80.00    10600.00
03275              80.00    10600.00
03276              60.00    10600.00
03277              60.00    10400.00
03278              60.00    10400.00
03279              60.00    10200.00
03280              60.00    10000.00
03281              60.00    10000.00
03282              60.00    10000.00
03283              20.00    10000.00
03284              40.00     9800.00
03285              40.00     9800.00
03286              60.00     9400.00
03287              60.00     9400.00
03288              60.00     9200.00
03289              60.00     9000.00
03290              20.00     9000.00
03291              20.00     8800.00
03292              20.00     8600.00
03293              40.00     8400.00
03294              40.00     8400.00
03295              20.00     8200.00
03296              20.00     8000.00
03297              20.00     8000.00
03298               0.00     7800.00
03299              20.00     7400.00
03300              20.00     7400.00
03301              20.00     7000.00
03302               0.00     7000.00
03303               0.00     6800.00
03304               0.00     6600.00
03305               0.00     6400.00
03306               0.00     6200.00
03307               0.00     6000.00
03308               0.00     6000.00
03309               0.00     5800.00
03310             -20.00     5600.00
03311             -20.00     5400.00
03312               0.00     5200.00
03313               0.00     5000.00
03314               0.00     4600.00
03315               0.00     4600.00
03316             -20.00     4200.00
03317               0.00     4200.00
03318             -20.00     3800.00
03319             -20.00     3800.00
03320             -20.00     3600.00
03321             -20.00     3400.00
03322             -20.00     3200.00
03323             -20.00     3000.00
03324             -40.00     3000.00
03325             -60.00     2400.00
03326             -20.00     2200.00
03327             -20.00     2000.00
03328             -20.00     1800.00
03329             -20.00     1600.00
03330             -20.00     1400.00
03331             -40.00     1200.00
03332             -20.00     1200.00
03333             -40.00     1000.00
03334             -40.00      600.00
03335             -20.00      400.00
03336             -60.00      200.00
03337             -20.00        0.00
03338             -20.00     -200.00
03339              20.00     -400.00
03340              80.00     -600.00
03341              60.00     -600.00
03342              20.00    -1000.00
03343               0.00    -1200.00
03344              20.00    -1400.00
03345              20.00    -1600.00
03346             220.00    -1800.00
03347             700.00    -2200.00
03348             680.00    -2400.00
03349            -160.00    -2800.00
03350            -740.00    -2800.00
03351            -720.00    -3000.00
03352            -700.00    -3000.00
03353             -80.00    -3000.00
03354             380.00    -4000.00
03355            -180.00    -3600.00
03356             100.00    -3800.00
03357              60.00    -4400.00
03358            -160.00    -4200.00
03359             180.00    -4800.00
03360             -60.00    -4600.00
03361               0.00    -5000.00
03362             120.00    -5200.00
03363            -160.00    -5200.00
03364            -180.00    -6000.00
03365            -100.00    -5400.00
03366              60.00    -5800.00
03367            -140.00    -6200.00
03368            -100.00    -6200.00
03369             -20.00    -6600.00
03370            -140.00    -6200.00
03371             -40.00    -7200.00
03372             -40.00    -7000.00
03373             -60.00    -7000.00
03374            -100.00    -7600.00
03375             -80.00    -7200.00
03376             -60.00    -7600.00
03377            -120.00    -7800.00
03378            -100.00    -8000.00
03379             -20.00    -8200.00
03380             -80.00    -8400.00
03381            -140.00    -8600.00
03382             -80.00    -8600.00
03383             -60.00    -8800.00
03384            -100.00    -9000.00
03385            -100.00    -9000.00
03386            -100.00    -9200.00
03387            -100.00    -9400.00
03388            -120.00    -9400.00
03389             -60.00    -9600.00
03390             -80.00    -9800.00
03391            -100.00    -9800.00
03392            -100.00   -10000.00
03393            -100.00   -10000.00
03394            -140.00   -10000.00
03395            -100.00   -10200.00
03396             -80.00   -10400.00
03397            -100.00   -10600.00
03398            -100.00   -10600.00
03399            -100.00   -10600.00
03400            -100.00   -10800.00
03401            -100.00   -10800.00
03402             -60.00   -11000.00
03403             -80.00   -11000.00
03404            -100.00   -11000.00
03405            -100.00   -11000.00
03406            -100.00   -11000.00
03407            -100.00   -11400.00
03408            -100.00   -11200.00
03409             -60.00   -11400.00
03410            -100.00   -11400.00
03411            -100.00   -11400.00
03412            -100.00   -11400.00
03413            -100.00   -11400.00
03414            -100.00   -11400.00
03415            -100.00   -11600.00
03416             -80.00   -11400.00
03417            -100.00   -11400.00
03418            -100.00   -11600.00
03419             -80.00   -11400.00
03420            -100.00   -11600.00
03421             -80.00   -11800.00
03422             -80.00   -11600.00
03423             -60.00   -11400.00
03424             -80.00   -11600.00
03425            -100.00   -11600.00
03426             -80.00   -11400.00
03427             -80.00   -11400.00
03428             -80.00   -11400.00
03429             -60.00   -11400.00
03430             -60.00   -11400.00
03431             -80.00   -11400.00
03432             -80.00   -11400.00
03433             -80.00   -11000.00
03434            -100.00   -11000.00
03435             -80.00   -11200.00
03436             -60.00   -11000.00
03437             -60.00   -11000.00
03438             -80.00   -10800.00
03439             -60.00   -11000.00
03440             -80.00   -10800.00
03441             -80.00   -10600.00
03442             -80.00   -10800.00
03443             -60.00   -10600.00
03444             -60.00   -10600.00
03445             -60.00   -10600.00
03446             -80.00   -10200.00
03447             -60.00   -10000.00
03448             -60.00   -10200.00
03449             -60.00    -9800.00
03450             -80.00    -9800.00
03451             -60.00    -9800.00
03452             -60.00    -9600.00
03453             -60.00    -9400.00
03454             -60.00    -9400.00
03455             -40.00    -9200.00
03456             -20.00    -9200.00
03457             -20.00    -9000.00
03458             -60.00    -8800.00
03459             -60.00    -8600.00
03460             -20.00    -8400.00
03461             -20.00    -8200.00
03462             -20.00    -8200.00
03463             -20.00    -8000.00
03464             -20.00    -7800.00
03465             -20.00    -7600.00
03466             -20.00    -7400.00
03467             -20.00    -7200.00
03468             -20.00    -7200.00
03469               0.00    -7000.00
03470               0.00    -6800.00
03471             -20.00    -6800.00
03472             -20.00    -6600.00
03473             -20.00    -6400.00
03474               0.00    -6200.00
03475               0.00    -6000.00
03476               0.00    -5800.00
03477               0.00    -5600.00
03478             -20.00    -5400.00
03479               0.00    -5000.00
03480               0.00    -5000.00
03481               0.00    -5000.00
03482               0.00    -4600.00
03483               0.00    -4600.00
03484              20.00    -4400.00
03485               0.00    -4200.00
03486               0.00    -3800.00
03487              20.00    -3600.00
03488               0.00    -3400.00
03489              20.00    -3200.00
03490              20.00    -3000.00
03491               0.00    -2800.00
03492              20.00    -2600.00
03493               0.00    -2400.00
03494              20.00    -2200.00
03495              40.00    -1800.00
03496              20.00    -1800.00
03497              20.00    -1600.00
03498              20.00    -1200.00
03499              20.00    -1000.00
03500              20.00     -800.00
03501              40.00     -600.00
03502              20.00     -400.00
03503              20.00     -200.00
03504              60.00        0.00
03505              60.00      200.00
03506             100.00      400.00
03507             160.00      600.00
03508             180.00      800.00
03509             140.00     1000.00
03510             140.00     1000.00
03511             140.00     1400.00
03512             160.00     1400.00
03513             460.00     1800.00
03514            1040.00     2200.00
03515             700.00     2200.00
03516            -380.00     2400.00
03517            -900.00     2600.00
03518            -900.00     2800.00
03519            -240.00     3400.00
03520             800.00     3400.00
03521             100.00     3200.00
03522              60.00     4200.00
03523             300.00     3600.00
03524            -160.00     4200.00
03525             220.00     4800.00
03526              80.00     4200.00
03527             140.00     5200.00
03528             400.00     5000.00
03529            -120.00     5000.00
03530              20.00     5600.00
03531              80.00     5400.00
03532              80.00     6000.00
03533             140.00     5800.00
03534              60.00     6000.00
03535             180.00     6600.00
03536             -20.00     6200.00
03537             160.00     6800.00
03538             140.00     6600.00
03539              80.00     7000.00
03540              80.00     7200.00
03541             100.00     7200.00
03542             160.00     7800.00
03543              20.00     7400.00
03544             100.00     7800.00
03545             100.00     8000.00
03546             180.00     8200.00
03547              80.00     8400.00
03548             120.00     8400.00
03549             100.00     8600.00
03550              80.00     8600.00
03551             160.00     9000.00
03552              80.00     9000.00
03553             100.00     9400.00
03554              40.00     9400.00
03555             120.00     9400.00
03556             140.00     9600.00
03557             140.00     9800.00
03558             100.00    10000.00
03559              80.00    10000.00
03560              80.00    10000.00
03561             100.00    10200.00
03562             140.00    10200.00
03563             100.00    10400.00
03564             100.00    10400.00
03565              80.00    10600.00
03566              80.00    10600.00
03567             100.00    10600.00
03568             140.00    10600.00
03569             100.00    10800.00
03570              80.00    11000.00
03571              80.00    11000.00
03572              80.00    11000.00
03573              80.00    11000.00
03574              80.00    11000.00
03575             100.00    11000.00
03576             100.00    11400.00
03577              80.00    11400.00
03578              80.00    11400.00
03579              80.00    11400.00
03580              80.00    11400.00
03581             100.00    11600.00
03582             100.00    11400.00
03583              80.00    11600.00
03584              80.00    11600.00
03585              80.00    11400.00
03586              80.00    11600.00
03587              80.00    11600.00
03588              80.00    11600.00
03589             100.00    11600.00
03590              80.00    11600.00
03591              80.00    11600.00
03592              80.00    11600.00
03593              80.00    11600.00
03594              80.00    11400.00
03595             100.00    11600.00
03596             100.00    11400.00
03597              80.00    11400.00
03598              60.00    11400.00
03599              60.00    11400.00
03600              80.00    11200.00
03601              60.00    11000.00
03602              80.00    11000.00
03603              80.00    11000.00
03604              80.00    11000.00
03605              80.00    11000.00
03606              60.00    10800.00
03607              60.00    10800.00
03608              80.00    10800.00
03609              80.00    10600.00
03610              60.00    10600.00
03611              60.00    10600.00
03612              60.00    10600.00
03613              60.00    10200.00
03614              60.00    10200.00
03615              80.00    10000.00
03616              60.00    10000.00
03617              40.00     9800.00
03618              60.00     9800.00
03619              40.00     9800.00
03620              60.00     9400.00
03621              40.00     9400.00
03622              60.00     9200.00
03623              40.00     9200.00
03624              40.00     8800.00
03625              20.00     9000.00
03626              20.00     8600.00
03627              20.00     8600.00
03628              40.00     8400.00
03629              20.00     8200.00
03630               0.00     8200.00
03631               0.00     7800.00
03632              20.00     7800.00
03633               0.00     7400.00
03634               0.00     7400.00
03635               0.00     7400.00
03636               0.00     7000.00
03637              20.00     7000.00
03638               0.00     6600.00
03639               0.00     6600.00
03640               0.00     6600.00
03641               0.00     6200.00
03642               0.00     6200.00
03643               0.00     5800.00
03644             -20.00     5600.00
03645             -20.00     5400.00
03646               0.00     5400.00
03647               0.00     5200.00
03648               0.00     5000.00
03649               0.00     4600.00
03650             -20.00     4600.00
03651             -20.00     4200.00
03652             -20.00     4000.00
03653               0.00     3800.00
03654             -20.00     3600.00
03655             -20.00     3400.00
03656               0.00     3400.00
03657             -20.00     3000.00
03658             -60.00     2800.00
03659             -20.00     2600.00
03660             -20.00     2400.00
03661             -20.00     2200.00
03662             -20.00     1800.00
03663             -20.00     1800.00
03664             -20.00     1400.00
03665             -20.00     1400.00
03666             -20.00     1200.00
03667             -40.00     1000.00
03668             -40.00      600.00
03669             -20.00      600.00
03670             -20.00      400.00
03671             -20.00      200.00
03672             -20.00     -200.00
03673               0.00     -400.00
03674              60.00     -600.00
03675              80.00     -800.00
03676              60.00    -1000.00
03677              20.00    -1200.00
03678              20.00    -1200.00
03679               0.00    -1400.00
03680              80.00    -1800.00
03681             420.00    -1800.00
03682             800.00    -2400.00
03683             300.00    -2600.00
03684            -540.00    -2800.00
03685            -780.00    -3000.00
03686            -720.00    -2800.00
03687            -480.00    -3000.00
03688             320.00    -3600.00
03689              80.00    -3800.00
03690            -100.00    -3600.00
03691             220.00    -4400.00
03692            -180.00    -4200.00
03693              60.00    -4200.00
03694              80.00    -5000.00
03695            -100.00    -4600.00
03696             140.00    -5400.00
03697             -20.00    -5200.00
03698            -200.00    -5600.00
03699            -180.00    -5800.00
03700             -20.00    -5400.00
03701               0.00    -6200.00
03702            -140.00    -6000.00
03703             -20.00    -6400.00
03704            -100.00    -6400.00
03705            -100.00    -6800.00
03706             -20.00    -7000.00
03707             -60.00    -6800.00
03708             -80.00    -7400.00
03709            -100.00    -7200.00
03710             -40.00    -7600.00
03711            -100.00    -7800.00
03712            -140.00    -7800.00
03713             -60.00    -8200.00
03714             -20.00    -8200.00
03715            -100.00    -8600.00
03716            -100.00    -8600.00
03717             -60.00    -8600.00
03718            -100.00    -9000.00
03719             -80.00    -9000.00
03720             -80.00    -9000.00
03721            -100.00    -9200.00
03722            -140.00    -9400.00
03723             -60.00    -9400.00
03724             -60.00    -9600.00
03725            -100.00    -9800.00
03726            -100.00    -9800.00
03727             -80.00   -10000.00
03728            -100.00   -10000.00
03729            -100.00   -10200.00
03730             -60.00   -10200.00
03731             -80.00   -10600.00
03732            -140.00   -10600.00
03733            -100.00   -10600.00
03734             -80.00   -10600.00
03735            -100.00   -10600.00
03736             -60.00   -10800.00
03737             -60.00   -10800.00
03738            -100.00   -11000.00
03739            -120.00   -11000.00
03740             -80.00   -11200.00
03741            -100.00   -11200.00
03742            -100.00   -11000.00
03743            -100.00   -11400.00
03744             -60.00   -11400.00
03745             -80.00   -11400.00
03746            -100.00   -11400.00
03747             -80.00   -11400.00
03748            -100.00   -11600.00
03749            -100.00   -11600.00
03750            -100.00   -11400.00
03751             -80.00   -11400.00
03752             -80.00   -11600.00
03753            -100.00   -11600.00
03754             -80.00   -11600.00
03755             -80.00   -11600.00
03756            -100.00   -11600.00
03757             -80.00   -11600.00
03758             -60.00   -11600.00
03759             -80.00   -11600.00
03760            -100.00   -11600.00
03761            -100.00   -11400.00
03762             -80.00   -11400.00
03763             -80.00   -11400.00
03764             -40.00   -11400.00
03765             -40.00   -11400.00
03766             -60.00   -11400.00
03767             -60.00   -11400.00
03768             -80.00   -11400.00
03769            -100.00   -11000.00
03770            -100.00   -11000.00
03771            -100.00   -11000.00
03772            -100.00   -11000.00
03773             -80.00   -11000.00
03774             -20.00   -10800.00
03775             -20.00   -10800.00
03776               0.00   -10800.00
03777             -20.00   -10600.00
03778             -60.00   -10600.00
03779            -100.00   -10600.00
03780            -100.00   -10400.00
03781            -100.00   -10200.00
03782             -80.00   -10000.00
03783             -60.00   -10000.00
03784             -20.00    -9800.00
03785             -20.00    -9800.00
03786             -20.00    -9800.00
03787             -40.00    -9400.00
03788             -60.00    -9400.00
03789             -60.00    -9200.00
03790             -60.00    -9200.00
03791             -60.00    -9000.00
03792             -40.00    -8800.00
03793             -20.00    -8800.00
03794             -20.00    -8600.00
03795             -20.00    -8400.00
03796               0.00    -8400.00
03797             -20.00    -8200.00
03798             -20.00    -7800.00
03799             -60.00    -7800.00
03800             -20.00    -7600.00
03801             -20.00    -7400.00
03802             -20.00    -7200.00
03803             -20.00    -7000.00
03804             -20.00    -6800.00
03805             -20.00    -6800.00
03806             -20.00    -6600.00
03807               0.00    -6600.00
03808               0.00    -6200.00
03809               0.00    -6000.00
03810               0.00    -6000.00
03811             -20.00    -5800.00
03812             -20.00    -5400.00
03813             -40.00    -5400.00
03814               0.00    -5200.00
03815              20.00    -5000.00
03816              40.00    -4800.00
03817              20.00    -4600.00
03818               0.00    -4400.00
03819             -20.00    -4200.00
03820             -20.00    -3800.00
03821               0.00    -3600.00
03822              60.00    -3600.00
03823              60.00    -3400.00
03824              20.00    -3000.00
03825              20.00    -2800.00
03826               0.00    -2600.00
03827               0.00    -2600.00
03828               0.00    -2200.00
03829               0.00    -2000.00
03830               0.00    -2000.00
03831              60.00    -1800.00
03832              20.00    -1400.00
03833              20.00    -1200.00
03834              20.00    -1000.00
03835               0.00     -800.00
03836              20.00     -600.00
03837              20.00     -400.00
03838              60.00     -200.00
03839              60.00      200.00
03840              60.00      400.00
03841             120.00      600.00
03842             160.00      600.00
03843             160.00     1000.00
03844             140.00     1000.00
03845             140.00     1400.00
03846             140.00     1400.00
03847             240.00     1800.00
03848             800.00     2000.00
03849            1040.00     2200.00
03850             160.00     2600.00
03851            -760.00     2600.00
03852            -940.00     2600.00
03853            -720.00     3200.00
03854             460.00     3400.00
03855             580.00     3000.00
03856            -100.00     3600.00
03857             320.00     3800.00
03858              20.00     3800.00
03859             -60.00     4600.00
03860             240.00     4200.00
03861             -20.00     4400.00
03862             380.00     5200.00
03863             140.00     4600.00
03864            -100.00     5800.00
03865             140.00     5400.00
03866              20.00     5600.00
03867             160.00     6000.00
03868              60.00     5800.00
03869             160.00     6600.00
03870             100.00     6200.00
03871              40.00     6600.00
03872             220.00     6800.00
03873             100.00     6800.00
03874             100.00     7400.00
03875              60.00     7200.00
03876             160.00     7600.00
03877              80.00     7600.00
03878              60.00     7600.00
03879             100.00     8200.00
03880             140.00     8000.00
03881             140.00     8400.00
03882              60.00     8400.00
03883             140.00     8600.00
03884              80.00     8600.00
03885             140.00     8800.00
03886             140.00     9000.00
03887             100.00     9000.00
03888              60.00     9200.00
03889              60.00     9400.00
03890             120.00     9600.00
03891             100.00     9600.00
03892             120.00     9800.00
03893              80.00    10000.00
03894              60.00     9800.00
03895              80.00    10000.00
03896             140.00    10200.00
03897             120.00    10200.00
03898             100.00    10200.00
03899              80.00    10600.00
03900              80.00    10600.00
03901              80.00    10600.00
03902             100.00    10800.00
03903             140.00    10800.00
03904             100.00    10800.00
03905              80.00    11000.00
03906              80.00    10800.00
03907              80.00    11000.00
03908              60.00    11000.00
03909             100.00    11200.00
03910             100.00    11400.00
03911             100.00    11400.00
03912              80.00    11400.00
03913              80.00    11600.00
03914              60.00    11400.00
03915             100.00    11600.00
03916             100.00    11600.00
03917             100.00    11600.00
03918             100.00    11600.00
03919              80.00    11600.00
03920              80.00    11600.00
03921              80.00    11800.00
03922              80.00    11600.00
03923             100.00    11600.00
03924              80.00    11600.00
03925              80.00    11600.00
03926              80.00    11600.00
03927              80.00    11600.00
03928              80.00    11400.00
03929              80.00    11400.00
03930              80.00    11600.00
03931              80.00    11400.00
03932              80.00    11400.00
03933              60.00    11400.00
03934              60.00    11400.00
03935              60.00    11200.00
03936              80.00    11200.00
03937             100.00    11000.00
03938              80.00    11200.00
03939              80.00    11000.00
03940              60.00    11000.00
03941              60.00    10800.00
03942              60.00    10600.00
03943              80.00    10800.00
03944              60.00    10600.00
03945              80.00    10600.00
03946              60.00    10600.00
03947              60.00    10200.00
03948              60.00    10200.00
03949              60.00    10200.00
03950              80.00    10000.00
03951              60.00     9800.00
03952              60.00     9800.00
03953              40.00     9600.00
03954              20.00     9600.00
03955              20.00     9400.00
03956              60.00     9200.00
03957              60.00     9200.00
03958              20.00     9000.00
03959               0.00     9000.00
03960              20.00     8600.00
03961               0.00     8400.00
03962              20.00     8400.00
03963              20.00     8200.00
03964              20.00     8000.00
03965              20.00     7800.00
03966               0.00     7800.00
03967              20.00     7600.00
03968               0.00     7600.00
03969              20.00     7200.00
03970               0.00     7200.00
03971               0.00     7000.00
03972               0.00     7000.00
03973               0.00     6800.00
03974             -20.00     6600.00
03975               0.00     6200.00
03976               0.00     6000.00
03977               0.00     6000.00
03978               0.00     5800.00
03979             -20.00     5400.00
03980             -20.00     5400.00
03981             -20.00     5200.00
03982             -20.00     5000.00
03983               0.00     5000.00
03984               0.00     4600.00
03985               0.00     4400.00
03986               0.00     4200.00
03987             -20.00     3800.00
03988             -20.00     3800.00
03989             -20.00     3600.00
03990             -20.00     3400.00
03991             -20.00     3400.00
03992             -20.00     3000.00
03993             -60.00     2600.00
03994             -20.00     2600.00
03995             -20.00     2400.00
03996             -20.00     2000.00
03997             -20.00     1800.00
03998             -20.00     1800.00
03999             -20.00     1400.00
04000             -20.00     1200.00
04001             -60.00     1000.00
04002             -60.00      800.00
04003             -60.00      600.00
04004             -20.00      400.00
04005             -60.00      200.00
04006             -20.00        0.00
04007             -20.00     -200.00
04008              20.00     -400.00
04009              80.00     -600.00
04010              60.00     -600.00
04011              20.00    -1000.00
04012               0.00    -1200.00
04013              20.00    -1200.00
04014              60.00    -1800.00
04015             220.00    -1800.00
04016             720.00    -2000.00
04017             640.00    -2600.00
04018            -160.00    -2600.00
04019            -740.00    -2800.00
04020            -720.00    -3000.00
04021            -720.00    -2800.00
04022             -60.00    -3200.00
04023             360.00    -3800.00
04024            -200.00    -3600.00
04025             100.00    -4000.00
04026              60.00    -4400.00
04027            -160.00    -4200.00
04028             160.00    -5000.00
04029            -100.00    -4600.00
04030              20.00    -5000.00
04031             100.00    -5400.00
04032            -160.00    -5200.00
04033            -180.00    -5800.00
04034            -100.00    -5400.00
04035              40.00    -5800.00
04036            -100.00    -6200.00
04037             -80.00    -6200.00
04038             -20.00    -6600.00
04039            -160.00    -6200.00
04040             -60.00    -7000.00
04041             -20.00    -6800.00
04042             -60.00    -7000.00
04043            -100.00    -7600.00
04044             -80.00    -7200.00
04045             -60.00    -7800.00
04046            -140.00    -7800.00
04047            -100.00    -8200.00
04048             -20.00    -8200.00
04049             -80.00    -8400.00
04050            -120.00    -8400.00
04051             -80.00    -8600.00
04052             -60.00    -8600.00
04053             -80.00    -8800.00
04054             -80.00    -9200.00
04055            -100.00    -9200.00
04056            -100.00    -9400.00
04057            -100.00    -9400.00
04058             -60.00    -9400.00
04059            -100.00    -9800.00
04060            -100.00    -9800.00
04061             -80.00   -10000.00
04062            -100.00   -10200.00
04063            -100.00   -10200.00
04064            -100.00   -10200.00
04065             -60.00   -10200.00
04066             -80.00   -10600.00
04067            -100.00   -10600.00
04068            -100.00   -10600.00
04069            -100.00   -10800.00
04070            -100.00   -10600.00
04071             -80.00   -10800.00
04072             -80.00   -11000.00
04073            -100.00   -11000.00
04074            -100.00   -11000.00
04075            -100.00   -11000.00
04076            -100.00   -11200.00
04077             -80.00   -11000.00
04078             -60.00   -11400.00
04079             -60.00   -11400.00
04080            -100.00   -11400.00
04081            -120.00   -11400.00
04082            -100.00   -11400.00
04083            -100.00   -11600.00
04084             -80.00   -11400.00
04085             -80.00   -11600.00
04086             -80.00   -11600.00
04087            -100.00   -11600.00
04088            -100.00   -11600.00
04089            -100.00   -11600.00
04090             -80.00   -11600.00
04091             -80.00   -11600.00
04092            -100.00   -11600.00
04093            -100.00   -11600.00
04094            -100.00   -11400.00
04095            -100.00   -11600.00
04096             -80.00   -11600.00
04097             -80.00   -11400.00
04098             -60.00   -11400.00
04099             -80.00   -11400.00
04100            -100.00   -11400.00
04101             -80.00   -11200.00
04102             -80.00   -11200.00
04103             -80.00   -11200.00
04104             -60.00   -11000.00
04105             -60.00   -11000.00
04106             -60.00   -11000.00
04107             -80.00   -11000.00
04108             -80.00   -10800.00
04109             -80.00   -10800.00
04110             -80.00   -10600.00
04111             -60.00   -10600.00
04112             -60.00   -10600.00
04113             -80.00   -10600.00
04114             -60.00   -10200.00
04115             -60.00   -10200.00
04116             -60.00   -10200.00
04117             -60.00   -10000.00
04118             -20.00    -9800.00
04119             -60.00    -9800.00
04120             -60.00    -9800.00
04121             -60.00    -9600.00
04122             -60.00    -9400.00
04123             -40.00    -9400.00
04124             -20.00    -9200.00
04125             -20.00    -9000.00
04126             -60.00    -9000.00
04127             -60.00    -8600.00
04128             -40.00    -8600.00
04129             -20.00    -8600.00
04130             -20.00    -8400.00
04131               0.00    -8200.00
04132             -20.00    -8200.00
04133             -20.00    -7800.00
04134             -40.00    -7600.00
04135             -20.00    -7600.00
04136             -20.00    -7200.00
04137             -20.00    -7200.00
04138               0.00    -7000.00
04139             -20.00    -6800.00
04140             -20.00    -6800.00
04141             -20.00    -6600.00
04142               0.00    -6400.00
04143             -20.00    -6200.00
04144               0.00    -6000.00
04145               0.00    -5800.00
04146               0.00    -5600.00
04147               0.00    -5400.00
04148               0.00    -5200.00
04149               0.00    -5000.00
04150               0.00    -5000.00
04151               0.00    -4600.00
04152               0.00    -4600.00
04153               0.00    -4400.00
04154               0.00    -4200.00
04155               0.00    -3800.00
04156               0.00    -3600.00
04157               0.00    -3400.00
04158              20.00    -3200.00
04159               0.00    -3000.00
04160               0.00    -2800.00
04161               0.00    -2600.00
04162               0.00    -2400.00
04163              20.00    -2200.00
04164              20.00    -2000.00
04165              20.00    -1800.00
04166              20.00    -1600.00
04167              20.00    -1200.00
04168              20.00     -800.00
04169              20.00     -800.00
04170              20.00     -600.00
04171              20.00     -400.00
04172              40.00     -200.00
04173              40.00        0.00
04174              60.00      200.00
04175             100.00      400.00
04176             160.00      600.00
04177             180.00      800.00
04178             160.00     1000.00
04179             120.00     1200.00
04180             140.00     1400.00
04181             140.00     1600.00
04182             460.00     1800.00
04183            1060.00     2200.00
04184             700.00     2400.00
04185            -400.00     2600.00
04186            -900.00     2600.00
04187            -900.00     2800.00
04188            -180.00     3400.00
04189             820.00     3400.00
04190             100.00     3200.00
04191              80.00     3800.00
04192             300.00     3800.00
04193            -160.00     4200.00
04194             220.00     4600.00
04195              80.00     4200.00
04196             160.00     5000.00
04197             400.00     4800.00
04198            -140.00     5000.00
04199              60.00     5600.00
04200              60.00     5200.00
04201              80.00     6000.00
04202             140.00     5800.00
04203              80.00     6000.00
04204             200.00     6600.00
04205               0.00     6200.00
04206             140.00     6800.00
04207             160.00     6600.00
04208              80.00     7000.00
04209             100.00     7200.00
04210             100.00     7000.00
04211             140.00     7600.00
04212              40.00     7600.00
04213             100.00     7800.00
04214             100.00     8000.00
04215             160.00     8200.00
04216              80.00     8200.00
04217              80.00     8400.00
04218             100.00     8600.00
04219              80.00     8600.00
04220             140.00     9000.00
04221             100.00     9000.00
04222             100.00     9200.00
04223              60.00     9200.00
04224             100.00     9400.00
04225             100.00     9600.00
04226             120.00     9800.00
04227             100.00    10000.00
04228              80.00    10000.00
04229              60.00    10000.00
04230              80.00    10200.00
04231             140.00    10200.00
04232             100.00    10200.00
04233             100.00    10400.00
04234              80.00    10600.00
04235              60.00    10600.00
04236             100.00    10600.00
04237             120.00    10800.00
04238             100.00    10800.00
04239              80.00    10800.00
04240              80.00    11000.00
04241             100.00    11000.00
04242              80.00    11200.00
04243             100.00    11200.00
04244             100.00    11200.00
04245             100.00    11400.00
04246             100.00    11400.00
04247              80.00    11400.00
04248              80.00    11400.00
04249              80.00    11400.00
04250             100.00    11600.00
04251             100.00    11600.00
04252              80.00    11600.00
04253              80.00    11600.00
04254              80.00    11600.00
04255              80.00    11600.00
04256              80.00    11400.00
04257              80.00    12000.00
04258             100.00    11600.00
04259             100.00    11600.00
04260             100.00    11600.00
04261              80.00    11400.00
04262              60.00    11400.00
04263              80.00    11600.00
04264              80.00    11400.00
04265              80.00    11600.00
04266              80.00    11600.00
04267              80.00    11400.00
04268              80.00    11400.00
04269              80.00    11200.00
04270              60.00    11200.00
04271              80.00    11000.00
04272              80.00    11000.00
04273              80.00    11000.00
04274              60.00    11000.00
04275              60.00    11000.00
04276              60.00    10800.00
04277              80.00    10800.00
04278              80.00    10600.00
04279              60.00    10600.00
04280              40.00    10600.00
04281              60.00    10400.00
04282              60.00    10400.00
04283              60.00    10200.00
04284              60.00    10000.00
04285              60.00    10000.00
04286              20.00    10000.00
04287              40.00     9800.00
04288              20.00     9800.00
04289              20.00     9400.00
04290              40.00     9200.00
04291              60.00     9200.00
04292              60.00     9000.00
04293              20.00     9000.00
04294               0.00     8800.00
04295              20.00     8600.00
04296              20.00     8600.00
04297              20.00     8200.00
04298              20.00     8200.00
04299              20.00     8200.00
04300               0.00     7800.00
04301              20.00     7800.00
04302              20.00     7600.00
04303               0.00     7400.00
04304               0.00     7000.00
04305              20.00     7000.00
04306              20.00     7000.00
04307               0.00     6800.00
04308             -20.00     6600.00
04309               0.00     6400.00
04310               0.00     6200.00
04311              20.00     6000.00
04312               0.00     5800.00
04313               0.00     5800.00
04314             -20.00     5600.00
04315             -20.00     5200.00
04316               0.00     5200.00
04317             -20.00     5000.00
04318               0.00     4600.00
04319               0.00     4400.00
04320               0.00     4200.00
04321             -20.00     4200.00
04322             -20.00     3800.00
04323             -20.00     3800.00
04324               0.00     3600.00
04325               0.00     3200.00
04326               0.00     3000.00
04327             -20.00     2800.00
04328             -60.00     2800.00
04329             -60.00     2600.00
04330             -20.00     2200.00
04331             -20.00     2000.00
04332             -20.00     1800.00
04333             -60.00     1400.00
04334             -60.00     1200.00
04335             -20.00     1200.00
04336             -20.00     1000.00
04337             -20.00      600.00
04338             -20.00      400.00
04339             -20.00      400.00
04340             -60.00        0.00
04341             -20.00     -200.00
04342               0.00     -400.00
04343              60.00     -400.00
04344              60.00     -600.00
04345              20.00    -1000.00
04346              20.00    -1200.00
04347              20.00    -1400.00
04348              20.00    -1600.00
04349              60.00    -1600.00
04350             420.00    -2000.00
04351             800.00    -2600.00
04352             300.00    -2600.00
04353            -560.00    -2800.00
04354            -780.00    -3000.00
04355            -740.00    -3000.00
04356            -480.00    -3000.00
04357             320.00    -3600.00
04358              60.00    -3800.00
04359            -100.00    -3600.00
04360             220.00    -4400.00
04361            -160.00    -4200.00
04362              20.00    -4400.00
04363              60.00    -5000.00
04364            -100.00    -4800.00
04365             140.00    -5200.00
04366             -20.00    -5000.00
04367            -180.00    -5800.00
04368            -160.00    -6000.00
04369             -20.00    -5600.00
04370             -20.00    -6200.00
04371            -160.00    -6200.00
04372             -20.00    -6400.00
04373             -80.00    -6600.00
04374             -80.00    -6800.00
04375             -20.00    -7000.00
04376             -60.00    -6800.00
04377             -80.00    -7400.00
04378            -100.00    -7400.00
04379             -60.00    -7600.00
04380             -80.00    -8000.00
04381            -100.00    -7800.00
04382             -60.00    -8400.00
04383             -20.00    -8400.00
04384            -100.00    -8600.00
04385            -100.00    -8600.00
04386             -40.00    -8800.00
04387             -80.00    -8800.00
04388             -80.00    -9200.00
04389             -80.00    -9200.00
04390            -100.00    -9400.00
04391            -140.00    -9400.00
04392             -60.00    -9400.00
04393             -60.00    -9600.00
04394             -80.00    -9800.00
04395             -80.00   -10000.00
04396             -80.00   -10000.00
04397            -100.00   -10000.00
04398            -100.00   -10200.00
04399             -60.00   -10200.00
04400             -80.00   -10200.00
04401            -100.00   -10600.00
04402            -100.00   -10600.00
04403             -80.00   -10600.00
04404            -100.00   -10800.00
04405             -80.00   -10800.00
04406             -60.00   -11000.00
04407             -80.00   -11000.00
04408            -100.00   -11000.00
04409            -100.00   -11000.00
04410            -100.00   -11400.00
04411            -100.00   -11400.00
04412             -80.00   -11200.00
04413             -60.00   -11400.00
04414             -80.00   -11400.00
04415            -100.00   -11400.00
04416            -100.00   -11600.00
04417            -100.00   -11400.00
04418            -100.00   -11600.00
04419             -80.00   -11600.00
04420             -80.00   -11600.00
04421            -100.00   -11600.00
04422            -100.00   -11600.00
04423            -100.00   -11600.00
04424            -100.00   -11400.00
04425            -100.00   -11800.00
04426             -80.00   -11600.00
04427             -80.00   -11600.00
04428             -80.00   -11600.00
04429             -80.00   -11400.00
04430             -80.00   -11400.00
04431             -80.00   -11400.00
04432             -60.00   -11400.00
04433             -60.00   -11400.00
04434             -80.00   -11400.00
04435             -80.00   -11400.00
04436             -80.00   -11200.00
04437             -80.00   -11200.00
04438             -60.00   -11200.00
04439             -80.00   -11000.00
04440             -60.00   -11000.00
04441             -60.00   -11000.00
04442             -60.00   -11000.00
04443             -60.00   -10800.00
04444             -60.00   -10800.00
04445             -40.00   -10800.00
04446             -60.00   -10600.00
04447             -40.00   -10600.00
04448             -60.00   -10400.00
04449             -80.00   -10400.00
04450             -60.00   -10200.00
04451             -60.00   -10000.00
04452             -20.00   -10000.00
04453             -60.00   -10000.00
04454             -60.00    -9800.00
04455             -60.00    -9600.00
04456             -60.00    -9600.00
04457             -20.00    -9400.00
04458             -20.00    -9200.00
04459             -20.00    -9200.00
04460             -40.00    -9000.00
04461             -20.00    -9000.00
04462             -20.00    -8800.00
04463             -20.00    -8400.00
04464             -20.00    -8400.00
04465             -20.00    -8400.00
04466             -20.00    -8200.00
04467             -20.00    -7800.00
04468             -20.00    -7800.00
04469             -20.00    -7600.00
04470             -20.00    -7200.00
04471             -20.00    -7400.00
04472             -20.00    -7200.00
04473               0.00    -7000.00
04474               0.00    -6800.00
04475               0.00    -6600.00
04476               0.00    -6400.00
04477             -20.00    -6400.00
04478             -20.00    -6000.00
04479             -20.00    -6000.00
04480             -20.00    -5800.00
04481               0.00    -5400.00
04482               0.00    -5200.00
04483             -20.00    -5200.00
04484               0.00    -5000.00
04485               0.00    -4800.00
04486               0.00    -4600.00
04487               0.00    -4400.00
04488               0.00    -4200.00
04489               0.00    -3800.00
04490               0.00    -3600.00
04491               0.00    -3400.00
04492               0.00    -3400.00
04493               0.00    -3200.00
04494              20.00    -3000.00
04495              20.00    -2600.00
04496              20.00    -2400.00
04497               0.00    -2400.00
04498              20.00    -2200.00
04499              20.00    -2000.00
04500               0.00    -1800.00
04501              20.00    -1400.00
04502              20.00    -1200.00
04503              20.00     -800.00
04504              40.00     -800.00
04505              20.00     -600.00
04506              20.00     -400.00
04507              60.00        0.00
04508              40.00      200.00
04509              80.00      400.00
04510             140.00      600.00
04511             180.00      600.00
04512             160.00     1000.00
04513             140.00     1000.00
04514             100.00     1400.00
04515             160.00     1400.00
04516             240.00     1800.00
04517             820.00     2000.00
04518            1060.00     2200.00
04519             140.00     2400.00
04520            -780.00     2600.00
04521            -940.00     2600.00
04522            -700.00     3400.00
04523             500.00     3600.00
04524             580.00     3200.00
04525            -100.00     3600.00
04526             320.00     3800.00
04527               0.00     3800.00
04528             -20.00     4600.00
04529             260.00     4200.00
04530               0.00     4600.00
04531             400.00     5200.00
04532             140.00     4600.00
04533            -100.00     5600.00
04534             100.00     5400.00
04535              20.00     5600.00
04536             180.00     6200.00
04537              80.00     5400.00
04538             160.00     6600.00
04539             100.00     6200.00
04540               0.00     6600.00
04541             200.00     6800.00
04542              80.00     6800.00
04543             100.00     7400.00
04544              80.00     7000.00
04545             160.00     7600.00
04546              60.00     7600.00
04547              40.00     7600.00
04548             140.00     8000.00
04549             160.00     8200.00
04550             140.00     8400.00
04551              60.00     8400.00
04552             140.00     8600.00
04553              60.00     8600.00
04554             100.00     9000.00
04555             100.00     9000.00
04556             100.00     9200.00
04557              60.00     9200.00
04558              80.00     9400.00
04559             140.00     9600.00
04560              80.00     9800.00
04561             120.00     9600.00
04562             100.00    10000.00
04563              80.00    10000.00
04564              60.00    10000.00
04565             140.00    10200.00
04566             100.00    10200.00
04567             100.00    10400.00
04568              80.00    10600.00
04569              80.00    10600.00
04570              80.00    10600.00
04571             120.00    10800.00
04572             140.00    10800.00
04573              80.00    10800.00
04574              80.00    11000.00
04575             100.00    11000.00
04576              80.00    11000.00
04577              80.00    11200.00
04578             100.00    11000.00
04579             100.00    11200.00
04580             100.00    11400.00
04581              80.00    11400.00
04582             100.00    11400.00
04583              80.00    11400.00
04584             100.00    11400.00
04585             100.00    11600.00
04586             100.00    11600.00
04587              80.00    11600.00
04588             100.00    11600.00
04589              80.00    11600.00
04590             100.00    11600.00
04591              80.00    11600.00
04592             100.00    11600.00
04593              80.00    11600.00
04594              80.00    11600.00
04595              80.00    11400.00
04596              60.00    11600.00
04597              80.00    11400.00
04598              80.00    11400.00
04599              80.00    11600.00
04600              80.00    11400.00
04601              80.00    11400.00
04602              60.00    11400.00
04603              80.00    11200.00
04604              80.00    11400.00
04605              80.00    11000.00
04606              80.00    11000.00
04607              60.00    11000.00
04608              60.00    11000.00
04609              60.00    10800.00
04610              60.00    10800.00
04611              80.00    10600.00
04612              80.00    10600.00
04613              60.00    10600.00
04614              60.00    10600.00
04615              40.00    10400.00
04616              60.00    10200.00
04617              60.00    10200.00
04618              60.00    10000.00
04619              60.00    10000.00
04620              60.00     9800.00
04621              40.00     9800.00
04622              20.00     9800.00
04623              20.00     9600.00
04624              60.00     9400.00
04625              40.00     9400.00
04626              20.00     9200.00
04627              20.00     9000.00
04628               0.00     8800.00
04629               0.00     8600.00
04630               0.00     8600.00
04631              20.00     8400.00
04632              20.00     8200.00
04633              20.00     8200.00
04634               0.00     8000.00
04635              20.00     7800.00
04636               0.00     7600.00
04637              20.00     7600.00
04638               0.00     7400.00
04639               0.00     7200.00
04640              20.00     7000.00
04641               0.00     6800.00
04642               0.00     6600.00
04643               0.00     6600.00
04644               0.00     6200.00
04645               0.00     6200.00
04646               0.00     6000.00
04647               0.00     5800.00
04648               0.00     5400.00
04649             -20.00     5600.00
04650               0.00     5200.00
04651               0.00     5000.00
04652             -20.00     4600.00
04653             -20.00     4400.00
04654               0.00     4400.00
04655             -20.00     4200.00
04656             -20.00     4000.00
04657             -20.00     3800.00
04658               0.00     3600.00
04659               0.00     3400.00
04660             -20.00     3200.00
04661             -20.00     3000.00
04662             -20.00     2600.00
04663             -40.00     2600.00
04664             -20.00     2200.00
04665             -20.00     2200.00
04666             -20.00     1800.00
04667             -20.00     1800.00
04668             -20.00     1400.00
04669             -40.00     1200.00
04670             -20.00     1000.00
04671             -40.00     1000.00
04672             -20.00      600.00
04673             -20.00      400.00
04674             -40.00      200.00
04675             -60.00        0.00
04676             -20.00     -400.00
04677              20.00     -400.00
04678              60.00     -600.00
04679              80.00     -600.00
04680               0.00    -1000.00
04681               0.00    -1400.00
04682               0.00    -1400.00
04683              40.00    -1800.00
04684             220.00    -1800.00
04685             720.00    -2200.00
04686             640.00    -2600.00
04687            -180.00    -2600.00
04688            -740.00    -2800.00
04689            -720.00    -3000.00
04690            -700.00    -2800.00
04691             -20.00    -3400.00
04692             340.00    -3800.00
04693            -180.00    -3600.00
04694             100.00    -4000.00
04695              20.00    -4400.00
04696            -160.00    -4200.00
04697             160.00    -4600.00
04698             -80.00    -4600.00
04699              20.00    -5200.00
04700             100.00    -5200.00
04701            -160.00    -5200.00
04702            -180.00    -6000.00
04703            -100.00    -5600.00
04704              60.00    -6000.00
04705            -120.00    -6200.00
04706             -80.00    -6200.00
04707             -20.00    -6600.00
04708            -140.00    -6600.00
04709             -20.00    -7000.00
04710             -20.00    -7000.00
04711             -60.00    -7200.00
04712            -100.00    -7600.00
04713             -60.00    -7200.00
04714             -40.00    -7800.00
04715            -120.00    -7800.00
04716            -100.00    -8200.00
04717             -20.00    -8200.00
04718             -80.00    -8400.00
04719            -100.00    -8600.00
04720             -60.00    -8600.00
04721             -80.00    -8800.00
04722             -80.00    -9000.00
04723             -80.00    -9200.00
04724             -80.00    -9200.00
04725            -100.00    -9400.00
04726            -100.00    -9400.00
04727             -20.00    -9600.00
04728             -80.00    -9800.00
04729            -100.00   -10000.00
04730             -80.00   -10000.00
04731            -100.00   -10200.00
04732            -100.00   -10200.00
04733             -80.00   -10200.00
04734             -60.00   -10400.00
04735            -100.00   -10600.00
04736            -140.00   -10600.00
04737             -80.00   -10800.00
04738            -100.00   -10800.00
04739            -100.00   -10800.00
04740             -80.00   -11000.00
04741             -80.00   -11000.00
04742            -100.00   -11000.00
04743            -100.00   -11000.00
04744            -100.00   -11200.00
04745            -100.00   -11200.00
04746             -80.00   -11400.00
04747             -60.00   -11400.00
04748            -100.00   -11600.00
04749            -100.00   -11400.00
04750            -100.00   -11400.00
04751            -100.00   -11400.00
04752            -100.00   -11600.00
04753            -100.00   -11600.00
04754             -80.00   -11600.00
04755            -100.00   -11600.00
04756            -100.00   -11600.00
04757            -100.00   -11600.00
04758            -100.00   -11600.00
04759            -100.00   -11600.00
04760             -60.00   -11800.00
04761             -80.00   -11600.00
04762             -80.00   -11600.00
04763             -80.00   -11800.00
04764             -80.00   -11600.00
04765             -80.00   -11400.00
04766             -80.00   -11400.00
04767             -60.00   -11400.00
04768             -60.00   -11400.00
04769             -80.00   -11400.00
04770             -80.00   -11200.00
04771             -60.00   -11200.00
04772             -80.00   -11400.00
04773             -60.00   -11200.00
04774             -60.00   -11000.00
04775             -60.00   -11000.00
04776             -80.00   -11000.00
04777             -60.00   -10800.00
04778             -80.00   -10800.00
04779             -60.00   -10800.00
04780             -20.00   -10800.00
04781             -40.00   -10600.00
04782             -60.00   -10400.00
04783             -60.00   -10400.00
04784             -60.00   -10200.00
04785             -60.00   -10200.00
04786             -60.00   -10000.00
04787             -40.00    -9800.00
04788             -20.00    -9800.00
04789             -40.00    -9800.00
04790             -40.00    -9400.00
04791             -60.00    -9600.00
04792             -20.00    -9400.00
04793             -20.00    -9200.00
04794             -20.00    -9000.00
04795             -20.00    -9000.00
04796             -20.00    -8800.00
04797             -20.00    -8600.00
04798             -20.00    -8600.00
04799             -20.00    -8400.00
04800             -20.00    -8200.00
04801             -20.00    -8200.00
04802             -20.00    -7800.00
04803             -20.00    -7600.00
04804             -60.00    -7600.00
04805             -20.00    -7400.00
04806             -20.00    -7200.00
04807             -20.00    -7000.00
04808             -20.00    -6800.00
04809             -20.00    -6800.00
04810             -20.00    -6600.00
04811             -20.00    -6200.00
04812               0.00    -6200.00
04813               0.00    -6000.00
04814               0.00    -5800.00
04815             -20.00    -5800.00
04816             -20.00    -5400.00
04817             -20.00    -5200.00
04818               0.00    -5000.00
04819               0.00    -5000.00
04820               0.00    -4600.00
04821               0.00    -4400.00
04822               0.00    -4200.00
04823               0.00    -4000.00
04824               0.00    -3800.00
04825               0.00    -3600.00
04826               0.00    -3600.00
04827              20.00    -3200.00
04828               0.00    -3000.00
04829              20.00    -2800.00
04830               0.00    -2800.00
04831               0.00    -2600.00
04832              20.00    -2200.00
04833              20.00    -2000.00
04834              40.00    -1600.00
04835              20.00    -1600.00
04836              20.00    -1400.00
04837              40.00    -1000.00
04838              40.00     -800.00
04839              40.00     -600.00
04840              60.00     -400.00
04841              60.00     -200.00
04842              20.00      200.00
04843              60.00      200.00
04844             100.00      400.00
04845             160.00      600.00
04846             180.00      600.00
04847             140.00     1000.00
04848             140.00     1200.00
04849             120.00     1400.00
04850             160.00     1600.00
04851             480.00     2000.00
04852            1080.00     2200.00
04853             700.00     2200.00
04854            -400.00     2600.00
04855            -900.00     2800.00
04856            -900.00     2800.00
04857            -160.00     3400.00
04858             820.00     3400.00
04859              80.00     3400.00
04860              80.00     3800.00
04861             300.00     3600.00
04862            -160.00     4200.00
04863             220.00     4600.00
04864              80.00     4200.00
04865             160.00     5000.00
04866             400.00     4800.00
04867            -140.00     5000.00
04868              40.00     5600.00
04869              60.00     5200.00
04870              80.00     6000.00
04871             140.00     5800.00
04872              60.00     6000.00
04873             180.00     6400.00
04874             -20.00     6200.00
04875             140.00     6800.00
04876             160.00     6600.00
04877              80.00     7000.00
04878             100.00     7200.00
04879              80.00     7200.00
04880             140.00     7800.00
04881              20.00     7400.00
04882             100.00     7800.00
04883             100.00     8000.00
04884             160.00     8200.00
04885              60.00     8200.00
04886             100.00     8400.00
04887              80.00     8600.00
04888              80.00     8600.00
04889             140.00     9000.00
04890             100.00     9000.00
04891              80.00     9200.00
04892              60.00     9200.00
04893             100.00     9400.00
04894             100.00     9400.00
04895             140.00     9600.00
04896             100.00     9800.00
04897              80.00    10000.00
04898              60.00    10000.00
04899             100.00    10000.00
04900             140.00    10200.00
04901             100.00    10200.00
04902              80.00    10600.00
04903              80.00    10600.00
04904              80.00    10600.00
04905             140.00    10600.00
04906             140.00    11000.00
04907             100.00    10800.00
04908              80.00    10800.00
04909              80.00    11200.00
04910             100.00    11000.00
04911             100.00    11200.00
04912             100.00    11000.00
04913             120.00    11400.00
04914             140.00    11400.00
04915             120.00    11400.00
04916              80.00    11600.00
04917              80.00    11400.00
04918             100.00    11600.00
04919             120.00    11400.00
04920             100.00    11400.00
04921             100.00    11600.00
04922              80.00    11600.00
04923              80.00    11600.00
04924             100.00    11400.00
04925              80.00    11600.00
04926              80.00    11600.00
04927             100.00    11400.00
04928              80.00    11600.00
04929              80.00    11400.00
04930              80.00    11400.00
04931              80.00    11400.00
04932              80.00    11600.00
04933              80.00    11600.00
04934             100.00    11600.00
04935              60.00    11400.00
04936              80.00    11400.00
04937              80.00    11400.00
04938              80.00    11200.00
04939              60.00    11000.00
04940              80.00    11000.00
04941              80.00    11000.00
04942              60.00    11000.00
04943              60.00    10800.00
04944              40.00    10800.00
04945              60.00    10800.00
04946              60.00    10600.00
04947              60.00    10600.00
04948              60.00    10600.00
04949              60.00    10400.00
04950              20.00    10400.00
04951              60.00    10200.00
04952              60.00    10200.00
04953              60.00    10000.00
04954              60.00     9800.00
04955              60.00     9800.00
04956              20.00     9600.00
04957              40.00     9600.00
04958              20.00     9400.00
04959              60.00     9400.00
04960              40.00     9200.00
04961              60.00     9200.00
04962              20.00     9000.00
04963              20.00     8800.00
04964              20.00     8600.00
04965              40.00     8400.00
04966              20.00     8400.00
04967              20.00     8200.00
04968              20.00     8200.00
04969              20.00     7800.00
04970              20.00     7800.00
04971              20.00     7600.00
04972              20.00     7400.00
04973              20.00     7000.00
04974               0.00     7000.00
04975              20.00     6800.00
04976               0.00     6800.00
04977               0.00     6600.00
04978               0.00     6400.00
04979               0.00     6000.00
04980               0.00     6000.00
04981               0.00     6000.00
04982               0.00     5800.00
04983               0.00     5400.00
04984               0.00     5200.00
04985               0.00     5000.00
04986               0.00     4800.00
04987               0.00     4600.00
04988               0.00     4400.00
04989             -20.00     4200.00
04990               0.00     4200.00
04991             -20.00     3800.00
04992             -20.00     3600.00
04993               0.00     3400.00
04994               0.00     3400.00
04995             -20.00     3200.00
04996             -20.00     2800.00
04997             -60.00     2600.00
04998             -20.00     2200.00
04999             -20.00     2200.00
05000             -20.00     2000.00
