Unit:(mV)
                     CH1         CH2
Frequency              ? 298.913 kHz
00001             720.00    -1800.00
00002             660.00    -2400.00
00003            -100.00    -2600.00
00004            -700.00    -2600.00
00005            -820.00    -2600.00
00006            -640.00    -2600.00
00007             400.00    -2800.00
00008             300.00    -3400.00
00009            -260.00    -3000.00
00010             300.00    -4000.00
00011              80.00    -3600.00
00012             -80.00    -3600.00
00013             220.00    -4200.00
00014             -80.00    -3800.00
00015             160.00    -4400.00
00016             220.00    -4600.00
00017            -140.00    -4600.00
00018             -80.00    -5200.00
00019              20.00    -4600.00
00020             100.00    -5400.00
00021               0.00    -5400.00
00022              80.00    -5400.00
00023              40.00    -5800.00
00024             -60.00    -5600.00
00025             160.00    -6000.00
00026              80.00    -6000.00
00027               0.00    -6200.00
00028              80.00    -6600.00
00029              80.00    -6600.00
00030              60.00    -6800.00
00031               0.00    -6800.00
00032              60.00    -7000.00
00033             120.00    -7000.00
00034              80.00    -7200.00
00035              60.00    -7600.00
00036              60.00    -7600.00
00037              80.00    -7600.00
00038              80.00    -7800.00
00039              80.00    -8000.00
00040              60.00    -8000.00
00041              60.00    -8200.00
00042              80.00    -8400.00
00043             120.00    -8400.00
00044              80.00    -8400.00
00045              80.00    -8600.00
00046              80.00    -8600.00
00047              60.00    -8800.00
00048              80.00    -9000.00
00049              80.00    -9000.00
00050             100.00    -9000.00
00051              80.00    -9200.00
00052             100.00    -9200.00
00053             100.00    -9200.00
00054              80.00    -9400.00
00055             100.00    -9400.00
00056             140.00    -9400.00
00057             100.00    -9600.00
00058             100.00    -9800.00
00059             100.00    -9600.00
00060             100.00    -9800.00
00061             120.00    -9800.00
00062             140.00    -9800.00
00063             140.00    -9800.00
00064             140.00   -10000.00
00065             100.00   -10000.00
00066             100.00   -10000.00
00067             100.00   -10000.00
00068             100.00   -10000.00
00069             140.00   -10000.00
00070             140.00   -10000.00
00071             120.00   -10200.00
00072             120.00   -10000.00
00073             100.00   -10000.00
00074             120.00   -10000.00
00075             140.00   -10000.00
00076             140.00   -10000.00
00077             140.00   -10000.00
00078             140.00   -10000.00
00079             140.00   -10000.00
00080             120.00   -10000.00
00081             140.00   -10000.00
00082             160.00   -10000.00
00083             160.00    -9800.00
00084             140.00    -9800.00
00085             140.00   -10000.00
00086             140.00    -9800.00
00087             140.00    -9800.00
00088             140.00    -9800.00
00089             160.00    -9600.00
00090             140.00    -9600.00
00091             140.00    -9800.00
00092             140.00    -9400.00
00093             140.00    -9600.00
00094             140.00    -9400.00
00095             140.00    -9400.00
00096             160.00    -9200.00
00097             160.00    -9200.00
00098             140.00    -9200.00
00099             140.00    -9000.00
00100             140.00    -9000.00
00101             100.00    -9000.00
00102             140.00    -8800.00
00103             160.00    -8600.00
00104             140.00    -8600.00
00105             100.00    -8400.00
00106             100.00    -8400.00
00107             120.00    -8200.00
00108             140.00    -8200.00
00109             140.00    -8200.00
00110             140.00    -7800.00
00111             120.00    -7800.00
00112             140.00    -7600.00
00113             140.00    -7600.00
00114             140.00    -7200.00
00115             140.00    -7200.00
00116             140.00    -7000.00
00117             140.00    -7000.00
00118             140.00    -7000.00
00119             100.00    -6800.00
00120             100.00    -6600.00
00121             120.00    -6400.00
00122             120.00    -6200.00
00123             140.00    -6200.00
00124             100.00    -6000.00
00125             100.00    -5800.00
00126             100.00    -5800.00
00127             100.00    -5400.00
00128             100.00    -5400.00
00129             100.00    -5200.00
00130             100.00    -5000.00
00131             120.00    -4800.00
00132              80.00    -4600.00
00133              80.00    -4600.00
00134             100.00    -4400.00
00135             100.00    -4200.00
00136             100.00    -3800.00
00137              80.00    -3800.00
00138              80.00    -3600.00
00139              60.00    -3400.00
00140              80.00    -3400.00
00141              80.00    -3000.00
00142             100.00    -3000.00
00143              80.00    -2800.00
00144              80.00    -2600.00
00145              60.00    -2400.00
00146              60.00    -2200.00
00147              80.00    -2000.00
00148              60.00    -1800.00
00149              80.00    -1800.00
00150              80.00    -1400.00
00151              60.00    -1200.00
00152              60.00    -1000.00
00153              60.00     -800.00
00154              60.00     -600.00
00155              60.00     -400.00
00156              80.00     -400.00
00157              60.00     -200.00
00158              60.00      200.00
00159              60.00      200.00
00160              80.00      400.00
00161             160.00      600.00
00162             160.00      600.00
00163             140.00     1000.00
00164              80.00     1000.00
00165             100.00     1400.00
00166             120.00     1400.00
00167             400.00     1800.00
00168             980.00     2000.00
00169             640.00     2000.00
00170            -420.00     2200.00
00171           -1040.00     2200.00
00172           -1100.00     2200.00
00173             160.00     3200.00
00174             820.00     3000.00
00175            -260.00     3000.00
00176              80.00     3400.00
00177             300.00     3000.00
00178            -320.00     4200.00
00179             120.00     3800.00
00180               0.00     3600.00
00181             140.00     4600.00
00182             320.00     4000.00
00183            -340.00     4400.00
00184             -20.00     5000.00
00185               0.00     4600.00
00186            -120.00     5400.00
00187             100.00     5000.00
00188               0.00     5400.00
00189              60.00     6000.00
00190            -160.00     5400.00
00191              20.00     6000.00
00192              80.00     6000.00
00193            -160.00     6000.00
00194              20.00     6600.00
00195               0.00     6200.00
00196             -20.00     6800.00
00197            -100.00     6600.00
00198             -60.00     7000.00
00199               0.00     7200.00
00200             -20.00     7000.00
00201             -20.00     7400.00
00202             -80.00     7400.00
00203             -60.00     7600.00
00204             -80.00     7800.00
00205             -20.00     7800.00
00206             -60.00     7800.00
00207             -80.00     8200.00
00208            -100.00     8200.00
00209            -100.00     8400.00
00210             -20.00     8400.00
00211             -40.00     8600.00
00212             -60.00     8600.00
00213            -100.00     8600.00
00214            -100.00     8800.00
00215             -80.00     9000.00
00216             -60.00     9000.00
00217             -60.00     9200.00
00218            -100.00     9200.00
00219            -140.00     9200.00
00220            -120.00     9400.00
00221             -80.00     9400.00
00222             -80.00     9400.00
00223            -100.00     9400.00
00224            -100.00     9800.00
00225            -100.00     9800.00
00226            -140.00     9800.00
00227            -120.00     9800.00
00228            -100.00     9800.00
00229            -100.00     9800.00
00230            -100.00    10000.00
00231            -100.00     9800.00
00232            -140.00    10000.00
00233            -140.00    10000.00
00234            -140.00    10000.00
00235            -100.00    10200.00
00236            -100.00    10000.00
00237            -160.00    10200.00
00238            -140.00    10000.00
00239            -140.00    10000.00
00240            -140.00    10000.00
00241            -140.00    10200.00
00242            -140.00    10200.00
00243            -140.00    10200.00
00244            -140.00    10200.00
00245            -140.00    10200.00
00246            -140.00    10000.00
00247            -160.00    10000.00
00248            -140.00    10000.00
00249            -140.00    10000.00
00250            -140.00    10000.00
00251            -140.00    10000.00
00252            -160.00    10000.00
00253            -160.00    10000.00
00254            -140.00     9800.00
00255            -140.00     9800.00
00256            -140.00     9800.00
00257            -140.00     9800.00
00258            -140.00     9800.00
00259            -140.00     9800.00
00260            -160.00     9400.00
00261            -160.00     9400.00
00262            -120.00     9400.00
00263            -120.00     9400.00
00264            -160.00     9200.00
00265            -140.00     9000.00
00266            -160.00     9200.00
00267            -140.00     9000.00
00268            -140.00     9000.00
00269            -120.00     9000.00
00270            -160.00     8800.00
00271            -140.00     8600.00
00272            -140.00     8400.00
00273            -140.00     8600.00
00274            -160.00     8200.00
00275            -120.00     8200.00
00276            -140.00     8200.00
00277            -140.00     8000.00
00278            -140.00     7800.00
00279            -160.00     7600.00
00280            -160.00     7600.00
00281            -140.00     7600.00
00282            -100.00     7400.00
00283            -100.00     7000.00
00284            -140.00     7000.00
00285            -120.00     7000.00
00286            -140.00     6800.00
00287            -120.00     6600.00
00288            -100.00     6600.00
00289            -140.00     6200.00
00290            -120.00     6200.00
00291            -100.00     6000.00
00292            -100.00     5800.00
00293            -120.00     5800.00
00294            -140.00     5800.00
00295            -120.00     5400.00
00296            -120.00     5200.00
00297            -100.00     5000.00
00298            -120.00     5000.00
00299            -140.00     4600.00
00300            -100.00     4600.00
00301            -100.00     4200.00
00302            -100.00     4200.00
00303            -100.00     4200.00
00304            -100.00     3800.00
00305            -100.00     3600.00
00306            -100.00     3600.00
00307            -100.00     3400.00
00308            -100.00     3200.00
00309            -100.00     3000.00
00310             -80.00     2800.00
00311            -100.00     2400.00
00312            -100.00     2600.00
00313            -100.00     2200.00
00314             -80.00     2000.00
00315             -80.00     2000.00
00316             -80.00     1800.00
00317             -80.00     1400.00
00318            -100.00     1200.00
00319             -80.00     1200.00
00320             -80.00     1000.00
00321             -80.00      800.00
00322             -60.00      600.00
00323             -60.00      400.00
00324             -80.00      400.00
00325             -60.00        0.00
00326             -60.00     -200.00
00327               0.00     -400.00
00328              60.00     -400.00
00329              80.00     -800.00
00330              60.00    -1000.00
00331               0.00    -1000.00
00332              20.00    -1000.00
00333              60.00    -1400.00
00334              80.00    -1400.00
00335             420.00    -1800.00
00336             820.00    -2200.00
00337             340.00    -2400.00
00338            -480.00    -2400.00
00339            -780.00    -2600.00
00340            -840.00    -2600.00
00341            -160.00    -2600.00
00342             580.00    -3400.00
00343            -100.00    -3000.00
00344             -20.00    -3400.00
00345             320.00    -4000.00
00346            -140.00    -3400.00
00347             160.00    -4000.00
00348              80.00    -4200.00
00349             -60.00    -4200.00
00350             300.00    -4600.00
00351              40.00    -4400.00
00352            -160.00    -5000.00
00353             -20.00    -5000.00
00354              80.00    -5000.00
00355              60.00    -5400.00
00356               0.00    -5200.00
00357             100.00    -5800.00
00358             -40.00    -5600.00
00359              60.00    -5800.00
00360             160.00    -6200.00
00361             -20.00    -6200.00
00362              40.00    -6600.00
00363              80.00    -6600.00
00364              80.00    -6600.00
00365               0.00    -7000.00
00366              20.00    -6800.00
00367             100.00    -7200.00
00368             100.00    -7200.00
00369              60.00    -7400.00
00370              60.00    -7600.00
00371              80.00    -7600.00
00372              80.00    -7800.00
00373              80.00    -7800.00
00374              80.00    -8000.00
00375              40.00    -8200.00
00376              60.00    -8200.00
00377             100.00    -8400.00
00378             100.00    -8400.00
00379              60.00    -8600.00
00380             100.00    -8600.00
00381              80.00    -8800.00
00382              60.00    -8800.00
00383             100.00    -9000.00
00384             120.00    -9000.00
00385             100.00    -9200.00
00386              80.00    -9200.00
00387              80.00    -9200.00
00388              80.00    -9200.00
00389             100.00    -9400.00
00390             120.00    -9400.00
00391             140.00    -9800.00
00392             100.00    -9600.00
00393              80.00    -9800.00
00394             100.00    -9800.00
00395             100.00    -9800.00
00396             100.00    -9800.00
00397             140.00    -9800.00
00398             140.00    -9800.00
00399             100.00   -10000.00
00400             140.00    -9800.00
00401             100.00   -10000.00
00402             140.00   -10000.00
00403             140.00   -10200.00
00404             140.00   -10200.00
00405             120.00   -10200.00
00406             140.00   -10200.00
00407             120.00   -10000.00
00408             140.00   -10000.00
00409             120.00   -10200.00
00410             160.00   -10000.00
00411             160.00   -10000.00
00412             140.00   -10000.00
00413             140.00   -10000.00
00414             140.00   -10200.00
00415             140.00   -10000.00
00416             140.00   -10000.00
00417             160.00   -10000.00
00418             160.00    -9800.00
00419             140.00    -9800.00
00420             140.00    -9800.00
00421             140.00   -10000.00
00422             140.00    -9800.00
00423             140.00    -9800.00
00424             140.00    -9800.00
00425             160.00    -9600.00
00426             140.00    -9800.00
00427             140.00    -9600.00
00428             100.00    -9400.00
00429             140.00    -9400.00
00430             160.00    -9400.00
00431             140.00    -9200.00
00432             140.00    -9200.00
00433             140.00    -9200.00
00434             140.00    -9200.00
00435             160.00    -9000.00
00436             140.00    -8800.00
00437             140.00    -8600.00
00438             160.00    -8600.00
00439             140.00    -8600.00
00440             120.00    -8600.00
00441             140.00    -8400.00
00442             120.00    -8200.00
00443             140.00    -8200.00
00444             140.00    -8000.00
00445             140.00    -7800.00
00446             140.00    -7800.00
00447             100.00    -7600.00
00448             140.00    -7600.00
00449             140.00    -7200.00
00450             140.00    -7200.00
00451             140.00    -7000.00
00452             140.00    -6800.00
00453             140.00    -6800.00
00454             120.00    -6600.00
00455             100.00    -6600.00
00456             140.00    -6400.00
00457             120.00    -6200.00
00458             100.00    -6200.00
00459             100.00    -6000.00
00460             100.00    -5800.00
00461             100.00    -5600.00
00462             100.00    -5400.00
00463             120.00    -5400.00
00464             120.00    -5000.00
00465             100.00    -5000.00
00466             100.00    -4800.00
00467              80.00    -4600.00
00468             100.00    -4600.00
00469              80.00    -4200.00
00470             100.00    -4200.00
00471             100.00    -4000.00
00472              80.00    -3800.00
00473              80.00    -3600.00
00474              80.00    -3400.00
00475              80.00    -3200.00
00476              80.00    -3000.00
00477             100.00    -2800.00
00478              80.00    -2600.00
00479              60.00    -2600.00
00480              80.00    -2200.00
00481              80.00    -2200.00
00482              60.00    -2000.00
00483              80.00    -1800.00
00484              60.00    -1600.00
00485              60.00    -1200.00
00486              60.00    -1200.00
00487              60.00    -1000.00
00488              60.00     -800.00
00489              60.00     -600.00
00490              60.00     -400.00
00491              60.00     -200.00
00492              60.00     -200.00
00493              60.00        0.00
00494              60.00      200.00
00495             100.00      400.00
00496             160.00      600.00
00497             140.00      800.00
00498             100.00     1000.00
00499              80.00     1200.00
00500             100.00     1200.00
00501             160.00     1400.00
00502             720.00     1800.00
00503             980.00     2000.00
00504             160.00     2200.00
00505            -800.00     2200.00
00506           -1180.00     2200.00
00507            -660.00     2800.00
00508             800.00     3000.00
00509             320.00     2800.00
00510            -320.00     3200.00
00511             380.00     3200.00
00512             -60.00     3600.00
00513            -160.00     4200.00
00514             160.00     3400.00
00515            -100.00     4200.00
00516             340.00     4600.00
00517             -20.00     3800.00
00518            -300.00     5000.00
00519             140.00     4800.00
00520            -100.00     4800.00
00521               0.00     5400.00
00522              60.00     5000.00
00523               0.00     6000.00
00524             -20.00     5600.00
00525            -140.00     5400.00
00526             160.00     6000.00
00527             -60.00     5800.00
00528            -100.00     6200.00
00529              20.00     6200.00
00530             -20.00     6600.00
00531             -20.00     6800.00
00532            -100.00     6600.00
00533               0.00     7200.00
00534             -20.00     6800.00
00535             -20.00     7200.00
00536             -60.00     7400.00
00537             -80.00     7600.00
00538             -60.00     7600.00
00539             -60.00     7600.00
00540             -20.00     8000.00
00541            -100.00     7800.00
00542             -60.00     8200.00
00543            -100.00     8200.00
00544             -60.00     8400.00
00545             -60.00     8400.00
00546             -40.00     8400.00
00547             -80.00     8600.00
00548            -140.00     8600.00
00549             -80.00     9000.00
00550             -80.00     9000.00
00551             -60.00     9200.00
00552             -80.00     9200.00
00553            -100.00     9200.00
00554            -140.00     9200.00
00555            -100.00     9200.00
00556             -80.00     9400.00
00557            -100.00     9400.00
00558            -100.00     9600.00
00559            -120.00     9600.00
00560            -120.00     9400.00
00561            -140.00     9800.00
00562            -100.00     9800.00
00563            -100.00     9800.00
00564            -100.00    10000.00
00565             -80.00    10000.00
00566            -100.00    10000.00
00567            -140.00     9800.00
00568            -160.00    10000.00
00569            -140.00    10200.00
00570            -160.00    10000.00
00571            -160.00    10200.00
00572            -140.00    10200.00
00573            -100.00    10200.00
00574            -100.00    10200.00
00575            -100.00    10200.00
00576            -100.00    10200.00
00577            -140.00    10000.00
00578            -160.00    10000.00
00579            -180.00    10200.00
00580            -160.00    10000.00
00581            -160.00    10000.00
00582            -140.00    10000.00
00583            -100.00    10000.00
00584            -100.00    10000.00
00585            -100.00    10000.00
00586            -120.00    10000.00
00587            -140.00    10000.00
00588            -160.00     9800.00
00589            -160.00     9800.00
00590            -160.00     9800.00
00591            -140.00     9800.00
00592            -120.00     9800.00
00593            -100.00     9400.00
00594            -100.00     9800.00
00595            -140.00     9400.00
00596            -140.00     9400.00
00597            -100.00     9400.00
00598            -120.00     9200.00
00599            -160.00     9200.00
00600            -140.00     9200.00
00601            -160.00     9000.00
00602            -140.00     9000.00
00603            -140.00     9000.00
00604            -100.00     8600.00
00605            -140.00     8600.00
00606            -140.00     8600.00
00607            -100.00     8400.00
00608            -140.00     8400.00
00609            -140.00     8200.00
00610            -140.00     8200.00
00611            -160.00     8200.00
00612            -140.00     7800.00
00613            -140.00     7800.00
00614            -120.00     7600.00
00615            -140.00     7600.00
00616            -100.00     7400.00
00617            -120.00     7400.00
00618            -140.00     7000.00
00619            -140.00     6800.00
00620            -160.00     6800.00
00621            -160.00     6800.00
00622            -120.00     6600.00
00623            -100.00     6600.00
00624            -120.00     6200.00
00625            -100.00     6200.00
00626            -140.00     6000.00
00627            -140.00     5800.00
00628            -120.00     5800.00
00629            -140.00     5400.00
00630            -100.00     5200.00
00631            -100.00     5200.00
00632            -120.00     5000.00
00633            -140.00     4800.00
00634            -120.00     4600.00
00635            -140.00     4400.00
00636            -100.00     4200.00
00637            -100.00     4200.00
00638            -100.00     4000.00
00639            -100.00     3800.00
00640            -100.00     3600.00
00641            -100.00     3400.00
00642            -100.00     3400.00
00643            -100.00     3000.00
00644            -100.00     3000.00
00645            -100.00     2800.00
00646            -100.00     2600.00
00647            -100.00     2400.00
00648             -80.00     2200.00
00649             -80.00     2000.00
00650             -80.00     1800.00
00651             -80.00     1600.00
00652             -80.00     1400.00
00653             -60.00     1200.00
00654             -80.00     1200.00
00655             -80.00     1000.00
00656             -60.00      600.00
00657             -60.00      600.00
00658             -60.00      400.00
00659             -60.00      200.00
00660             -60.00        0.00
00661             -20.00     -200.00
00662              20.00     -400.00
00663              60.00     -400.00
00664              60.00     -600.00
00665              20.00     -800.00
00666               0.00    -1200.00
00667              20.00    -1200.00
00668              60.00    -1400.00
00669             220.00    -1400.00
00670             700.00    -1800.00
00671             720.00    -2200.00
00672             -80.00    -2200.00
00673            -700.00    -2400.00
00674            -820.00    -2600.00
00675            -700.00    -2400.00
00676             340.00    -2800.00
00677             340.00    -3400.00
00678            -260.00    -3000.00
00679             260.00    -3600.00
00680             100.00    -3600.00
00681            -100.00    -3400.00
00682             240.00    -4400.00
00683             -80.00    -3800.00
00684             140.00    -4400.00
00685             240.00    -4600.00
00686            -140.00    -4600.00
00687            -100.00    -5000.00
00688               0.00    -4800.00
00689             100.00    -5400.00
00690               0.00    -5400.00
00691              60.00    -5400.00
00692              60.00    -5800.00
00693             -60.00    -5600.00
00694             140.00    -6000.00
00695              80.00    -6200.00
00696             -20.00    -6200.00
00697              60.00    -6600.00
00698              60.00    -6400.00
00699              60.00    -6800.00
00700               0.00    -7000.00
00701              80.00    -7000.00
00702             140.00    -7200.00
00703              60.00    -7200.00
00704              40.00    -7600.00
00705              60.00    -7400.00
00706              80.00    -7800.00
00707              80.00    -7800.00
00708              80.00    -7800.00
00709              60.00    -8000.00
00710              20.00    -8200.00
00711              80.00    -8200.00
00712             140.00    -8400.00
00713             100.00    -8400.00
00714              80.00    -8600.00
00715              80.00    -8600.00
00716              80.00    -8800.00
00717              80.00    -9000.00
00718             120.00    -9000.00
00719             100.00    -9000.00
00720              60.00    -9200.00
00721              60.00    -9200.00
00722              80.00    -9400.00
00723             100.00    -9200.00
00724             140.00    -9400.00
00725             140.00    -9400.00
00726             100.00    -9400.00
00727              80.00    -9600.00
00728             140.00    -9800.00
00729             100.00    -9800.00
00730             140.00    -9800.00
00731             120.00    -9800.00
00732             140.00    -9800.00
00733             100.00   -10000.00
00734             100.00   -10000.00
00735             100.00   -10000.00
00736             100.00   -10200.00
00737             100.00    -9800.00
00738             160.00   -10000.00
00739             140.00   -10000.00
00740             140.00   -10000.00
00741             100.00   -10200.00
00742             140.00   -10200.00
00743             120.00   -10000.00
00744             140.00   -10200.00
00745             160.00   -10000.00
00746             160.00   -10000.00
00747             140.00   -10000.00
00748             140.00   -10000.00
00749             140.00   -10000.00
00750             140.00   -10000.00
00751             140.00    -9800.00
00752             160.00   -10000.00
00753             120.00   -10000.00
00754             140.00   -10000.00
00755             140.00    -9800.00
00756             140.00    -9800.00
00757             140.00    -9800.00
00758             160.00    -9600.00
00759             140.00    -9600.00
00760             140.00    -9600.00
00761             140.00    -9600.00
00762             140.00    -9400.00
00763             140.00    -9400.00
00764             140.00    -9400.00
00765             160.00    -9200.00
00766             140.00    -9000.00
00767             140.00    -9200.00
00768             140.00    -9000.00
00769             140.00    -9000.00
00770             140.00    -9000.00
00771             140.00    -9000.00
00772             140.00    -8600.00
00773             140.00    -8800.00
00774             140.00    -8600.00
00775             140.00    -8400.00
00776             140.00    -8400.00
00777             140.00    -8200.00
00778             140.00    -8000.00
00779             140.00    -7800.00
00780             140.00    -7800.00
00781             140.00    -7600.00
00782             140.00    -7600.00
00783             100.00    -7400.00
00784             120.00    -7200.00
00785             140.00    -7200.00
00786             140.00    -7000.00
00787             100.00    -6800.00
00788             120.00    -6800.00
00789             140.00    -6600.00
00790             140.00    -6400.00
00791             140.00    -6200.00
00792             140.00    -6200.00
00793             100.00    -6000.00
00794             100.00    -5800.00
00795             100.00    -5400.00
00796             100.00    -5600.00
00797             100.00    -5400.00
00798             120.00    -5200.00
00799             100.00    -5000.00
00800              80.00    -4800.00
00801             100.00    -4600.00
00802             100.00    -4600.00
00803             100.00    -4400.00
00804             100.00    -4200.00
00805             100.00    -4000.00
00806             100.00    -3800.00
00807              80.00    -3600.00
00808              80.00    -3400.00
00809              80.00    -3200.00
00810              80.00    -3000.00
00811             100.00    -2800.00
00812              80.00    -2800.00
00813              80.00    -2600.00
00814              80.00    -2600.00
00815              60.00    -2200.00
00816              60.00    -2000.00
00817              60.00    -2000.00
00818              80.00    -1800.00
00819              60.00    -1400.00
00820              60.00    -1200.00
00821              60.00    -1000.00
00822              60.00     -800.00
00823              60.00     -600.00
00824              60.00     -600.00
00825              60.00     -400.00
00826              60.00     -200.00
00827              40.00        0.00
00828              60.00      200.00
00829              80.00      400.00
00830             140.00      600.00
00831             160.00      800.00
00832             120.00      800.00
00833             100.00     1000.00
00834              80.00     1200.00
00835             120.00     1400.00
00836             360.00     1800.00
00837             960.00     2000.00
00838             700.00     2200.00
00839            -340.00     2200.00
00840           -1040.00     2200.00
00841           -1140.00     2600.00
00842              60.00     3000.00
00843             880.00     3000.00
00844            -220.00     2800.00
00845               0.00     3600.00
00846             340.00     3000.00
00847            -300.00     4200.00
00848              80.00     4000.00
00849               0.00     3600.00
00850              80.00     4600.00
00851             320.00     4200.00
00852            -320.00     4400.00
00853             -40.00     5000.00
00854              80.00     4600.00
00855            -100.00     5200.00
00856              80.00     5000.00
00857               0.00     5200.00
00858              60.00     6000.00
00859            -160.00     5400.00
00860               0.00     6200.00
00861             100.00     6000.00
00862            -160.00     6000.00
00863               0.00     6600.00
00864               0.00     6200.00
00865             -20.00     6800.00
00866             -80.00     6600.00
00867             -60.00     7000.00
00868               0.00     7000.00
00869             -20.00     7000.00
00870             -20.00     7400.00
00871             -80.00     7400.00
00872             -60.00     7800.00
00873             -80.00     7600.00
00874             -20.00     7800.00
00875             -60.00     8200.00
00876            -100.00     8000.00
00877             -80.00     8200.00
00878            -100.00     8200.00
00879             -60.00     8400.00
00880             -60.00     8600.00
00881             -20.00     8600.00
00882            -120.00     8600.00
00883            -100.00     9000.00
00884             -80.00     9000.00
00885             -80.00     8800.00
00886             -80.00     9200.00
00887            -100.00     9200.00
00888            -100.00     9200.00
00889            -140.00     9200.00
00890            -100.00     9400.00
00891             -80.00     9600.00
00892            -100.00     9600.00
00893            -100.00     9400.00
00894            -100.00     9800.00
00895            -140.00     9800.00
00896            -100.00     9800.00
00897            -100.00     9800.00
00898            -100.00     9800.00
00899            -100.00    10000.00
00900            -100.00    10000.00
00901            -140.00    10000.00
00902            -160.00    10000.00
00903            -140.00    10000.00
00904            -100.00    10200.00
00905            -100.00    10000.00
00906            -140.00    10200.00
00907            -140.00    10200.00
00908            -140.00    10200.00
00909            -160.00    10000.00
00910            -140.00    10200.00
00911            -100.00    10200.00
00912            -140.00    10200.00
00913            -120.00    10200.00
00914            -100.00    10200.00
00915            -140.00    10200.00
00916            -140.00    10000.00
00917            -140.00    10000.00
00918            -120.00    10000.00
00919            -120.00     9800.00
00920            -140.00    10000.00
00921            -140.00    10000.00
00922            -140.00    10000.00
00923            -140.00    10000.00
00924            -120.00     9800.00
00925            -140.00     9800.00
00926            -140.00     9800.00
00927            -140.00     9800.00
00928            -140.00     9800.00
00929            -160.00     9400.00
00930            -140.00     9400.00
00931            -140.00     9400.00
00932            -140.00     9200.00
00933            -140.00     9400.00
00934            -140.00     9200.00
00935            -140.00     9000.00
00936            -140.00     9000.00
00937            -140.00     9000.00
00938            -140.00     8800.00
00939            -140.00     8600.00
00940            -140.00     8600.00
00941            -140.00     8600.00
00942            -140.00     8400.00
00943            -140.00     8400.00
00944            -140.00     8200.00
00945            -140.00     8000.00
00946            -140.00     7800.00
00947            -140.00     7800.00
00948            -160.00     7800.00
00949            -140.00     7600.00
00950            -120.00     7400.00
00951            -120.00     7400.00
00952            -140.00     7000.00
00953            -140.00     7000.00
00954            -140.00     6800.00
00955            -140.00     6600.00
00956            -140.00     6600.00
00957            -140.00     6600.00
00958            -140.00     6200.00
00959            -120.00     6200.00
00960            -140.00     6000.00
00961            -140.00     6000.00
00962            -140.00     5800.00
00963            -140.00     5600.00
00964            -100.00     5400.00
00965            -100.00     5200.00
00966            -100.00     5000.00
00967            -100.00     5000.00
00968            -100.00     4600.00
00969            -100.00     4600.00
00970            -100.00     4400.00
00971            -100.00     4200.00
00972            -100.00     4000.00
00973             -80.00     4000.00
00974            -100.00     3800.00
00975            -100.00     3600.00
00976            -100.00     3600.00
00977            -100.00     3200.00
00978             -80.00     3000.00
00979            -100.00     2800.00
00980            -100.00     2800.00
00981            -100.00     2600.00
00982            -100.00     2200.00
00983             -80.00     2000.00
00984             -60.00     2000.00
00985             -80.00     1800.00
00986             -80.00     1600.00
00987             -80.00     1400.00
00988             -60.00     1200.00
00989             -60.00     1000.00
00990             -60.00     1000.00
00991             -60.00      600.00
00992             -60.00      400.00
00993             -60.00      400.00
00994             -60.00      200.00
00995             -60.00     -200.00
00996               0.00     -400.00
00997              60.00     -400.00
00998              80.00     -600.00
00999              60.00     -600.00
01000              20.00    -1000.00
01001              20.00    -1000.00
01002              20.00    -1200.00
01003              80.00    -1400.00
01004             400.00    -1600.00
01005             800.00    -2000.00
01006             400.00    -2200.00
01007            -420.00    -2400.00
01008            -780.00    -2600.00
01009            -860.00    -2600.00
01010            -240.00    -2600.00
01011             620.00    -3200.00
01012            -100.00    -3000.00
01013             -80.00    -3200.00
01014             320.00    -3800.00
01015            -140.00    -3400.00
01016             140.00    -4000.00
01017             100.00    -4400.00
01018             -60.00    -4200.00
01019             300.00    -4600.00
01020              60.00    -4400.00
01021            -160.00    -5000.00
01022             -20.00    -5000.00
01023              80.00    -5000.00
01024              60.00    -5400.00
01025               0.00    -5200.00
01026              80.00    -5800.00
01027             -20.00    -5800.00
01028              20.00    -5800.00
01029             160.00    -6200.00
01030               0.00    -6000.00
01031              20.00    -6600.00
01032              60.00    -6600.00
01033              80.00    -6600.00
01034               0.00    -6800.00
01035               0.00    -6800.00
01036             100.00    -7000.00
01037              80.00    -7200.00
01038              60.00    -7400.00
01039              20.00    -7600.00
01040              80.00    -7600.00
01041              80.00    -7800.00
01042              80.00    -7800.00
01043              80.00    -8200.00
01044              60.00    -8200.00
01045              40.00    -8200.00
01046              80.00    -8400.00
01047             120.00    -8400.00
01048              60.00    -8600.00
01049             100.00    -8600.00
01050             100.00    -8800.00
01051              60.00    -9000.00
01052             100.00    -9000.00
01053             100.00    -9000.00
01054              80.00    -9200.00
01055              80.00    -9200.00
01056              80.00    -9200.00
01057              80.00    -9400.00
01058             100.00    -9400.00
01059             140.00    -9400.00
01060             140.00    -9400.00
01061             100.00    -9600.00
01062              80.00    -9600.00
01063             100.00    -9800.00
01064             100.00    -9800.00
01065             120.00    -9800.00
01066             140.00    -9600.00
01067             160.00   -10000.00
01068             100.00    -9800.00
01069             120.00   -10000.00
01070             140.00    -9800.00
01071             120.00   -10000.00
01072             140.00   -10000.00
01073             140.00   -10000.00
01074             120.00   -10000.00
01075             120.00   -10200.00
01076             100.00   -10000.00
01077             140.00   -10000.00
01078             120.00   -10200.00
01079             140.00   -10000.00
01080             140.00   -10000.00
01081             120.00   -10000.00
01082             120.00   -10000.00
01083             120.00   -10000.00
01084             140.00   -10000.00
01085             120.00   -10000.00
01086             140.00    -9800.00
01087             140.00   -10000.00
01088             140.00    -9800.00
01089             140.00   -10000.00
01090             140.00    -9800.00
01091             120.00    -9800.00
01092             140.00    -9800.00
01093             140.00    -9600.00
01094             140.00    -9800.00
01095             140.00    -9400.00
01096             140.00    -9400.00
01097             140.00    -9400.00
01098             140.00    -9400.00
01099             140.00    -9400.00
01100             140.00    -9200.00
01101             140.00    -9200.00
01102             140.00    -9200.00
01103             140.00    -9000.00
01104             140.00    -8800.00
01105             160.00    -9000.00
01106             160.00    -8600.00
01107             140.00    -8600.00
01108             140.00    -8600.00
01109             140.00    -8400.00
01110             140.00    -8400.00
01111             140.00    -8200.00
01112             140.00    -8200.00
01113             160.00    -7800.00
01114             140.00    -7800.00
01115             140.00    -7600.00
01116             120.00    -7600.00
01117             140.00    -7200.00
01118             140.00    -7200.00
01119             140.00    -7400.00
01120             140.00    -7000.00
01121             140.00    -7000.00
01122             120.00    -6800.00
01123             120.00    -6600.00
01124             120.00    -6600.00
01125             120.00    -6400.00
01126             140.00    -6200.00
01127             120.00    -6200.00
01128             100.00    -6000.00
01129             100.00    -5800.00
01130             140.00    -5600.00
01131             120.00    -5400.00
01132             140.00    -5200.00
01133             100.00    -5000.00
01134             100.00    -5000.00
01135             100.00    -5000.00
01136             100.00    -4600.00
01137              80.00    -4400.00
01138             100.00    -4200.00
01139             100.00    -4200.00
01140             100.00    -3800.00
01141              80.00    -3600.00
01142              80.00    -3600.00
01143              80.00    -3400.00
01144              80.00    -3400.00
01145              60.00    -3000.00
01146              60.00    -2800.00
01147              60.00    -2600.00
01148              80.00    -2400.00
01149              80.00    -2200.00
01150              80.00    -2200.00
01151              80.00    -2000.00
01152              60.00    -1800.00
01153              80.00    -1400.00
01154              60.00    -1400.00
01155              20.00    -1200.00
01156              60.00     -800.00
01157              40.00     -800.00
01158              60.00     -600.00
01159              60.00     -600.00
01160              80.00     -200.00
01161              60.00        0.00
01162              60.00      200.00
01163              60.00      400.00
01164             100.00      400.00
01165             140.00      600.00
01166             140.00      800.00
01167             140.00     1000.00
01168              80.00     1000.00
01169             100.00     1200.00
01170             160.00     1400.00
01171             660.00     1800.00
01172            1020.00     2000.00
01173             240.00     2200.00
01174            -740.00     2200.00
01175           -1180.00     2200.00
01176            -740.00     2800.00
01177             740.00     3200.00
01178             420.00     2800.00
01179            -340.00     3200.00
01180             360.00     3400.00
01181               0.00     3400.00
01182            -180.00     4400.00
01183             180.00     3600.00
01184            -100.00     4200.00
01185             320.00     4600.00
01186              60.00     4200.00
01187            -320.00     5000.00
01188             140.00     5000.00
01189            -100.00     4600.00
01190               0.00     5400.00
01191              60.00     5000.00
01192               0.00     5800.00
01193             -20.00     5600.00
01194            -160.00     5800.00
01195             160.00     6200.00
01196             -20.00     5800.00
01197            -100.00     6400.00
01198              20.00     6200.00
01199             -40.00     6600.00
01200             -60.00     6800.00
01201            -100.00     6800.00
01202             -20.00     7400.00
01203             -20.00     7000.00
01204               0.00     7200.00
01205             -60.00     7600.00
01206             -80.00     7400.00
01207             -60.00     7800.00
01208             -60.00     7600.00
01209             -20.00     8000.00
01210            -100.00     7800.00
01211             -80.00     8200.00
01212            -100.00     8200.00
01213             -80.00     8400.00
01214             -60.00     8400.00
01215             -80.00     8600.00
01216             -60.00     8600.00
01217            -140.00     8600.00
01218             -80.00     8800.00
01219            -100.00     9000.00
01220             -80.00     9200.00
01221            -100.00     9200.00
01222            -100.00     9200.00
01223            -140.00     9200.00
01224            -100.00     9400.00
01225             -80.00     9400.00
01226            -100.00     9400.00
01227            -100.00     9600.00
01228            -120.00     9600.00
01229            -100.00     9800.00
01230            -140.00     9800.00
01231            -100.00     9800.00
01232            -100.00     9800.00
01233            -100.00     9800.00
01234            -100.00    10000.00
01235            -100.00    10000.00
01236            -140.00    10000.00
01237            -140.00    10000.00
01238            -100.00    10200.00
01239            -100.00    10200.00
01240            -120.00    10000.00
01241            -100.00    10200.00
01242            -140.00    10200.00
01243            -140.00    10000.00
01244            -140.00    10200.00
01245            -140.00    10200.00
01246            -120.00    10200.00
01247            -100.00    10200.00
01248            -140.00    10200.00
01249            -100.00    10000.00
01250            -140.00    10200.00
01251            -140.00    10000.00
01252            -120.00    10200.00
01253            -120.00    10000.00
01254            -120.00    10000.00
01255            -140.00    10000.00
01256            -140.00    10000.00
01257            -140.00     9800.00
01258            -140.00    10000.00
01259            -140.00     9800.00
01260            -100.00     9800.00
01261            -120.00     9800.00
01262            -140.00     9800.00
01263            -140.00     9800.00
01264            -140.00     9400.00
01265            -140.00     9400.00
01266            -140.00     9400.00
01267            -140.00     9200.00
01268            -140.00     9200.00
01269            -160.00     9200.00
01270            -140.00     9000.00
01271            -140.00     9000.00
01272            -140.00     9000.00
01273            -140.00     8800.00
01274            -140.00     8600.00
01275            -140.00     8400.00
01276            -140.00     8400.00
01277            -140.00     8400.00
01278            -160.00     8200.00
01279            -140.00     8200.00
01280            -140.00     8000.00
01281            -160.00     7800.00
01282            -160.00     7800.00
01283            -140.00     7600.00
01284            -140.00     7600.00
01285            -120.00     7600.00
01286            -100.00     7200.00
01287            -140.00     7000.00
01288            -140.00     6800.00
01289            -140.00     6800.00
01290            -140.00     6600.00
01291            -140.00     6600.00
01292            -140.00     6400.00
01293            -120.00     6200.00
01294            -140.00     6200.00
01295            -140.00     5800.00
01296            -140.00     5800.00
01297            -140.00     5600.00
01298            -100.00     5400.00
01299            -100.00     5400.00
01300            -100.00     5200.00
01301            -100.00     5200.00
01302            -120.00     5000.00
01303            -120.00     4600.00
01304            -100.00     4600.00
01305            -100.00     4400.00
01306            -100.00     4200.00
01307            -100.00     4000.00
01308            -100.00     3800.00
01309            -100.00     3600.00
01310            -100.00     3400.00
01311            -100.00     3400.00
01312             -80.00     3200.00
01313             -80.00     3000.00
01314            -100.00     2800.00
01315            -100.00     2600.00
01316            -100.00     2400.00
01317             -80.00     2200.00
01318             -80.00     2000.00
01319             -60.00     1800.00
01320             -80.00     1800.00
01321             -80.00     1400.00
01322             -60.00     1200.00
01323             -60.00     1200.00
01324             -60.00     1000.00
01325             -60.00      600.00
01326             -60.00      600.00
01327             -60.00      400.00
01328             -60.00      200.00
01329             -60.00        0.00
01330             -20.00     -400.00
01331              20.00     -400.00
01332              60.00     -400.00
01333              60.00     -800.00
01334              20.00     -800.00
01335               0.00    -1200.00
01336               0.00    -1200.00
01337              40.00    -1400.00
01338             160.00    -1600.00
01339             640.00    -1800.00
01340             740.00    -2200.00
01341             -20.00    -2200.00
01342            -640.00    -2600.00
01343            -800.00    -2600.00
01344            -740.00    -2600.00
01345             260.00    -2800.00
01346             380.00    -3400.00
01347            -300.00    -3000.00
01348             220.00    -3600.00
01349             140.00    -3600.00
01350            -100.00    -3600.00
01351             220.00    -4400.00
01352             -60.00    -4200.00
01353              80.00    -4400.00
01354             240.00    -4600.00
01355            -140.00    -4600.00
01356            -100.00    -5000.00
01357               0.00    -5000.00
01358             100.00    -5400.00
01359               0.00    -5400.00
01360              60.00    -5400.00
01361              60.00    -5800.00
01362             -60.00    -5800.00
01363             140.00    -6000.00
01364              80.00    -6200.00
01365             -20.00    -6200.00
01366              80.00    -6600.00
01367              80.00    -6400.00
01368              60.00    -6600.00
01369               0.00    -7000.00
01370              60.00    -7000.00
01371             120.00    -7200.00
01372              80.00    -7200.00
01373              40.00    -7600.00
01374              60.00    -7400.00
01375              80.00    -7600.00
01376              80.00    -7800.00
01377              80.00    -7800.00
01378              60.00    -8000.00
01379              60.00    -8400.00
01380              80.00    -8200.00
01381             140.00    -8400.00
01382              80.00    -8600.00
01383              80.00    -8600.00
01384             100.00    -8600.00
01385              80.00    -8800.00
01386              80.00    -9000.00
01387             100.00    -9000.00
01388             120.00    -9000.00
01389             100.00    -9200.00
01390              80.00    -9200.00
01391              80.00    -9400.00
01392              80.00    -9400.00
01393             140.00    -9200.00
01394             140.00    -9400.00
01395             120.00    -9600.00
01396              80.00    -9400.00
01397             100.00    -9600.00
01398              80.00    -9600.00
01399             100.00    -9800.00
01400             140.00    -9800.00
01401             140.00    -9800.00
01402             100.00    -9800.00
01403             100.00    -9800.00
01404             100.00   -10000.00
01405             100.00   -10000.00
01406             140.00   -10000.00
01407             140.00   -10000.00
01408             140.00   -10000.00
01409             140.00   -10000.00
01410             140.00   -10000.00
01411             100.00   -10200.00
01412             100.00   -10200.00
01413              80.00   -10000.00
01414             120.00   -10000.00
01415             140.00   -10200.00
01416             160.00   -10000.00
01417             160.00   -10000.00
01418             140.00   -10000.00
01419             140.00   -10000.00
01420             140.00   -10000.00
01421             140.00   -10000.00
01422             140.00   -10000.00
01423             120.00    -9800.00
01424             120.00    -9800.00
01425             140.00    -9800.00
01426             140.00    -9800.00
01427             160.00    -9800.00
01428             140.00    -9800.00
01429             140.00    -9600.00
01430             140.00    -9600.00
01431             140.00    -9400.00
01432             140.00    -9400.00
01433             140.00    -9400.00
01434             160.00    -9200.00
01435             140.00    -9200.00
01436             140.00    -9200.00
01437             160.00    -9000.00
01438             140.00    -9000.00
01439             160.00    -9000.00
01440             160.00    -8600.00
01441             140.00    -8600.00
01442             140.00    -8600.00
01443             140.00    -8600.00
01444             100.00    -8400.00
01445             140.00    -8200.00
01446             160.00    -8200.00
01447             160.00    -8200.00
01448             140.00    -8000.00
01449             120.00    -7800.00
01450             100.00    -7600.00
01451             120.00    -7600.00
01452             140.00    -7200.00
01453             160.00    -7200.00
01454             160.00    -7200.00
01455             140.00    -7000.00
01456             120.00    -7000.00
01457             100.00    -6800.00
01458             100.00    -6600.00
01459             140.00    -6600.00
01460             140.00    -6200.00
01461             100.00    -6200.00
01462              80.00    -6000.00
01463             100.00    -5800.00
01464             160.00    -5800.00
01465             140.00    -5800.00
01466              80.00    -5400.00
01467              80.00    -5200.00
01468              80.00    -5000.00
01469              80.00    -5000.00
01470             100.00    -4600.00
01471             140.00    -4600.00
01472             120.00    -4400.00
01473              80.00    -4200.00
01474             100.00    -4000.00
01475             100.00    -3800.00
01476             100.00    -3800.00
01477              80.00    -3400.00
01478              60.00    -3400.00
01479              60.00    -3000.00
01480              60.00    -3000.00
01481              80.00    -2800.00
01482              80.00    -2600.00
01483              80.00    -2200.00
01484              60.00    -2200.00
01485              60.00    -2000.00
01486              60.00    -2000.00
01487              60.00    -1800.00
01488              80.00    -1400.00
01489              60.00    -1400.00
01490              80.00    -1200.00
01491              60.00    -1000.00
01492              60.00     -800.00
01493              60.00     -600.00
01494              20.00     -400.00
01495              60.00        0.00
01496              40.00        0.00
01497              60.00      200.00
01498              80.00      200.00
01499             160.00      600.00
01500             140.00      600.00
01501             120.00     1000.00
01502              80.00     1000.00
01503              80.00     1200.00
01504             140.00     1200.00
01505             360.00     1800.00
01506             960.00     2000.00
01507             760.00     2200.00
01508            -260.00     2200.00
01509           -1000.00     2200.00
01510           -1120.00     2400.00
01511             -20.00     3000.00
01512             940.00     3000.00
01513            -160.00     3000.00
01514             -60.00     3400.00
01515             360.00     3200.00
01516            -260.00     4000.00
01517             100.00     4200.00
01518              60.00     3600.00
01519              40.00     4600.00
01520             380.00     4200.00
01521            -280.00     4400.00
01522             -80.00     5200.00
01523              80.00     4600.00
01524            -140.00     5200.00
01525              80.00     5200.00
01526              20.00     5200.00
01527              60.00     6000.00
01528            -140.00     5200.00
01529             -20.00     6000.00
01530             140.00     6000.00
01531            -140.00     5800.00
01532              20.00     6600.00
01533               0.00     6200.00
01534             -60.00     6800.00
01535            -100.00     6600.00
01536             -80.00     7000.00
01537               0.00     7200.00
01538             -20.00     6800.00
01539             -20.00     7400.00
01540            -100.00     7400.00
01541             -40.00     7600.00
01542             -80.00     7600.00
01543             -20.00     7800.00
01544             -80.00     7800.00
01545            -100.00     8000.00
01546             -80.00     8200.00
01547            -100.00     8400.00
01548             -60.00     8400.00
01549             -80.00     8400.00
01550             -60.00     8600.00
01551            -140.00     8600.00
01552            -100.00     8800.00
01553             -80.00     9000.00
01554             -80.00     9000.00
01555             -80.00     9200.00
01556            -100.00     9200.00
01557            -140.00     9200.00
01558            -140.00     9200.00
01559             -80.00     9400.00
01560            -100.00     9400.00
01561            -100.00     9400.00
01562            -100.00     9600.00
01563            -100.00     9800.00
01564            -120.00     9800.00
01565            -140.00     9800.00
01566            -100.00     9800.00
01567            -100.00     9800.00
01568            -100.00    10000.00
01569            -100.00     9800.00
01570            -100.00    10000.00
01571            -140.00     9800.00
01572            -100.00    10000.00
01573            -100.00    10000.00
01574            -100.00    10000.00
01575            -100.00    10200.00
01576            -140.00    10000.00
01577            -160.00    10000.00
01578            -160.00    10200.00
01579            -140.00    10000.00
01580            -140.00    10200.00
01581            -100.00    10000.00
01582            -100.00    10200.00
01583            -100.00    10000.00
01584            -140.00    10200.00
01585            -160.00    10000.00
01586            -140.00    10200.00
01587            -100.00    10000.00
01588            -140.00    10000.00
01589            -140.00     9800.00
01590            -160.00    10000.00
01591            -140.00     9800.00
01592            -140.00    10000.00
01593            -120.00     9800.00
01594            -140.00     9800.00
01595            -140.00     9800.00
01596            -140.00     9600.00
01597            -140.00     9400.00
01598            -160.00     9400.00
01599            -160.00     9400.00
01600            -140.00     9400.00
01601            -140.00     9200.00
01602            -140.00     9200.00
01603            -140.00     9200.00
01604            -160.00     9000.00
01605            -160.00     9000.00
01606            -140.00     8800.00
01607            -120.00     8600.00
01608            -160.00     8600.00
01609            -160.00     8600.00
01610            -140.00     8400.00
01611            -140.00     8400.00
01612            -140.00     8400.00
01613            -140.00     8200.00
01614            -140.00     8000.00
01615            -140.00     7800.00
01616            -140.00     7800.00
01617            -160.00     7600.00
01618            -160.00     7600.00
01619            -140.00     7400.00
01620            -120.00     7400.00
01621            -100.00     7200.00
01622            -100.00     7000.00
01623            -140.00     7000.00
01624            -140.00     6800.00
01625            -140.00     6800.00
01626            -100.00     6600.00
01627            -100.00     6400.00
01628            -100.00     6200.00
01629            -100.00     6000.00
01630            -140.00     6000.00
01631            -160.00     5800.00
01632            -140.00     5600.00
01633            -100.00     5400.00
01634            -100.00     5200.00
01635            -100.00     5200.00
01636            -100.00     5000.00
01637            -120.00     5000.00
01638            -100.00     4600.00
01639            -100.00     4600.00
01640            -100.00     4200.00
01641            -100.00     4200.00
01642            -100.00     3800.00
01643             -80.00     3800.00
01644             -80.00     3600.00
01645            -100.00     3400.00
01646            -100.00     3000.00
01647            -100.00     3000.00
01648            -100.00     3000.00
01649             -80.00     2600.00
01650             -80.00     2400.00
01651             -80.00     2200.00
01652             -80.00     2200.00
01653             -80.00     2000.00
01654             -60.00     1800.00
01655             -80.00     1600.00
01656             -80.00     1400.00
01657             -60.00     1000.00
01658             -60.00     1000.00
01659             -60.00      800.00
01660             -80.00      600.00
01661             -60.00      600.00
01662             -60.00      200.00
01663             -20.00      200.00
01664             -20.00     -200.00
01665             -20.00     -400.00
01666              60.00     -400.00
01667              60.00     -600.00
01668              20.00    -1000.00
01669               0.00     -800.00
01670              20.00    -1200.00
01671              20.00    -1400.00
01672              80.00    -1400.00
01673             360.00    -1800.00
01674             800.00    -2000.00
01675             420.00    -2200.00
01676            -400.00    -2200.00
01677            -780.00    -2600.00
01678            -860.00    -2800.00
01679            -320.00    -2400.00
01680             580.00    -3200.00
01681               0.00    -3400.00
01682            -140.00    -3200.00
01683             320.00    -3800.00
01684            -100.00    -3400.00
01685              80.00    -3800.00
01686             140.00    -4200.00
01687             -80.00    -4200.00
01688             300.00    -4600.00
01689              80.00    -4400.00
01690            -180.00    -5000.00
01691             -60.00    -5000.00
01692              60.00    -5000.00
01693              80.00    -5400.00
01694               0.00    -5200.00
01695             100.00    -5600.00
01696             -20.00    -5800.00
01697              20.00    -5800.00
01698             160.00    -6200.00
01699               0.00    -6000.00
01700              20.00    -6600.00
01701              80.00    -6600.00
01702              80.00    -6600.00
01703              40.00    -6800.00
01704               0.00    -6800.00
01705              80.00    -7200.00
01706              80.00    -7000.00
01707              80.00    -7400.00
01708              60.00    -7600.00
01709              80.00    -7400.00
01710              80.00    -7800.00
01711              60.00    -7800.00
01712              80.00    -8200.00
01713              40.00    -8000.00
01714              60.00    -8200.00
01715             100.00    -8400.00
01716             120.00    -8200.00
01717              80.00    -8600.00
01718              80.00    -8600.00
01719             100.00    -8600.00
01720              60.00    -9000.00
01721              80.00    -9000.00
01722             140.00    -9000.00
01723             120.00    -9200.00
01724             100.00    -9200.00
01725              80.00    -9200.00
01726              80.00    -9200.00
01727              80.00    -9400.00
01728             120.00    -9400.00
01729             140.00    -9600.00
01730             100.00    -9600.00
01731              80.00    -9800.00
01732              80.00    -9800.00
01733             100.00    -9800.00
01734             100.00    -9800.00
01735             120.00   -10000.00
01736             140.00   -10000.00
01737             100.00    -9800.00
01738             100.00   -10000.00
01739             160.00   -10000.00
01740             140.00   -10000.00
01741             120.00   -10000.00
01742             100.00   -10000.00
01743              80.00   -10000.00
01744             100.00   -10200.00
01745             140.00   -10200.00
01746             160.00   -10000.00
01747             120.00   -10200.00
01748             100.00   -10000.00
01749             120.00   -10000.00
01750             120.00   -10000.00
01751             140.00   -10000.00
01752             140.00   -10000.00
01753             140.00   -10000.00
01754             140.00   -10000.00
01755             140.00   -10000.00
01756             160.00   -10000.00
01757             140.00   -10000.00
01758             140.00    -9800.00
01759             140.00    -9800.00
01760             140.00    -9800.00
01761             160.00    -9800.00
01762             160.00    -9800.00
01763             140.00    -9800.00
01764             140.00    -9600.00
01765             100.00    -9400.00
01766             140.00    -9400.00
01767             160.00    -9400.00
01768             180.00    -9200.00
01769             160.00    -9200.00
01770             140.00    -9200.00
01771             140.00    -9000.00
01772             100.00    -9000.00
01773             140.00    -9000.00
01774             160.00    -9000.00
01775             160.00    -9000.00
01776             160.00    -8600.00
01777             140.00    -8400.00
01778             140.00    -8600.00
01779             140.00    -8200.00
01780             140.00    -8200.00
01781             160.00    -8000.00
01782             140.00    -8000.00
01783             140.00    -7800.00
01784             140.00    -7600.00
01785             100.00    -7600.00
01786             100.00    -7400.00
01787             140.00    -7200.00
01788             140.00    -7200.00
01789             140.00    -7000.00
01790             140.00    -7000.00
01791             120.00    -6800.00
01792             100.00    -6800.00
01793             120.00    -6600.00
01794             140.00    -6400.00
01795             140.00    -6200.00
01796             120.00    -6200.00
01797             100.00    -6000.00
01798             100.00    -5800.00
01799             100.00    -5600.00
01800             140.00    -5400.00
01801             100.00    -5400.00
01802             100.00    -5200.00
01803             100.00    -5000.00
01804             100.00    -4600.00
01805              80.00    -4600.00
01806             100.00    -4400.00
01807              80.00    -4200.00
01808              80.00    -4200.00
01809              80.00    -3800.00
01810             100.00    -3800.00
01811              80.00    -3600.00
01812              80.00    -3400.00
01813              80.00    -3400.00
01814              80.00    -3000.00
01815              80.00    -2800.00
01816              80.00    -2800.00
01817              60.00    -2600.00
01818              60.00    -2400.00
01819              60.00    -2200.00
01820              60.00    -1800.00
01821              60.00    -1800.00
01822              80.00    -1800.00
01823              60.00    -1200.00
01824              60.00    -1200.00
01825              60.00    -1000.00
01826              60.00     -800.00
01827              60.00     -600.00
01828              60.00     -400.00
01829              60.00     -400.00
01830              40.00     -200.00
01831              60.00      200.00
01832              60.00      200.00
01833             100.00      400.00
01834             160.00      600.00
01835             160.00      800.00
01836             120.00     1000.00
01837             100.00     1200.00
01838             100.00     1200.00
01839             160.00     1400.00
01840             620.00     1800.00
01841            1000.00     2000.00
01842             300.00     2000.00
01843            -700.00     2200.00
01844           -1140.00     2200.00
01845            -840.00     2800.00
01846             660.00     3000.00
01847             540.00     2800.00
01848            -380.00     3200.00
01849             320.00     3200.00
01850              60.00     3400.00
01851            -220.00     4200.00
01852             180.00     3600.00
01853            -100.00     4200.00
01854             320.00     4600.00
01855             100.00     3800.00
01856            -320.00     5000.00
01857             140.00     4800.00
01858             -80.00     4600.00
01859             -40.00     5400.00
01860              60.00     5000.00
01861               0.00     5800.00
01862               0.00     5600.00
01863            -160.00     5600.00
01864             140.00     6200.00
01865             -40.00     5800.00
01866            -100.00     6600.00
01867              60.00     6200.00
01868             -40.00     6600.00
01869             -60.00     6800.00
01870            -100.00     6600.00
01871             -20.00     7400.00
01872             -20.00     7000.00
01873             -20.00     7400.00
01874             -60.00     7400.00
01875             -80.00     7400.00
01876             -80.00     7800.00
01877             -60.00     7600.00
01878             -20.00     7800.00
01879            -100.00     8000.00
01880             -80.00     8200.00
01881            -100.00     8200.00
01882             -80.00     8400.00
01883             -60.00     8400.00
01884             -60.00     8400.00
01885             -80.00     8600.00
01886            -140.00     8600.00
01887             -80.00     9000.00
01888             -80.00     9000.00
01889             -60.00     9000.00
01890            -100.00     9200.00
01891            -100.00     9000.00
01892            -140.00     9200.00
01893            -100.00     9200.00
01894             -80.00     9400.00
01895            -100.00     9600.00
01896            -100.00     9400.00
01897            -100.00     9600.00
01898            -100.00     9800.00
01899            -100.00     9800.00
01900            -100.00     9800.00
01901            -100.00    10000.00
01902            -100.00     9800.00
01903            -100.00     9800.00
01904            -100.00    10000.00
01905            -120.00    10000.00
01906            -160.00    10000.00
01907            -100.00    10000.00
01908            -100.00    10000.00
01909            -140.00    10000.00
01910            -140.00    10200.00
01911            -140.00    10200.00
01912            -120.00    10200.00
01913            -100.00    10200.00
01914            -120.00    10200.00
01915            -100.00    10000.00
01916            -120.00    10200.00
01917            -140.00    10200.00
01918            -140.00    10000.00
01919            -160.00    10200.00
01920            -160.00    10200.00
01921            -140.00    10000.00
01922            -120.00    10000.00
01923            -140.00    10200.00
01924            -140.00     9800.00
01925            -140.00    10000.00
01926            -160.00     9800.00
01927            -160.00    10000.00
01928            -140.00     9800.00
01929            -140.00     9800.00
01930            -140.00     9600.00
01931            -140.00     9600.00
01932            -140.00     9800.00
01933            -160.00     9400.00
01934            -140.00     9400.00
01935            -140.00     9400.00
01936            -120.00     9200.00
01937            -140.00     9200.00
01938            -160.00     9200.00
01939            -140.00     9000.00
01940            -140.00     9000.00
01941            -140.00     9000.00
01942            -140.00     8800.00
01943            -140.00     8600.00
01944            -140.00     8600.00
01945            -140.00     8600.00
01946            -160.00     8200.00
01947            -160.00     8200.00
01948            -140.00     8000.00
01949            -140.00     7800.00
01950            -160.00     7800.00
01951            -160.00     7800.00
01952            -140.00     7600.00
01953            -140.00     7600.00
01954            -140.00     7400.00
01955            -100.00     7400.00
01956            -140.00     7000.00
01957            -140.00     6800.00
01958            -140.00     6800.00
01959            -120.00     6600.00
01960            -140.00     6600.00
01961            -120.00     6200.00
01962            -120.00     6200.00
01963            -100.00     6200.00
01964            -120.00     6000.00
01965            -140.00     5800.00
01966            -100.00     5800.00
01967            -100.00     5400.00
01968            -100.00     5400.00
01969            -100.00     5200.00
01970            -120.00     5000.00
01971            -100.00     5000.00
01972            -120.00     4800.00
01973            -100.00     4400.00
01974            -100.00     4200.00
01975            -100.00     4200.00
01976            -100.00     4000.00
01977            -100.00     3800.00
01978            -100.00     3600.00
01979            -100.00     3400.00
01980            -100.00     3400.00
01981            -100.00     3200.00
01982            -100.00     3000.00
01983             -80.00     2800.00
01984             -80.00     2400.00
01985            -100.00     2400.00
01986            -100.00     2200.00
01987             -80.00     2000.00
01988             -80.00     1800.00
01989             -80.00     1800.00
01990             -80.00     1400.00
01991            -100.00     1200.00
01992             -80.00     1200.00
01993             -80.00      800.00
01994             -80.00      800.00
01995             -60.00      600.00
01996             -60.00      200.00
01997             -60.00      200.00
01998             -60.00      200.00
01999             -60.00     -400.00
02000               0.00     -400.00
02001              80.00     -600.00
02002              60.00     -600.00
02003              20.00    -1000.00
02004               0.00    -1200.00
02005              20.00    -1200.00
02006              60.00    -1400.00
02007             140.00    -1400.00
02008             620.00    -1800.00
02009             780.00    -2200.00
02010              60.00    -2400.00
02011            -640.00    -2600.00
02012            -820.00    -2600.00
02013            -780.00    -2600.00
02014             220.00    -2600.00
02015             460.00    -3400.00
02016            -260.00    -3000.00
02017             180.00    -3600.00
02018             180.00    -3600.00
02019            -140.00    -3400.00
02020             220.00    -4200.00
02021             -40.00    -4200.00
02022              80.00    -4200.00
02023             260.00    -4600.00
02024            -100.00    -4600.00
02025            -140.00    -5200.00
02026               0.00    -4800.00
02027             100.00    -5200.00
02028               0.00    -5400.00
02029              40.00    -5200.00
02030              60.00    -5800.00
02031             -60.00    -5800.00
02032             140.00    -6200.00
02033             120.00    -6200.00
02034             -20.00    -6000.00
02035              80.00    -6600.00
02036              80.00    -6400.00
02037              60.00    -6600.00
02038               0.00    -7000.00
02039              80.00    -7000.00
02040             140.00    -7000.00
02041              80.00    -7200.00
02042              60.00    -7600.00
02043              60.00    -7600.00
02044              80.00    -7600.00
02045              80.00    -7800.00
02046              80.00    -7800.00
02047              60.00    -8000.00
02048              60.00    -8200.00
02049              60.00    -8400.00
02050             100.00    -8400.00
02051              80.00    -8600.00
02052              80.00    -8600.00
02053             100.00    -8600.00
02054              80.00    -8800.00
02055              60.00    -8800.00
02056             100.00    -9000.00
02057             100.00    -9200.00
02058              80.00    -9200.00
02059              80.00    -9200.00
02060              80.00    -9400.00
02061              80.00    -9400.00
02062              80.00    -9400.00
02063             140.00    -9600.00
02064             140.00    -9600.00
02065              80.00    -9600.00
02066              80.00    -9800.00
02067              80.00    -9800.00
02068              80.00    -9800.00
02069             120.00   -10000.00
02070             160.00    -9800.00
02071             120.00   -10000.00
02072             100.00   -10000.00
02073             100.00   -10000.00
02074             140.00   -10000.00
02075             100.00   -10000.00
02076             140.00   -10000.00
02077             140.00   -10000.00
02078             140.00   -10000.00
02079             140.00   -10200.00
02080             140.00   -10000.00
02081             100.00   -10200.00
02082             100.00   -10000.00
02083             140.00   -10200.00
02084             160.00   -10000.00
02085             160.00   -10000.00
02086             160.00   -10000.00
02087             140.00   -10200.00
02088             120.00   -10000.00
02089             120.00   -10000.00
02090             140.00   -10000.00
02091             140.00   -10000.00
02092             160.00   -10000.00
02093             160.00    -9800.00
02094             140.00    -9800.00
02095             140.00    -9800.00
02096             140.00    -9800.00
02097             160.00    -9600.00
02098             140.00    -9600.00
02099             140.00    -9400.00
02100             140.00    -9400.00
02101             140.00    -9400.00
02102             140.00    -9400.00
02103             160.00    -9200.00
02104             160.00    -9200.00
02105             140.00    -9000.00
02106             140.00    -9000.00
02107             140.00    -9000.00
02108             140.00    -9000.00
02109             160.00    -8800.00
02110             160.00    -8800.00
02111             140.00    -8600.00
02112             140.00    -8600.00
02113             140.00    -8400.00
02114             140.00    -8200.00
02115             140.00    -8200.00
02116             140.00    -7800.00
02117             140.00    -8000.00
02118             140.00    -7800.00
02119             140.00    -7600.00
02120             140.00    -7600.00
02121             140.00    -7200.00
02122             140.00    -7200.00
02123             140.00    -7200.00
02124             140.00    -7000.00
02125             140.00    -7000.00
02126             100.00    -6800.00
02127             100.00    -6600.00
02128             100.00    -6600.00
02129             140.00    -6200.00
02130             120.00    -6000.00
02131             100.00    -6000.00
02132             100.00    -5800.00
02133             100.00    -5800.00
02134             100.00    -5400.00
02135             100.00    -5400.00
02136             100.00    -5200.00
02137             100.00    -5000.00
02138             100.00    -4800.00
02139             100.00    -4800.00
02140              80.00    -4600.00
02141              80.00    -4400.00
02142              80.00    -4200.00
02143             100.00    -4200.00
02144              80.00    -3800.00
02145              80.00    -3600.00
02146              80.00    -3400.00
02147              80.00    -3400.00
02148              80.00    -3000.00
02149              80.00    -3000.00
02150              80.00    -2800.00
02151              80.00    -2600.00
02152              80.00    -2400.00
02153              80.00    -2200.00
02154              80.00    -2000.00
02155              80.00    -2000.00
02156              60.00    -1800.00
02157              80.00    -1400.00
02158              60.00    -1200.00
02159              60.00    -1000.00
02160              60.00     -800.00
02161              60.00     -800.00
02162              60.00     -600.00
02163              60.00     -200.00
02164              60.00     -200.00
02165              60.00      200.00
02166              80.00      200.00
02167              80.00      400.00
02168             140.00      600.00
02169             160.00      600.00
02170             140.00     1000.00
02171             100.00     1000.00
02172              80.00     1200.00
02173             120.00     1400.00
02174             300.00     1600.00
02175             940.00     2000.00
02176             800.00     2000.00
02177            -220.00     2200.00
02178            -960.00     2200.00
02179           -1140.00     2600.00
02180            -160.00     3000.00
02181             940.00     3000.00
02182            -100.00     2800.00
02183            -100.00     3600.00
02184             380.00     3000.00
02185            -240.00     4000.00
02186              60.00     3800.00
02187              60.00     3600.00
02188               0.00     4600.00
02189             380.00     4200.00
02190            -260.00     4200.00
02191            -140.00     5200.00
02192             100.00     4600.00
02193            -160.00     5200.00
02194              60.00     5000.00
02195               0.00     5200.00
02196              20.00     5800.00
02197            -120.00     5200.00
02198             -40.00     6000.00
02199             140.00     6000.00
02200            -140.00     6000.00
02201             -20.00     6600.00
02202               0.00     6200.00
02203             -20.00     6800.00
02204             -80.00     6600.00
02205            -100.00     6800.00
02206               0.00     7200.00
02207             -20.00     7000.00
02208             -20.00     7400.00
02209            -100.00     7400.00
02210             -60.00     7600.00
02211            -100.00     7600.00
02212             -20.00     7800.00
02213             -60.00     7800.00
02214            -100.00     8000.00
02215            -100.00     8200.00
02216            -100.00     8200.00
02217             -20.00     8400.00
02218             -60.00     8600.00
02219             -60.00     8600.00
02220            -100.00     8600.00
02221            -120.00     8600.00
02222             -80.00     9000.00
02223             -80.00     9000.00
02224             -80.00     9000.00
02225            -100.00     9200.00
02226            -100.00     9200.00
02227            -100.00     9400.00
02228             -80.00     9400.00
02229             -60.00     9400.00
02230            -100.00     9400.00
02231            -100.00     9400.00
02232            -100.00     9800.00
02233            -100.00     9600.00
02234            -100.00     9800.00
02235            -100.00     9800.00
02236            -100.00     9800.00
02237            -100.00     9800.00
02238            -100.00     9800.00
02239            -120.00    10000.00
02240            -140.00    10000.00
02241            -140.00    10000.00
02242            -100.00    10200.00
02243            -100.00    10200.00
02244            -140.00    10200.00
02245            -140.00    10200.00
02246            -140.00    10200.00
02247            -140.00    10000.00
02248            -100.00    10200.00
02249            -100.00    10200.00
02250            -140.00    10200.00
02251            -120.00    10200.00
02252            -140.00    10200.00
02253            -140.00    10000.00
02254            -160.00    10000.00
02255            -140.00    10000.00
02256            -120.00    10000.00
02257            -140.00    10000.00
02258            -140.00     9800.00
02259            -140.00    10000.00
02260            -140.00    10000.00
02261            -140.00     9800.00
02262            -140.00     9800.00
02263            -120.00     9800.00
02264            -140.00     9800.00
02265            -120.00     9800.00
02266            -160.00     9800.00
02267            -160.00     9400.00
02268            -140.00     9400.00
02269            -140.00     9400.00
02270            -140.00     9200.00
02271            -140.00     9400.00
02272            -140.00     9200.00
02273            -160.00     9000.00
02274            -160.00     9000.00
02275            -160.00     9000.00
02276            -140.00     8800.00
02277            -140.00     8600.00
02278            -140.00     8400.00
02279            -140.00     8600.00
02280            -160.00     8400.00
02281            -120.00     8200.00
02282            -140.00     8200.00
02283            -120.00     8000.00
02284            -140.00     8000.00
02285            -140.00     7800.00
02286            -140.00     7800.00
02287            -160.00     7600.00
02288            -140.00     7400.00
02289            -120.00     7400.00
02290            -100.00     7000.00
02291            -140.00     7000.00
02292            -140.00     7000.00
02293            -140.00     6800.00
02294            -100.00     6600.00
02295            -120.00     6600.00
02296            -120.00     6200.00
02297            -100.00     6200.00
02298            -140.00     6000.00
02299            -100.00     6000.00
02300            -120.00     5800.00
02301            -140.00     5800.00
02302            -100.00     5400.00
02303            -100.00     5400.00
02304            -100.00     5200.00
02305            -100.00     5000.00
02306            -100.00     4800.00
02307            -100.00     4600.00
02308            -100.00     4400.00
02309            -100.00     4400.00
02310            -100.00     4000.00
02311            -100.00     4000.00
02312            -100.00     3800.00
02313            -100.00     3600.00
02314            -100.00     3400.00
02315             -80.00     3200.00
02316             -80.00     3000.00
02317             -80.00     2800.00
02318            -100.00     2600.00
02319            -100.00     2400.00
02320            -100.00     2200.00
02321             -80.00     2000.00
02322            -100.00     1800.00
02323             -80.00     1800.00
02324             -80.00     1400.00
02325             -80.00     1200.00
02326             -80.00     1200.00
02327             -80.00     1000.00
02328             -80.00      800.00
02329             -60.00      600.00
02330             -60.00      400.00
02331             -60.00      200.00
02332             -40.00      200.00
02333             -40.00        0.00
02334             -20.00     -400.00
02335              40.00     -400.00
02336              80.00     -600.00
02337              20.00     -800.00
02338              20.00    -1000.00
02339               0.00    -1200.00
02340               0.00    -1200.00
02341              60.00    -1400.00
02342             320.00    -1600.00
02343             780.00    -2000.00
02344             500.00    -2400.00
02345            -320.00    -2400.00
02346            -740.00    -2600.00
02347            -860.00    -2400.00
02348            -400.00    -2400.00
02349             560.00    -3200.00
02350              20.00    -3000.00
02351            -140.00    -3000.00
02352             340.00    -3800.00
02353             -80.00    -3400.00
02354              60.00    -3800.00
02355             160.00    -4400.00
02356            -100.00    -4000.00
02357             240.00    -4600.00
02358             140.00    -4600.00
02359            -160.00    -4800.00
02360             -60.00    -5000.00
02361              60.00    -5000.00
02362             100.00    -5400.00
02363               0.00    -5200.00
02364             100.00    -5600.00
02365               0.00    -5800.00
02366               0.00    -5800.00
02367             160.00    -6200.00
02368              20.00    -6000.00
02369              40.00    -6400.00
02370              80.00    -6600.00
02371              80.00    -6600.00
02372              20.00    -7000.00
02373               0.00    -6800.00
02374              80.00    -7000.00
02375             100.00    -7200.00
02376              80.00    -7400.00
02377              60.00    -7400.00
02378              80.00    -7600.00
02379              80.00    -7800.00
02380              80.00    -8000.00
02381              60.00    -8000.00
02382              60.00    -8200.00
02383              40.00    -8200.00
02384             100.00    -8400.00
02385             100.00    -8400.00
02386              60.00    -8600.00
02387              80.00    -8600.00
02388             100.00    -8800.00
02389              60.00    -8800.00
02390              80.00    -9000.00
02391             100.00    -9000.00
02392             100.00    -9200.00
02393              80.00    -9200.00
02394              80.00    -9200.00
02395              80.00    -9400.00
02396              80.00    -9400.00
02397             120.00    -9400.00
02398             140.00    -9400.00
02399             100.00    -9600.00
02400              80.00    -9800.00
02401             100.00    -9800.00
02402              80.00    -9600.00
02403             100.00    -9800.00
02404             100.00    -9800.00
02405             140.00   -10000.00
02406             100.00   -10000.00
02407             100.00   -10000.00
02408             100.00   -10000.00
02409             100.00    -9800.00
02410             140.00   -10000.00
02411             140.00   -10000.00
02412             140.00   -10000.00
02413             100.00   -10200.00
02414             140.00   -10200.00
02415             140.00   -10000.00
02416             140.00   -10200.00
02417             140.00   -10200.00
02418             160.00   -10000.00
02419             140.00   -10000.00
02420             160.00   -10000.00
02421             140.00   -10000.00
02422             140.00   -10000.00
02423             140.00   -10000.00
02424             160.00   -10000.00
02425             140.00   -10200.00
02426             140.00    -9800.00
02427             140.00   -10000.00
02428             140.00    -9800.00
02429             140.00    -9800.00
02430             160.00    -9800.00
02431             160.00    -9600.00
02432             160.00    -9600.00
02433             160.00    -9800.00
02434             140.00    -9800.00
02435             140.00    -9400.00
02436             140.00    -9400.00
02437             140.00    -9400.00
02438             160.00    -9200.00
02439             140.00    -9000.00
02440             140.00    -9000.00
02441             140.00    -9000.00
02442             140.00    -9000.00
02443             140.00    -8800.00
02444             160.00    -8800.00
02445             140.00    -8600.00
02446             140.00    -8600.00
02447             140.00    -8400.00
02448             140.00    -8400.00
02449             120.00    -8400.00
02450             140.00    -8200.00
02451             140.00    -8000.00
02452             140.00    -7800.00
02453             120.00    -7800.00
02454             140.00    -7600.00
02455             120.00    -7600.00
02456             100.00    -7400.00
02457             140.00    -7200.00
02458             140.00    -7000.00
02459             100.00    -7000.00
02460             100.00    -6800.00
02461             100.00    -6600.00
02462             120.00    -6600.00
02463             100.00    -6400.00
02464             120.00    -6200.00
02465             140.00    -6200.00
02466             100.00    -5800.00
02467             100.00    -5800.00
02468             100.00    -5600.00
02469             100.00    -5600.00
02470             100.00    -5400.00
02471             100.00    -5200.00
02472             100.00    -5200.00
02473             100.00    -4600.00
02474              80.00    -4600.00
02475             100.00    -4600.00
02476              80.00    -4200.00
02477              80.00    -4200.00
02478             100.00    -4000.00
02479             100.00    -3800.00
02480             100.00    -3600.00
02481              80.00    -3400.00
02482              80.00    -3200.00
02483              80.00    -3000.00
02484              80.00    -3000.00
02485              80.00    -2800.00
02486              80.00    -2600.00
02487              80.00    -2400.00
02488              80.00    -2200.00
02489              80.00    -2000.00
02490              80.00    -1800.00
02491              80.00    -1800.00
02492              60.00    -1400.00
02493              60.00    -1000.00
02494              60.00     -800.00
02495              80.00     -800.00
02496              60.00     -600.00
02497              60.00     -600.00
02498              60.00     -200.00
02499              60.00     -200.00
02500              60.00      200.00
02501              60.00      400.00
02502             140.00      600.00
02503             160.00      600.00
02504             160.00      800.00
02505             140.00     1000.00
02506             100.00     1200.00
02507              80.00     1400.00
02508             160.00     1400.00
02509             580.00     1800.00
02510            1020.00     2000.00
02511             380.00     2200.00
02512            -640.00     2200.00
02513           -1120.00     2200.00
02514            -920.00     2600.00
02515             560.00     3200.00
02516             580.00     2600.00
02517            -380.00     3200.00
02518             280.00     3200.00
02519             100.00     3400.00
02520            -260.00     4200.00
02521             180.00     3600.00
02522            -100.00     4000.00
02523             260.00     4600.00
02524             160.00     3800.00
02525            -340.00     4800.00
02526             100.00     5000.00
02527             -80.00     4600.00
02528             -60.00     5400.00
02529              80.00     4800.00
02530               0.00     5800.00
02531              20.00     5600.00
02532            -180.00     5600.00
02533             100.00     6200.00
02534               0.00     5800.00
02535            -100.00     6400.00
02536              60.00     6200.00
02537             -60.00     6600.00
02538             -80.00     6800.00
02539            -140.00     6800.00
02540             -20.00     7200.00
02541               0.00     7000.00
02542               0.00     7400.00
02543             -20.00     7400.00
02544             -80.00     7400.00
02545             -60.00     7600.00
02546             -60.00     7600.00
02547               0.00     7800.00
02548             -80.00     8000.00
02549             -80.00     8200.00
02550            -100.00     8200.00
02551             -80.00     8400.00
02552             -20.00     8400.00
02553             -60.00     8600.00
02554             -80.00     8600.00
02555            -140.00     8600.00
02556             -80.00     9000.00
02557             -80.00     9000.00
02558             -60.00     9000.00
02559             -80.00     9000.00
02560            -100.00     9200.00
02561            -140.00     9200.00
02562            -100.00     9400.00
02563             -80.00     9600.00
02564             -80.00     9400.00
02565            -100.00     9400.00
02566            -100.00     9800.00
02567            -100.00     9800.00
02568            -140.00     9800.00
02569            -100.00     9800.00
02570            -100.00    10000.00
02571            -100.00    10000.00
02572            -100.00    10000.00
02573            -100.00    10000.00
02574            -100.00    10000.00
02575            -140.00    10000.00
02576            -100.00    10200.00
02577            -100.00    10200.00
02578            -140.00    10000.00
02579            -140.00    10200.00
02580            -120.00    10200.00
02581            -160.00    10000.00
02582            -140.00    10200.00
02583            -140.00    10200.00
02584            -140.00    10000.00
02585            -140.00    10000.00
02586            -140.00    10200.00
02587            -140.00    10000.00
02588            -160.00    10000.00
02589            -160.00    10000.00
02590            -140.00    10000.00
02591            -140.00    10000.00
02592            -140.00    10000.00
02593            -160.00    10000.00
02594            -140.00    10000.00
02595            -140.00     9800.00
02596            -160.00     9800.00
02597            -140.00     9800.00
02598            -160.00     9800.00
02599            -140.00     9800.00
02600            -140.00     9600.00
02601            -140.00     9600.00
02602            -160.00     9400.00
02603            -140.00     9400.00
02604            -140.00     9400.00
02605            -140.00     9400.00
02606            -140.00     9200.00
02607            -160.00     9200.00
02608            -140.00     9200.00
02609            -140.00     9000.00
02610            -140.00     8800.00
02611            -140.00     9000.00
02612            -140.00     8600.00
02613            -140.00     8600.00
02614            -140.00     8600.00
02615            -140.00     8400.00
02616            -140.00     8200.00
02617            -140.00     8200.00
02618            -140.00     8200.00
02619            -120.00     8000.00
02620            -140.00     7800.00
02621            -140.00     7600.00
02622            -140.00     7600.00
02623            -100.00     7400.00
02624            -100.00     7200.00
02625            -140.00     7200.00
02626            -160.00     7000.00
02627            -140.00     6600.00
02628            -140.00     6600.00
02629            -140.00     6800.00
02630            -100.00     6600.00
02631            -120.00     6200.00
02632            -100.00     6200.00
02633            -100.00     6000.00
02634            -100.00     6000.00
02635            -140.00     5800.00
02636            -100.00     5600.00
02637            -100.00     5400.00
02638            -100.00     5200.00
02639            -120.00     5000.00
02640            -100.00     5000.00
02641            -120.00     4600.00
02642            -100.00     4400.00
02643            -100.00     4400.00
02644            -100.00     4200.00
02645            -100.00     4200.00
02646            -100.00     3800.00
02647            -100.00     3600.00
02648            -100.00     3400.00
02649            -100.00     3200.00
02650             -80.00     3200.00
02651             -80.00     2800.00
02652            -100.00     2800.00
02653            -100.00     2600.00
02654            -100.00     2400.00
02655            -100.00     2200.00
02656             -80.00     2200.00
02657             -60.00     1800.00
02658             -60.00     1800.00
02659             -80.00     1400.00
02660             -80.00     1200.00
02661             -60.00     1000.00
02662             -80.00      800.00
02663             -60.00      600.00
02664             -80.00      600.00
02665             -40.00      400.00
02666             -40.00      200.00
02667             -60.00     -200.00
02668             -20.00     -200.00
02669               0.00     -400.00
02670              80.00     -600.00
02671              60.00     -800.00
02672              20.00     -800.00
02673              20.00    -1200.00
02674              20.00    -1200.00
02675              20.00    -1400.00
02676             140.00    -1600.00
02677             560.00    -1800.00
02678             800.00    -2200.00
02679             140.00    -2400.00
02680            -580.00    -2400.00
02681            -800.00    -2800.00
02682            -780.00    -2400.00
02683             140.00    -2600.00
02684             500.00    -3400.00
02685            -240.00    -3000.00
02686             140.00    -3600.00
02687             220.00    -3800.00
02688            -140.00    -3400.00
02689             220.00    -4200.00
02690               0.00    -4200.00
02691              60.00    -4200.00
02692             300.00    -4600.00
02693             -80.00    -4400.00
02694            -140.00    -5200.00
02695               0.00    -4800.00
02696             100.00    -5200.00
02697              20.00    -5600.00
02698              20.00    -5400.00
02699              80.00    -5800.00
02700             -60.00    -5800.00
02701             100.00    -6000.00
02702             140.00    -6200.00
02703             -20.00    -6200.00
02704              60.00    -6600.00
02705              80.00    -6400.00
02706              60.00    -6600.00
02707               0.00    -7000.00
02708              20.00    -6800.00
02709             100.00    -7200.00
02710              80.00    -7000.00
02711              60.00    -7400.00
02712              60.00    -7200.00
02713              80.00    -7600.00
02714              80.00    -7600.00
02715              80.00    -7800.00
02716              80.00    -8000.00
02717              60.00    -8200.00
02718              60.00    -8200.00
02719             100.00    -8400.00
02720              80.00    -8600.00
02721              60.00    -8600.00
02722             100.00    -8600.00
02723              80.00    -8600.00
02724              60.00    -8800.00
02725             100.00    -9000.00
02726             100.00    -9000.00
02727             100.00    -9200.00
02728              80.00    -9200.00
02729              80.00    -9200.00
02730              80.00    -9200.00
02731              80.00    -9400.00
02732             140.00    -9400.00
02733             100.00    -9400.00
02734             100.00    -9600.00
02735             100.00    -9800.00
02736             100.00    -9800.00
02737             100.00    -9800.00
02738             140.00    -9800.00
02739             140.00    -9800.00
02740             140.00    -9800.00
02741             100.00   -10000.00
02742             120.00   -10000.00
02743             100.00   -10000.00
02744             140.00   -10000.00
02745             140.00   -10000.00
02746             140.00   -10000.00
02747             140.00   -10000.00
02748             140.00   -10000.00
02749             140.00   -10000.00
02750             140.00   -10000.00
02751             120.00   -10000.00
02752             140.00   -10000.00
02753             140.00   -10200.00
02754             160.00   -10000.00
02755             140.00   -10000.00
02756             140.00   -10000.00
02757             140.00   -10000.00
02758             140.00   -10000.00
02759             140.00    -9800.00
02760             140.00    -9800.00
02761             160.00    -9800.00
02762             140.00    -9800.00
02763             140.00    -9800.00
02764             140.00    -9800.00
02765             160.00    -9600.00
02766             140.00    -9800.00
02767             160.00    -9800.00
02768             160.00    -9400.00
02769             140.00    -9400.00
02770             140.00    -9400.00
02771             140.00    -9400.00
02772             140.00    -9400.00
02773             140.00    -9200.00
02774             140.00    -9200.00
02775             140.00    -9200.00
02776             140.00    -9000.00
02777             140.00    -8800.00
02778             140.00    -9000.00
02779             140.00    -8800.00
02780             140.00    -8800.00
02781             140.00    -8600.00
02782             120.00    -8400.00
02783             140.00    -8400.00
02784             140.00    -8200.00
02785             140.00    -8000.00
02786             140.00    -7800.00
02787             140.00    -7600.00
02788             140.00    -7600.00
02789             140.00    -7600.00
02790             100.00    -7400.00
02791             140.00    -7200.00
02792             140.00    -7200.00
02793             140.00    -7000.00
02794             120.00    -6800.00
02795             100.00    -6800.00
02796             100.00    -6600.00
02797             120.00    -6600.00
02798             140.00    -6400.00
02799             100.00    -6200.00
02800             120.00    -6000.00
02801             100.00    -6000.00
02802             120.00    -5800.00
02803             100.00    -5600.00
02804             100.00    -5400.00
02805              80.00    -5400.00
02806             100.00    -5200.00
02807             100.00    -5000.00
02808              80.00    -4600.00
02809             100.00    -4600.00
02810             100.00    -4400.00
02811             100.00    -4200.00
02812             100.00    -4200.00
02813             100.00    -3800.00
02814              80.00    -3600.00
02815              80.00    -3600.00
02816              80.00    -3400.00
02817              80.00    -3200.00
02818             100.00    -3000.00
02819              80.00    -2800.00
02820              80.00    -2600.00
02821              80.00    -2400.00
02822              60.00    -2200.00
02823              80.00    -2000.00
02824              80.00    -1800.00
02825              80.00    -1800.00
02826              80.00    -1400.00
02827              80.00    -1200.00
02828              80.00    -1200.00
02829              60.00     -800.00
02830              60.00     -800.00
02831              80.00     -600.00
02832              60.00     -400.00
02833              60.00     -200.00
02834              60.00        0.00
02835              60.00      200.00
02836              80.00      400.00
02837             160.00      600.00
02838             160.00      600.00
02839             140.00     1000.00
02840             100.00     1000.00
02841              80.00     1400.00
02842             100.00     1400.00
02843             260.00     1600.00
02844             880.00     2000.00
02845             860.00     2000.00
02846            -140.00     2200.00
02847            -920.00     2200.00
02848           -1200.00     2400.00
02849            -300.00     3000.00
02850             940.00     3000.00
02851             -20.00     2800.00
02852            -160.00     3400.00
02853             400.00     3000.00
02854            -240.00     3800.00
02855               0.00     4000.00
02856              80.00     3400.00
02857             -20.00     4400.00
02858             400.00     4400.00
02859            -220.00     4200.00
02860            -160.00     5000.00
02861             120.00     4800.00
02862            -140.00     5000.00
02863              60.00     5200.00
02864               0.00     5200.00
02865              40.00     6000.00
02866            -140.00     5400.00
02867             -60.00     6000.00
02868             160.00     6200.00
02869            -140.00     6000.00
02870             -20.00     6600.00
02871               0.00     6200.00
02872             -40.00     6800.00
02873             -60.00     6600.00
02874             -80.00     7000.00
02875               0.00     7200.00
02876             -20.00     6800.00
02877               0.00     7400.00
02878             -80.00     7400.00
02879             -20.00     7600.00
02880             -60.00     7800.00
02881             -20.00     7800.00
02882             -40.00     8000.00
02883            -100.00     8000.00
02884             -80.00     8200.00
02885            -100.00     8200.00
02886             -60.00     8400.00
02887             -60.00     8600.00
02888             -20.00     8600.00
02889            -100.00     8600.00
02890            -100.00     8600.00
02891             -80.00     9000.00
02892             -80.00     9000.00
02893             -60.00     9200.00
02894             -80.00     9200.00
02895            -100.00     9200.00
02896            -140.00     9400.00
02897             -80.00     9400.00
02898             -60.00     9400.00
02899            -100.00     9400.00
02900            -100.00     9600.00
02901            -100.00     9800.00
02902            -100.00     9800.00
02903            -140.00     9800.00
02904            -100.00     9800.00
02905            -120.00     9800.00
02906            -100.00    10000.00
02907            -100.00    10000.00
02908            -140.00    10000.00
02909            -140.00    10000.00
02910            -140.00    10000.00
02911            -100.00    10000.00
02912            -120.00    10000.00
02913            -160.00    10200.00
02914            -120.00    10200.00
02915            -140.00    10200.00
02916            -140.00    10000.00
02917            -140.00    10200.00
02918            -120.00    10200.00
02919            -140.00    10200.00
02920            -100.00    10000.00
02921            -140.00    10200.00
02922            -140.00    10000.00
02923            -160.00    10200.00
02924            -160.00    10000.00
02925            -120.00    10200.00
02926            -140.00    10000.00
02927            -140.00    10000.00
02928            -140.00     9800.00
02929            -140.00    10000.00
02930            -140.00     9800.00
02931            -140.00    10000.00
02932            -140.00     9800.00
02933            -140.00     9800.00
02934            -140.00     9800.00
02935            -160.00     9800.00
02936            -160.00     9600.00
02937            -140.00     9400.00
02938            -160.00     9400.00
02939            -140.00     9200.00
02940            -120.00     9400.00
02941            -120.00     9200.00
02942            -140.00     9200.00
02943            -160.00     9000.00
02944            -160.00     9000.00
02945            -140.00     9000.00
02946            -140.00     8800.00
02947            -140.00     8600.00
02948            -140.00     8600.00
02949            -140.00     8400.00
02950            -140.00     8400.00
02951            -140.00     8200.00
02952            -140.00     8200.00
02953            -120.00     7800.00
02954            -140.00     7800.00
02955            -140.00     7800.00
02956            -140.00     7600.00
02957            -120.00     7600.00
02958            -100.00     7400.00
02959            -100.00     7400.00
02960            -140.00     7000.00
02961            -140.00     6800.00
02962            -100.00     6800.00
02963            -120.00     6600.00
02964            -100.00     6600.00
02965            -100.00     6600.00
02966            -120.00     6200.00
02967            -100.00     6000.00
02968            -140.00     6000.00
02969            -140.00     5800.00
02970            -140.00     5800.00
02971            -100.00     5400.00
02972            -100.00     5200.00
02973            -100.00     5200.00
02974            -140.00     5000.00
02975            -140.00     4800.00
02976            -120.00     4600.00
02977            -100.00     4400.00
02978            -100.00     4200.00
02979            -100.00     4200.00
02980            -100.00     4000.00
02981            -100.00     3800.00
02982            -100.00     3600.00
02983            -100.00     3400.00
02984            -100.00     3400.00
02985            -100.00     3000.00
02986             -80.00     2800.00
02987            -100.00     2600.00
02988            -100.00     2600.00
02989            -100.00     2200.00
02990             -80.00     2000.00
02991             -80.00     2000.00
02992             -80.00     1800.00
02993             -80.00     1600.00
02994             -60.00     1200.00
02995             -60.00     1200.00
02996             -80.00     1000.00
02997             -80.00      800.00
02998             -80.00      600.00
02999             -60.00      400.00
03000             -60.00      400.00
03001             -60.00      200.00
03002             -20.00     -200.00
03003             -20.00     -400.00
03004              40.00     -400.00
03005              80.00     -600.00
03006              60.00     -800.00
03007              20.00    -1000.00
03008               0.00    -1200.00
03009              40.00    -1200.00
03010              60.00    -1400.00
03011             300.00    -1600.00
03012             780.00    -2000.00
03013             560.00    -2200.00
03014            -280.00    -2200.00
03015            -740.00    -2600.00
03016            -860.00    -2600.00
03017            -480.00    -2400.00
03018             540.00    -3000.00
03019             100.00    -3400.00
03020            -180.00    -3000.00
03021             320.00    -3800.00
03022             -60.00    -3400.00
03023              20.00    -3600.00
03024             180.00    -4200.00
03025            -100.00    -4200.00
03026             240.00    -4600.00
03027             160.00    -4400.00
03028            -160.00    -4600.00
03029             -60.00    -5000.00
03030              60.00    -4800.00
03031             100.00    -5400.00
03032             -20.00    -5400.00
03033              80.00    -5600.00
03034               0.00    -5800.00
03035               0.00    -5800.00
03036             160.00    -6200.00
03037              20.00    -6000.00
03038               0.00    -6600.00
03039              60.00    -6600.00
03040              80.00    -6600.00
03041              40.00    -6800.00
03042              20.00    -6800.00
03043              80.00    -7200.00
03044             100.00    -7200.00
03045              60.00    -7400.00
03046              40.00    -7600.00
03047              80.00    -7200.00
03048              80.00    -7800.00
03049              80.00    -7800.00
03050              60.00    -7800.00
03051              20.00    -8000.00
03052              40.00    -8200.00
03053              80.00    -8200.00
03054             100.00    -8400.00
03055              80.00    -8600.00
03056              80.00    -8600.00
03057              80.00    -8600.00
03058              60.00    -8800.00
03059              80.00    -9000.00
03060             100.00    -9000.00
03061              80.00    -9000.00
03062              80.00    -9200.00
03063              80.00    -9400.00
03064             100.00    -9400.00
03065              80.00    -9400.00
03066             120.00    -9600.00
03067             140.00    -9400.00
03068             100.00    -9400.00
03069              80.00    -9800.00
03070              80.00    -9800.00
03071             100.00    -9800.00
03072             120.00    -9800.00
03073             140.00    -9800.00
03074             140.00    -9800.00
03075             100.00    -9800.00
03076             100.00    -9800.00
03077             120.00   -10000.00
03078             100.00   -10000.00
03079             140.00   -10200.00
03080             140.00   -10000.00
03081             140.00   -10200.00
03082             120.00   -10000.00
03083             120.00   -10000.00
03084             140.00   -10200.00
03085             120.00   -10000.00
03086             140.00   -10000.00
03087             160.00   -10000.00
03088             140.00   -10000.00
03089             140.00   -10000.00
03090             140.00   -10000.00
03091             140.00   -10000.00
03092             140.00   -10000.00
03093             160.00   -10000.00
03094             160.00    -9800.00
03095             140.00    -9800.00
03096             140.00    -9800.00
03097             140.00    -9800.00
03098             140.00    -9800.00
03099             160.00    -9800.00
03100             160.00    -9800.00
03101             140.00    -9800.00
03102             140.00    -9800.00
03103             100.00    -9600.00
03104             140.00    -9400.00
03105             140.00    -9400.00
03106             140.00    -9200.00
03107             160.00    -9200.00
03108             140.00    -9200.00
03109             140.00    -9200.00
03110             140.00    -9200.00
03111             140.00    -9000.00
03112             140.00    -8800.00
03113             140.00    -9000.00
03114             140.00    -8600.00
03115             140.00    -8600.00
03116             120.00    -8600.00
03117             140.00    -8200.00
03118             100.00    -8200.00
03119             140.00    -8000.00
03120             140.00    -7800.00
03121             140.00    -8000.00
03122             140.00    -7800.00
03123             100.00    -7600.00
03124             100.00    -7400.00
03125             100.00    -7200.00
03126             100.00    -7000.00
03127             140.00    -7000.00
03128             140.00    -7000.00
03129             140.00    -6800.00
03130             120.00    -6600.00
03131             100.00    -6600.00
03132             140.00    -6400.00
03133             120.00    -6200.00
03134             120.00    -6000.00
03135             140.00    -6000.00
03136             100.00    -5800.00
03137             100.00    -5600.00
03138             100.00    -5400.00
03139             100.00    -5200.00
03140             140.00    -5200.00
03141             100.00    -5000.00
03142             100.00    -4800.00
03143              80.00    -4600.00
03144             100.00    -4600.00
03145             120.00    -4400.00
03146             100.00    -4200.00
03147             100.00    -4000.00
03148              80.00    -3800.00
03149             100.00    -3600.00
03150              80.00    -3400.00
03151              80.00    -3200.00
03152              80.00    -3000.00
03153             100.00    -2800.00
03154              80.00    -2800.00
03155              80.00    -2600.00
03156              60.00    -2400.00
03157              60.00    -2200.00
03158              60.00    -2000.00
03159              80.00    -1800.00
03160              80.00    -1800.00
03161              60.00    -1200.00
03162              60.00    -1200.00
03163              60.00    -1000.00
03164              60.00     -800.00
03165              60.00     -600.00
03166              40.00     -600.00
03167              60.00     -400.00
03168              60.00     -200.00
03169              60.00      200.00
03170              60.00      400.00
03171             100.00      400.00
03172             140.00      600.00
03173             160.00      600.00
03174             140.00     1000.00
03175             100.00     1200.00
03176             100.00     1200.00
03177             140.00     1400.00
03178             520.00     1800.00
03179            1020.00     2000.00
03180             460.00     2000.00
03181            -580.00     2200.00
03182           -1120.00     2000.00
03183            -980.00     2600.00
03184             460.00     3200.00
03185             680.00     2800.00
03186            -340.00     3000.00
03187             240.00     3400.00
03188             160.00     3200.00
03189            -300.00     4400.00
03190             180.00     3800.00
03191             -60.00     3800.00
03192             220.00     4600.00
03193             180.00     3800.00
03194            -340.00     4600.00
03195              80.00     5000.00
03196             -20.00     4600.00
03197             -80.00     5400.00
03198              80.00     5000.00
03199               0.00     5600.00
03200               0.00     5800.00
03201            -160.00     5400.00
03202              80.00     6200.00
03203              20.00     5800.00
03204            -140.00     6400.00
03205              60.00     6400.00
03206             -60.00     6400.00
03207             -20.00     6800.00
03208            -100.00     6600.00
03209             -80.00     7200.00
03210             -60.00     7000.00
03211               0.00     7400.00
03212              60.00     7400.00
03213               0.00     7600.00
03214               0.00     7800.00
03215            -100.00     7600.00
03216             -60.00     7800.00
03217            -160.00     7800.00
03218            -100.00     8200.00
03219             -80.00     8200.00
03220             -20.00     8400.00
03221               0.00     8400.00
03222             -20.00     8600.00
03223             -60.00     8600.00
03224            -140.00     8600.00
03225             -80.00     8800.00
03226            -100.00     9000.00
03227             -80.00     9000.00
03228             -80.00     9200.00
03229            -140.00     9200.00
03230            -140.00     9200.00
03231            -100.00     9400.00
03232             -20.00     9400.00
03233            -100.00     9600.00
03234            -100.00     9400.00
03235            -100.00     9600.00
03236            -100.00     9800.00
03237            -140.00     9800.00
03238            -160.00     9800.00
03239            -140.00     9800.00
03240            -140.00    10000.00
03241            -140.00     9800.00
03242            -100.00     9800.00
03243            -100.00    10000.00
03244            -140.00     9800.00
03245            -140.00    10000.00
03246            -100.00    10200.00
03247            -140.00    10000.00
03248            -160.00    10000.00
03249            -160.00    10200.00
03250            -160.00    10200.00
03251            -140.00    10000.00
03252            -100.00    10200.00
03253            -100.00    10200.00
03254            -140.00    10000.00
03255            -140.00    10200.00
03256            -140.00    10200.00
03257            -160.00    10000.00
03258            -160.00    10200.00
03259            -140.00    10200.00
03260            -140.00    10000.00
03261            -140.00    10000.00
03262            -140.00    10000.00
03263            -140.00     9800.00
03264            -160.00    10000.00
03265            -140.00    10000.00
03266            -140.00     9800.00
03267            -160.00     9800.00
03268            -140.00     9600.00
03269            -140.00     9600.00
03270            -140.00     9800.00
03271            -160.00     9400.00
03272            -140.00     9400.00
03273            -120.00     9400.00
03274            -120.00     9400.00
03275            -140.00     9400.00
03276            -160.00     9200.00
03277            -140.00     9200.00
03278            -140.00     9000.00
03279            -140.00     8800.00
03280            -140.00     8600.00
03281            -140.00     8600.00
03282            -160.00     8600.00
03283            -140.00     8400.00
03284            -140.00     8200.00
03285            -160.00     8200.00
03286            -140.00     8200.00
03287            -140.00     8200.00
03288            -140.00     7800.00
03289            -120.00     7800.00
03290            -140.00     7800.00
03291            -140.00     7400.00
03292            -140.00     7400.00
03293            -120.00     7400.00
03294            -120.00     7000.00
03295            -140.00     7000.00
03296            -120.00     6800.00
03297            -140.00     6600.00
03298            -120.00     6600.00
03299            -140.00     6600.00
03300            -120.00     6200.00
03301            -100.00     6200.00
03302            -140.00     6000.00
03303            -140.00     6000.00
03304            -140.00     5800.00
03305            -140.00     5400.00
03306            -100.00     5400.00
03307            -100.00     5200.00
03308            -120.00     5000.00
03309            -100.00     5000.00
03310            -140.00     4800.00
03311            -100.00     4600.00
03312            -120.00     4400.00
03313            -100.00     4200.00
03314            -100.00     4000.00
03315            -100.00     3800.00
03316            -120.00     3600.00
03317            -100.00     3400.00
03318             -80.00     3400.00
03319             -80.00     3400.00
03320             -80.00     3000.00
03321             -80.00     2800.00
03322            -100.00     2400.00
03323             -80.00     2400.00
03324            -100.00     2200.00
03325             -80.00     2200.00
03326             -80.00     1800.00
03327             -80.00     1600.00
03328             -80.00     1400.00
03329             -80.00     1400.00
03330             -60.00     1000.00
03331             -60.00     1000.00
03332             -60.00      600.00
03333             -60.00      400.00
03334             -80.00      400.00
03335             -20.00      200.00
03336             -60.00     -200.00
03337             -20.00     -200.00
03338               0.00     -400.00
03339              80.00     -400.00
03340              60.00     -600.00
03341              40.00     -800.00
03342              20.00    -1200.00
03343              20.00    -1200.00
03344              60.00    -1400.00
03345             140.00    -1400.00
03346             540.00    -1600.00
03347             800.00    -2200.00
03348             180.00    -2400.00
03349            -560.00    -2600.00
03350            -800.00    -2800.00
03351            -800.00    -2400.00
03352              80.00    -2600.00
03353             560.00    -3400.00
03354            -240.00    -3000.00
03355              80.00    -3400.00
03356             240.00    -4000.00
03357            -160.00    -3400.00
03358             200.00    -4200.00
03359              60.00    -4200.00
03360              40.00    -4400.00
03361             300.00    -4600.00
03362             -60.00    -4600.00
03363            -160.00    -5000.00
03364             -20.00    -5000.00
03365             100.00    -5200.00
03366              60.00    -5400.00
03367              20.00    -5400.00
03368              40.00    -5800.00
03369             -80.00    -5800.00
03370             100.00    -6000.00
03371             160.00    -6200.00
03372               0.00    -6200.00
03373              20.00    -6600.00
03374              60.00    -6400.00
03375              60.00    -6800.00
03376               0.00    -7000.00
03377              60.00    -7000.00
03378             140.00    -7200.00
03379              80.00    -7200.00
03380              20.00    -7400.00
03381              60.00    -7400.00
03382              80.00    -7600.00
03383              80.00    -7800.00
03384              80.00    -7800.00
03385              80.00    -8200.00
03386              20.00    -8200.00
03387              60.00    -8400.00
03388             140.00    -8400.00
03389             100.00    -8600.00
03390             100.00    -8600.00
03391             100.00    -8800.00
03392              60.00    -8600.00
03393              60.00    -8800.00
03394             120.00    -9000.00
03395             140.00    -9000.00
03396             120.00    -9200.00
03397             100.00    -9200.00
03398              80.00    -9200.00
03399              80.00    -9400.00
03400             100.00    -9400.00
03401             140.00    -9400.00
03402             100.00    -9400.00
03403             100.00    -9600.00
03404             120.00    -9600.00
03405             100.00    -9600.00
03406              80.00    -9800.00
03407             100.00    -9800.00
03408             140.00   -10000.00
03409             140.00   -10000.00
03410             140.00    -9800.00
03411             140.00   -10000.00
03412             140.00   -10000.00
03413             100.00   -10200.00
03414             140.00   -10000.00
03415             140.00   -10000.00
03416             120.00   -10000.00
03417             140.00   -10000.00
03418             140.00   -10000.00
03419             100.00   -10000.00
03420             100.00   -10200.00
03421             140.00   -10000.00
03422             140.00   -10000.00
03423             140.00   -10000.00
03424             140.00   -10000.00
03425             140.00   -10000.00
03426             140.00   -10000.00
03427             100.00   -10000.00
03428             140.00   -10000.00
03429             140.00   -10000.00
03430             140.00    -9800.00
03431             140.00    -9800.00
03432             140.00    -9800.00
03433             140.00    -9800.00
03434             140.00    -9800.00
03435             100.00    -9600.00
03436             140.00    -9600.00
03437             140.00    -9800.00
03438             140.00    -9400.00
03439             140.00    -9400.00
03440             140.00    -9400.00
03441             160.00    -9200.00
03442             140.00    -9400.00
03443             120.00    -9200.00
03444             140.00    -9000.00
03445             140.00    -9000.00
03446             120.00    -9000.00
03447             140.00    -8800.00
03448             140.00    -8600.00
03449             140.00    -8600.00
03450             120.00    -8400.00
03451             120.00    -8400.00
03452             140.00    -8200.00
03453             140.00    -8200.00
03454             140.00    -7800.00
03455             140.00    -8000.00
03456             120.00    -7800.00
03457             140.00    -7600.00
03458             120.00    -7600.00
03459             140.00    -7400.00
03460             100.00    -7200.00
03461             140.00    -7200.00
03462             140.00    -7000.00
03463             120.00    -7000.00
03464             100.00    -6600.00
03465             120.00    -6600.00
03466             100.00    -6600.00
03467             140.00    -6200.00
03468             120.00    -6200.00
03469             120.00    -6000.00
03470             100.00    -5800.00
03471             120.00    -5800.00
03472             100.00    -5600.00
03473             100.00    -5400.00
03474             100.00    -5200.00
03475             100.00    -5000.00
03476             120.00    -5000.00
03477             140.00    -4800.00
03478              80.00    -4600.00
03479              80.00    -4600.00
03480             100.00    -4200.00
03481             100.00    -4200.00
03482              80.00    -3800.00
03483              80.00    -3800.00
03484              80.00    -3600.00
03485              80.00    -3200.00
03486              80.00    -3200.00
03487              80.00    -3000.00
03488              60.00    -2800.00
03489              60.00    -2600.00
03490              80.00    -2600.00
03491              80.00    -2200.00
03492              80.00    -2000.00
03493              60.00    -1800.00
03494              60.00    -1800.00
03495              60.00    -1400.00
03496              60.00    -1400.00
03497              60.00    -1000.00
03498              60.00    -1000.00
03499              60.00     -800.00
03500              60.00     -600.00
03501              40.00     -400.00
03502              40.00     -400.00
03503              60.00     -200.00
03504              60.00      200.00
03505              60.00      400.00
03506             140.00      600.00
03507             160.00      600.00
03508             140.00      800.00
03509             100.00     1000.00
03510              80.00     1200.00
03511              80.00     1400.00
03512             240.00     1400.00
03513             820.00     1800.00
03514             900.00     2200.00
03515             -40.00     2200.00
03516            -900.00     2000.00
03517           -1220.00     2200.00
03518            -400.00     2800.00
03519             920.00     3200.00
03520             100.00     2800.00
03521            -220.00     3400.00
03522             420.00     3400.00
03523            -220.00     3800.00
03524             -60.00     4200.00
03525             140.00     3600.00
03526             -40.00     4400.00
03527             400.00     4600.00
03528            -160.00     4000.00
03529            -220.00     5000.00
03530             160.00     4600.00
03531            -140.00     5200.00
03532              60.00     5400.00
03533              20.00     5200.00
03534              60.00     6000.00
03535             -80.00     5400.00
03536            -100.00     6000.00
03537             160.00     6200.00
03538            -100.00     6000.00
03539             -40.00     6600.00
03540               0.00     6200.00
03541             -20.00     6800.00
03542             -40.00     6800.00
03543            -100.00     7000.00
03544               0.00     7200.00
03545             -20.00     6800.00
03546             -20.00     7400.00
03547             -60.00     7400.00
03548             -20.00     7600.00
03549             -60.00     7800.00
03550             -40.00     7800.00
03551             -60.00     7800.00
03552            -100.00     8000.00
03553             -80.00     8200.00
03554             -80.00     8200.00
03555             -60.00     8400.00
03556             -60.00     8400.00
03557             -60.00     8600.00
03558            -100.00     8600.00
03559            -160.00     8600.00
03560             -80.00     8800.00
03561             -80.00     9000.00
03562             -60.00     9200.00
03563            -100.00     9200.00
03564            -100.00     9200.00
03565            -140.00     9200.00
03566            -100.00     9400.00
03567             -80.00     9600.00
03568            -100.00     9400.00
03569            -100.00     9600.00
03570            -120.00     9800.00
03571            -100.00     9800.00
03572            -140.00     9800.00
03573            -100.00     9800.00
03574            -120.00     9800.00
03575            -100.00     9800.00
03576            -100.00    10000.00
03577            -120.00    10000.00
03578            -140.00    10200.00
03579            -140.00    10000.00
03580            -100.00    10200.00
03581            -100.00    10000.00
03582            -160.00    10000.00
03583            -160.00    10000.00
03584            -140.00    10200.00
03585            -140.00    10000.00
03586            -120.00    10200.00
03587            -100.00    10200.00
03588            -140.00    10200.00
03589            -140.00    10200.00
03590            -140.00    10200.00
03591            -140.00    10000.00
03592            -160.00    10200.00
03593            -140.00    10200.00
03594            -100.00    10000.00
03595            -120.00    10000.00
03596            -140.00    10000.00
03597            -160.00    10000.00
03598            -140.00    10000.00
03599            -140.00    10000.00
03600            -140.00     9800.00
03601            -100.00     9800.00
03602            -100.00     9800.00
03603            -140.00     9600.00
03604            -160.00     9600.00
03605            -160.00     9400.00
03606            -160.00     9600.00
03607            -100.00     9400.00
03608            -100.00     9400.00
03609            -120.00     9400.00
03610            -140.00     9200.00
03611            -160.00     9200.00
03612            -160.00     9000.00
03613            -140.00     9000.00
03614            -120.00     9000.00
03615            -120.00     8800.00
03616            -140.00     8600.00
03617            -140.00     8400.00
03618            -160.00     8400.00
03619            -160.00     8200.00
03620            -160.00     8200.00
03621            -140.00     8200.00
03622            -140.00     8200.00
03623            -140.00     8000.00
03624            -160.00     7800.00
03625            -160.00     7600.00
03626            -160.00     7400.00
03627            -140.00     7400.00
03628            -120.00     7200.00
03629            -140.00     7000.00
03630            -140.00     6800.00
03631            -140.00     6800.00
03632            -140.00     6600.00
03633            -140.00     6600.00
03634            -140.00     6200.00
03635            -140.00     6200.00
03636            -100.00     6200.00
03637            -100.00     6000.00
03638            -140.00     5800.00
03639            -140.00     5800.00
03640            -100.00     5400.00
03641            -100.00     5400.00
03642            -100.00     5200.00
03643            -100.00     5000.00
03644            -120.00     4800.00
03645            -120.00     4600.00
03646            -100.00     4600.00
03647            -100.00     4400.00
03648            -100.00     4200.00
03649            -100.00     3800.00
03650            -100.00     3800.00
03651             -80.00     3600.00
03652             -80.00     3400.00
03653            -100.00     3200.00
03654            -100.00     3000.00
03655            -100.00     3000.00
03656            -100.00     2800.00
03657             -80.00     2400.00
03658             -80.00     2200.00
03659             -80.00     2200.00
03660             -80.00     1800.00
03661             -80.00     1800.00
03662             -80.00     1600.00
03663             -60.00     1400.00
03664             -20.00     1200.00
03665             -60.00     1200.00
03666             -80.00      800.00
03667             -80.00      600.00
03668             -60.00      400.00
03669             -40.00      200.00
03670             -60.00      200.00
03671             -20.00     -200.00
03672             -20.00     -200.00
03673              60.00     -400.00
03674             100.00     -600.00
03675              60.00     -800.00
03676               0.00    -1000.00
03677               0.00     -800.00
03678               0.00    -1200.00
03679              60.00    -1400.00
03680             300.00    -1800.00
03681             780.00    -2000.00
03682             620.00    -2200.00
03683            -220.00    -2400.00
03684            -740.00    -2600.00
03685            -860.00    -2600.00
03686            -520.00    -2600.00
03687             500.00    -3000.00
03688             180.00    -3400.00
03689            -240.00    -3200.00
03690             320.00    -3800.00
03691             -20.00    -3600.00
03692               0.00    -3600.00
03693             220.00    -4400.00
03694            -100.00    -4000.00
03695             220.00    -4600.00
03696             160.00    -4600.00
03697            -180.00    -4600.00
03698             -80.00    -5000.00
03699              60.00    -5000.00
03700             100.00    -5400.00
03701             -20.00    -5400.00
03702              80.00    -5600.00
03703              20.00    -5800.00
03704             -60.00    -5800.00
03705             160.00    -6200.00
03706              60.00    -6200.00
03707               0.00    -6400.00
03708              80.00    -6600.00
03709              80.00    -6400.00
03710              40.00    -6800.00
03711               0.00    -7000.00
03712              60.00    -7000.00
03713             100.00    -7000.00
03714              80.00    -7200.00
03715              60.00    -7600.00
03716              80.00    -7400.00
03717              80.00    -7800.00
03718              80.00    -7800.00
03719              80.00    -7800.00
03720              60.00    -8200.00
03721              60.00    -8200.00
03722              80.00    -8400.00
03723             120.00    -8400.00
03724              80.00    -8600.00
03725             100.00    -8600.00
03726             100.00    -8800.00
03727              60.00    -8800.00
03728              80.00    -8800.00
03729             100.00    -9200.00
03730             120.00    -9000.00
03731              80.00    -9200.00
03732             100.00    -9200.00
03733             100.00    -9400.00
03734              80.00    -9200.00
03735             100.00    -9400.00
03736             140.00    -9400.00
03737             120.00    -9600.00
03738             100.00    -9800.00
03739             100.00    -9800.00
03740             100.00    -9800.00
03741             100.00    -9800.00
03742             140.00    -9800.00
03743             140.00    -9800.00
03744             100.00    -9800.00
03745             120.00    -9800.00
03746             140.00   -10000.00
03747             100.00    -9800.00
03748             140.00    -9800.00
03749             140.00   -10000.00
03750             140.00   -10000.00
03751             120.00   -10000.00
03752             100.00   -10200.00
03753             100.00   -10200.00
03754             140.00   -10000.00
03755             140.00   -10200.00
03756             140.00   -10000.00
03757             140.00   -10200.00
03758             140.00   -10000.00
03759             140.00   -10000.00
03760             140.00   -10000.00
03761             140.00   -10000.00
03762             140.00   -10000.00
03763             160.00    -9800.00
03764             140.00   -10000.00
03765             120.00   -10000.00
03766             140.00    -9800.00
03767             140.00   -10000.00
03768             160.00    -9800.00
03769             140.00    -9600.00
03770             140.00    -9600.00
03771             140.00    -9800.00
03772             140.00    -9400.00
03773             120.00    -9400.00
03774             140.00    -9400.00
03775             140.00    -9400.00
03776             160.00    -9400.00
03777             140.00    -9200.00
03778             140.00    -9200.00
03779             140.00    -9000.00
03780             140.00    -9000.00
03781             160.00    -9000.00
03782             160.00    -8600.00
03783             160.00    -8600.00
03784             140.00    -8600.00
03785             140.00    -8400.00
03786             140.00    -8400.00
03787             140.00    -8200.00
03788             140.00    -8200.00
03789             140.00    -8200.00
03790             140.00    -7800.00
03791             140.00    -7800.00
03792             140.00    -7600.00
03793             140.00    -7600.00
03794             140.00    -7400.00
03795             140.00    -7200.00
03796             140.00    -7200.00
03797             140.00    -7000.00
03798             100.00    -6800.00
03799             100.00    -6600.00
03800             120.00    -6600.00
03801             120.00    -6400.00
03802             100.00    -6200.00
03803             140.00    -6200.00
03804             140.00    -6000.00
03805             120.00    -6000.00
03806             100.00    -5800.00
03807             100.00    -5400.00
03808             120.00    -5400.00
03809             140.00    -5200.00
03810             100.00    -5000.00
03811             100.00    -4800.00
03812             100.00    -4800.00
03813             100.00    -4600.00
03814             100.00    -4400.00
03815             100.00    -4400.00
03816             100.00    -4000.00
03817              80.00    -3800.00
03818              80.00    -3600.00
03819              80.00    -3400.00
03820              80.00    -3200.00
03821              80.00    -3000.00
03822              80.00    -2800.00
03823              80.00    -2600.00
03824              80.00    -2600.00
03825              60.00    -2400.00
03826              60.00    -2200.00
03827              60.00    -2000.00
03828              60.00    -2000.00
03829              60.00    -1400.00
03830              60.00    -1400.00
03831              60.00    -1200.00
03832              20.00    -1000.00
03833              60.00     -800.00
03834              60.00     -600.00
03835              60.00     -400.00
03836              60.00     -400.00
03837              60.00     -200.00
03838              40.00      200.00
03839              60.00      200.00
03840              80.00      400.00
03841             160.00      600.00
03842             160.00      800.00
03843             100.00     1000.00
03844             100.00     1200.00
03845              80.00     1400.00
03846             140.00     1400.00
03847             480.00     1800.00
03848            1020.00     2000.00
03849             540.00     2200.00
03850            -540.00     2200.00
03851           -1060.00     2200.00
03852           -1040.00     2600.00
03853             380.00     3200.00
03854             740.00     2800.00
03855            -340.00     3000.00
03856             180.00     3400.00
03857             220.00     3200.00
03858            -300.00     4400.00
03859             160.00     3800.00
03860             -60.00     3800.00
03861             180.00     4800.00
03862             240.00     4200.00
03863            -340.00     4600.00
03864              60.00     5000.00
03865               0.00     4600.00
03866             -80.00     5400.00
03867              80.00     5000.00
03868               0.00     5600.00
03869              20.00     5800.00
03870            -160.00     5400.00
03871              60.00     6200.00
03872              60.00     5800.00
03873            -140.00     6200.00
03874              20.00     6400.00
03875             -20.00     6200.00
03876             -20.00     6800.00
03877            -100.00     6600.00
03878             -20.00     7200.00
03879               0.00     7000.00
03880             -20.00     7000.00
03881             -40.00     7400.00
03882             -80.00     7400.00
03883             -60.00     7800.00
03884             -80.00     7600.00
03885             -20.00     7800.00
03886             -80.00     7800.00
03887            -100.00     8000.00
03888            -100.00     8200.00
03889            -100.00     8200.00
03890             -60.00     8400.00
03891             -80.00     8600.00
03892             -60.00     8600.00
03893            -140.00     8600.00
03894            -100.00     8600.00
03895             -80.00     9000.00
03896             -80.00     9000.00
03897             -80.00     9000.00
03898            -100.00     9000.00
03899            -140.00     9200.00
03900            -100.00     9200.00
03901             -80.00     9400.00
03902            -100.00     9400.00
03903            -100.00     9600.00
03904            -140.00     9600.00
03905            -100.00     9800.00
03906            -120.00     9800.00
03907            -140.00    10000.00
03908            -100.00     9800.00
03909            -120.00     9800.00
03910            -100.00    10000.00
03911            -100.00    10000.00
03912            -140.00    10000.00
03913            -140.00    10000.00
03914            -120.00    10200.00
03915            -100.00    10200.00
03916            -120.00    10000.00
03917            -140.00    10200.00
03918            -140.00    10200.00
03919            -140.00    10000.00
03920            -140.00    10200.00
03921            -140.00    10200.00
03922            -120.00    10000.00
03923            -100.00    10000.00
03924            -140.00    10200.00
03925            -120.00    10000.00
03926            -140.00    10000.00
03927            -160.00    10000.00
03928            -120.00    10000.00
03929            -120.00    10000.00
03930            -140.00    10000.00
03931            -120.00    10000.00
03932            -140.00     9800.00
03933            -140.00     9800.00
03934            -140.00     9800.00
03935            -140.00     9800.00
03936            -140.00     9800.00
03937            -140.00     9800.00
03938            -140.00     9800.00
03939            -160.00     9600.00
03940            -160.00     9600.00
03941            -140.00     9400.00
03942            -140.00     9400.00
03943            -140.00     9400.00
03944            -140.00     9200.00
03945            -160.00     9200.00
03946            -160.00     9000.00
03947            -140.00     9000.00
03948            -140.00     9000.00
03949            -140.00     8800.00
03950            -140.00     8600.00
03951            -160.00     8600.00
03952            -140.00     8400.00
03953            -140.00     8400.00
03954            -140.00     8200.00
03955            -160.00     8200.00
03956            -140.00     8000.00
03957            -140.00     7800.00
03958            -140.00     7800.00
03959            -160.00     7600.00
03960            -160.00     7400.00
03961            -140.00     7400.00
03962            -100.00     7200.00
03963            -140.00     7000.00
03964            -160.00     7000.00
03965            -160.00     6800.00
03966            -140.00     6800.00
03967            -100.00     6600.00
03968            -140.00     6600.00
03969            -100.00     6200.00
03970            -160.00     6200.00
03971            -160.00     6000.00
03972            -140.00     6000.00
03973            -100.00     5800.00
03974            -100.00     5800.00
03975            -100.00     5400.00
03976            -100.00     5400.00
03977            -140.00     5200.00
03978            -160.00     5000.00
03979            -140.00     4800.00
03980            -100.00     4600.00
03981            -100.00     4400.00
03982             -80.00     4200.00
03983            -100.00     4000.00
03984            -100.00     3800.00
03985            -100.00     3600.00
03986            -100.00     3400.00
03987            -100.00     3400.00
03988             -80.00     3200.00
03989             -80.00     2800.00
03990            -100.00     3000.00
03991             -80.00     2600.00
03992             -80.00     2600.00
03993            -100.00     2200.00
03994            -100.00     2200.00
03995             -80.00     2000.00
03996             -60.00     1800.00
03997             -60.00     1400.00
03998             -60.00     1200.00
03999             -60.00     1000.00
04000             -80.00     1000.00
04001             -80.00      600.00
04002             -60.00      600.00
04003             -60.00      400.00
04004             -60.00      200.00
04005             -60.00      200.00
04006             -20.00     -200.00
04007               0.00     -200.00
04008              80.00     -400.00
04009              60.00     -600.00
04010              20.00     -800.00
04011              20.00    -1200.00
04012              20.00    -1200.00
04013              20.00    -1400.00
04014             100.00    -1400.00
04015             480.00    -1600.00
04016             800.00    -2200.00
04017             240.00    -2200.00
04018            -540.00    -2600.00
04019            -800.00    -2800.00
04020            -820.00    -2600.00
04021             -20.00    -2600.00
04022             580.00    -3400.00
04023            -200.00    -3000.00
04024              40.00    -3400.00
04025             260.00    -3800.00
04026            -160.00    -3400.00
04027             220.00    -4000.00
04028              20.00    -4200.00
04029             -20.00    -4200.00
04030             300.00    -4600.00
04031             -20.00    -4400.00
04032            -160.00    -5000.00
04033             -20.00    -4800.00
04034              80.00    -5000.00
04035              60.00    -5600.00
04036               0.00    -5400.00
04037              80.00    -5800.00
04038             -60.00    -5800.00
04039              60.00    -6000.00
04040             160.00    -6200.00
04041               0.00    -6200.00
04042              60.00    -6600.00
04043             100.00    -6600.00
04044              60.00    -6600.00
04045              20.00    -7000.00
04046              20.00    -7000.00
04047             120.00    -7400.00
04048              80.00    -7200.00
04049              60.00    -7400.00
04050              60.00    -7600.00
04051              80.00    -7600.00
04052              60.00    -7800.00
04053              80.00    -7800.00
04054              80.00    -8200.00
04055              60.00    -8200.00
04056              60.00    -8200.00
04057             140.00    -8200.00
04058             100.00    -8600.00
04059              60.00    -8600.00
04060             100.00    -8600.00
04061              80.00    -8800.00
04062              80.00    -8800.00
04063             140.00    -9000.00
04064             140.00    -9000.00
04065             100.00    -9200.00
04066              80.00    -9000.00
04067              80.00    -9200.00
04068              80.00    -9200.00
04069             100.00    -9400.00
04070             140.00    -9600.00
04071             120.00    -9600.00
04072             100.00    -9600.00
04073             100.00    -9800.00
04074             100.00    -9800.00
04075              80.00    -9800.00
04076             120.00    -9800.00
04077             140.00    -9800.00
04078             140.00   -10000.00
04079             100.00    -9800.00
04080             100.00   -10000.00
04081             100.00    -9800.00
04082             100.00   -10000.00
04083             120.00   -10000.00
04084             140.00   -10000.00
04085             100.00   -10200.00
04086             100.00   -10000.00
04087             120.00   -10000.00
04088             100.00   -10000.00
04089             120.00   -10000.00
04090             140.00   -10200.00
04091             140.00   -10200.00
04092             140.00   -10000.00
04093             140.00   -10000.00
04094             100.00   -10000.00
04095             140.00   -10200.00
04096             140.00    -9800.00
04097             160.00   -10000.00
04098             140.00   -10000.00
04099             140.00   -10000.00
04100             140.00    -9800.00
04101             120.00   -10000.00
04102             140.00    -9800.00
04103             140.00    -9800.00
04104             160.00    -9800.00
04105             140.00    -9800.00
04106             140.00    -9400.00
04107             140.00    -9400.00
04108             140.00    -9400.00
04109             140.00    -9400.00
04110             140.00    -9400.00
04111             160.00    -9200.00
04112             140.00    -9200.00
04113             140.00    -9000.00
04114             140.00    -9000.00
04115             140.00    -9000.00
04116             140.00    -8600.00
04117             160.00    -8600.00
04118             140.00    -8600.00
04119             140.00    -8600.00
04120             140.00    -8400.00
04121             140.00    -8200.00
04122             120.00    -8200.00
04123             140.00    -7800.00
04124             140.00    -7800.00
04125             140.00    -7800.00
04126             140.00    -7800.00
04127             140.00    -7400.00
04128             120.00    -7400.00
04129             140.00    -7200.00
04130             140.00    -7000.00
04131             140.00    -7000.00
04132             140.00    -7000.00
04133             140.00    -6800.00
04134             100.00    -6600.00
04135             120.00    -6400.00
04136             120.00    -6200.00
04137             140.00    -6200.00
04138             140.00    -6000.00
04139             100.00    -6000.00
04140             100.00    -5800.00
04141             100.00    -5600.00
04142             100.00    -5400.00
04143             100.00    -5200.00
04144             100.00    -5200.00
04145             100.00    -5000.00
04146              80.00    -4800.00
04147              80.00    -4600.00
04148             100.00    -4400.00
04149              80.00    -4400.00
04150              80.00    -4200.00
04151              80.00    -3800.00
04152              80.00    -3600.00
04153              80.00    -3600.00
04154              80.00    -3400.00
04155              80.00    -3400.00
04156              60.00    -3000.00
04157              80.00    -2800.00
04158              80.00    -2800.00
04159              60.00    -2600.00
04160              80.00    -2200.00
04161              60.00    -2200.00
04162              60.00    -2000.00
04163              60.00    -1800.00
04164              60.00    -1600.00
04165              60.00    -1200.00
04166              60.00    -1200.00
04167              40.00     -800.00
04168              60.00     -800.00
04169              60.00     -600.00
04170              60.00     -400.00
04171              60.00     -200.00
04172              60.00        0.00
04173              60.00      200.00
04174              80.00      400.00
04175             160.00      600.00
04176             160.00      600.00
04177             140.00      800.00
04178             100.00     1000.00
04179             100.00     1200.00
04180             100.00     1400.00
04181             220.00     1600.00
04182             800.00     1800.00
04183             940.00     2000.00
04184              20.00     2200.00
04185            -860.00     2200.00
04186           -1180.00     2200.00
04187            -500.00     2800.00
04188             900.00     3000.00
04189             160.00     2800.00
04190            -260.00     3400.00
04191             400.00     3000.00
04192            -140.00     3800.00
04193             -80.00     4200.00
04194             160.00     3400.00
04195             -80.00     4400.00
04196             400.00     4400.00
04197            -100.00     4200.00
04198            -240.00     5200.00
04199             140.00     4600.00
04200            -140.00     5000.00
04201              40.00     5200.00
04202              20.00     5200.00
04203              20.00     6000.00
04204             -60.00     5400.00
04205            -100.00     5800.00
04206             160.00     6200.00
04207            -100.00     5800.00
04208             -60.00     6400.00
04209              20.00     6200.00
04210             -60.00     6600.00
04211             -80.00     6600.00
04212            -100.00     6800.00
04213               0.00     7400.00
04214             -40.00     6800.00
04215             -20.00     7400.00
04216             -80.00     7400.00
04217             -60.00     7600.00
04218             -80.00     7600.00
04219             -40.00     7800.00
04220             -20.00     7800.00
04221            -100.00     7800.00
04222            -100.00     8200.00
04223            -100.00     8200.00
04224             -60.00     8400.00
04225             -80.00     8600.00
04226             -60.00     8400.00
04227            -100.00     8600.00
04228            -140.00     8800.00
04229             -80.00     9000.00
04230             -80.00     8800.00
04231             -80.00     9200.00
04232            -100.00     9200.00
04233            -100.00     9200.00
04234            -140.00     9400.00
04235             -80.00     9400.00
04236             -60.00     9400.00
04237             -80.00     9400.00
04238            -100.00     9400.00
04239            -120.00     9800.00
04240            -120.00     9800.00
04241            -140.00     9800.00
04242            -100.00     9800.00
04243            -100.00     9800.00
04244            -100.00    10000.00
04245            -100.00    10000.00
04246            -100.00    10000.00
04247            -140.00    10000.00
04248            -140.00    10000.00
04249            -100.00    10200.00
04250            -100.00    10200.00
04251            -140.00    10000.00
04252            -140.00    10200.00
04253            -120.00    10200.00
04254            -140.00    10200.00
04255            -120.00    10000.00
04256            -120.00    10200.00
04257            -140.00    10200.00
04258            -140.00    10200.00
04259            -120.00    10200.00
04260            -140.00    10000.00
04261            -140.00    10000.00
04262            -140.00    10200.00
04263            -100.00    10000.00
04264            -120.00    10000.00
04265            -140.00    10000.00
04266            -140.00    10000.00
04267            -140.00     9800.00
04268            -140.00    10000.00
04269            -140.00     9800.00
04270            -140.00     9800.00
04271            -140.00     9800.00
04272            -140.00     9800.00
04273            -140.00     9800.00
04274            -160.00     9600.00
04275            -140.00     9600.00
04276            -160.00     9400.00
04277            -140.00     9400.00
04278            -140.00     9200.00
04279            -160.00     9200.00
04280            -140.00     9000.00
04281            -160.00     9000.00
04282            -140.00     9000.00
04283            -140.00     9000.00
04284            -140.00     8600.00
04285            -160.00     8600.00
04286            -140.00     8600.00
04287            -160.00     8400.00
04288            -160.00     8200.00
04289            -140.00     8200.00
04290            -140.00     8000.00
04291            -140.00     7800.00
04292            -140.00     7800.00
04293            -160.00     7600.00
04294            -160.00     7600.00
04295            -140.00     7400.00
04296            -140.00     7400.00
04297            -100.00     7200.00
04298            -140.00     7000.00
04299            -140.00     7000.00
04300            -140.00     6800.00
04301            -140.00     6600.00
04302            -140.00     6600.00
04303            -100.00     6600.00
04304            -120.00     6200.00
04305            -100.00     6200.00
04306            -120.00     6000.00
04307            -100.00     5800.00
04308            -140.00     5600.00
04309            -120.00     5400.00
04310            -100.00     5400.00
04311            -100.00     5200.00
04312            -120.00     5000.00
04313            -120.00     4800.00
04314            -100.00     4600.00
04315            -100.00     4400.00
04316            -100.00     4400.00
04317            -100.00     4200.00
04318            -100.00     4000.00
04319            -100.00     3800.00
04320            -100.00     3600.00
04321            -100.00     3200.00
04322            -100.00     3400.00
04323            -100.00     3000.00
04324             -80.00     2800.00
04325             -80.00     2800.00
04326            -100.00     2400.00
04327            -100.00     2200.00
04328            -100.00     2200.00
04329             -80.00     2000.00
04330             -80.00     1800.00
04331             -60.00     1600.00
04332             -80.00     1400.00
04333             -80.00     1400.00
04334             -80.00     1000.00
04335             -80.00      800.00
04336             -60.00      600.00
04337             -80.00      400.00
04338             -60.00      200.00
04339             -60.00      200.00
04340             -60.00        0.00
04341             -20.00     -200.00
04342               0.00     -400.00
04343              60.00     -600.00
04344              60.00     -800.00
04345               0.00    -1000.00
04346               0.00    -1200.00
04347              20.00    -1200.00
04348              60.00    -1400.00
04349             240.00    -1600.00
04350             740.00    -2000.00
04351             640.00    -2400.00
04352            -180.00    -2400.00
04353            -720.00    -2600.00
04354            -820.00    -2800.00
04355            -620.00    -2600.00
04356             460.00    -3000.00
04357             220.00    -3400.00
04358            -260.00    -3000.00
04359             300.00    -3800.00
04360              20.00    -3600.00
04361             -40.00    -3600.00
04362             220.00    -4400.00
04363             -80.00    -4000.00
04364             160.00    -4400.00
04365             220.00    -4600.00
04366            -160.00    -4600.00
04367             -80.00    -5000.00
04368              20.00    -4800.00
04369             100.00    -5400.00
04370               0.00    -5400.00
04371              60.00    -5400.00
04372               0.00    -5800.00
04373             -40.00    -5800.00
04374             160.00    -6200.00
04375              80.00    -6000.00
04376               0.00    -6400.00
04377              80.00    -6600.00
04378              80.00    -6400.00
04379              60.00    -6800.00
04380               0.00    -7000.00
04381              80.00    -7000.00
04382             100.00    -7000.00
04383              60.00    -7400.00
04384              40.00    -7400.00
04385             100.00    -7600.00
04386             100.00    -7600.00
04387              80.00    -7800.00
04388              80.00    -7800.00
04389              60.00    -8200.00
04390              60.00    -8200.00
04391             140.00    -8400.00
04392             120.00    -8400.00
04393              60.00    -8600.00
04394              60.00    -8600.00
04395              80.00    -8600.00
04396              80.00    -8800.00
04397              80.00    -9000.00
04398             140.00    -9000.00
04399             100.00    -9000.00
04400              80.00    -9200.00
04401              80.00    -9200.00
04402             100.00    -9200.00
04403             100.00    -9200.00
04404             120.00    -9400.00
04405             140.00    -9400.00
04406             100.00    -9600.00
04407             100.00    -9600.00
04408              80.00    -9800.00
04409              80.00    -9800.00
04410             100.00    -9800.00
04411             100.00    -9800.00
04412             140.00    -9800.00
04413             120.00   -10000.00
04414             120.00    -9800.00
04415             120.00    -9800.00
04416             100.00   -10000.00
04417             140.00   -10000.00
04418             140.00   -10000.00
04419             140.00   -10000.00
04420             100.00   -10000.00
04421             100.00   -10000.00
04422             120.00   -10000.00
04423             100.00   -10000.00
04424             100.00   -10200.00
04425             140.00   -10200.00
04426             140.00   -10000.00
04427             140.00   -10200.00
04428             100.00   -10000.00
04429             120.00   -10000.00
04430             140.00   -10000.00
04431             160.00   -10000.00
04432             160.00   -10000.00
04433             140.00    -9800.00
04434             140.00    -9800.00
04435             140.00    -9800.00
04436             140.00    -9800.00
04437             140.00    -9800.00
04438             160.00    -9600.00
04439             140.00    -9600.00
04440             140.00    -9600.00
04441             140.00    -9400.00
04442             140.00    -9600.00
04443             140.00    -9400.00
04444             140.00    -9400.00
04445             160.00    -9200.00
04446             160.00    -9200.00
04447             140.00    -9200.00
04448             140.00    -9200.00
04449             140.00    -9000.00
04450             140.00    -9000.00
04451             140.00    -8600.00
04452             160.00    -8600.00
04453             140.00    -8600.00
04454             140.00    -8600.00
04455             140.00    -8200.00
04456             140.00    -8200.00
04457             140.00    -8000.00
04458             140.00    -8000.00
04459             140.00    -7800.00
04460             140.00    -7600.00
04461             120.00    -7600.00
04462             120.00    -7600.00
04463             140.00    -7400.00
04464             120.00    -7200.00
04465             140.00    -7000.00
04466             120.00    -7000.00
04467             100.00    -6800.00
04468             100.00    -6800.00
04469             100.00    -6600.00
04470             100.00    -6400.00
04471             140.00    -6200.00
04472             100.00    -6200.00
04473             100.00    -6000.00
04474             100.00    -5800.00
04475              80.00    -5600.00
04476             100.00    -5400.00
04477             140.00    -5400.00
04478             100.00    -5200.00
04479             100.00    -5000.00
04480             100.00    -5000.00
04481              80.00    -4600.00
04482              80.00    -4400.00
04483              80.00    -4400.00
04484             100.00    -4400.00
04485             100.00    -4200.00
04486             100.00    -3800.00
04487              80.00    -3600.00
04488              60.00    -3400.00
04489              80.00    -3200.00
04490              80.00    -3000.00
04491              80.00    -3000.00
04492              80.00    -2800.00
04493              80.00    -2400.00
04494              80.00    -2400.00
04495              60.00    -2200.00
04496              60.00    -2000.00
04497              80.00    -2000.00
04498              60.00    -1800.00
04499              80.00    -1400.00
04500              60.00    -1200.00
04501              60.00    -1200.00
04502              60.00     -800.00
04503              40.00     -600.00
04504              60.00     -600.00
04505              60.00     -200.00
04506              80.00     -200.00
04507              60.00      200.00
04508              60.00      200.00
04509              80.00      400.00
04510             140.00      400.00
04511             160.00      800.00
04512             140.00     1000.00
04513             120.00     1200.00
04514             100.00     1200.00
04515             100.00     1400.00
04516             460.00     1800.00
04517            1020.00     2000.00
04518             580.00     2000.00
04519            -480.00     2200.00
04520           -1040.00     2000.00
04521           -1060.00     2600.00
04522             260.00     3000.00
04523             820.00     3000.00
04524            -300.00     3000.00
04525             140.00     3400.00
04526             260.00     3200.00
04527            -320.00     4200.00
04528             160.00     3800.00
04529             -60.00     3600.00
04530             160.00     4800.00
04531             300.00     4200.00
04532            -340.00     4400.00
04533              20.00     5000.00
04534               0.00     4800.00
04535            -120.00     5200.00
04536              80.00     5000.00
04537             -20.00     5400.00
04538              20.00     5800.00
04539            -160.00     5400.00
04540              60.00     6200.00
04541              60.00     5800.00
04542            -160.00     6200.00
04543              20.00     6600.00
04544             -20.00     6200.00
04545             -60.00     6800.00
04546            -100.00     6600.00
04547             -60.00     7200.00
04548               0.00     7000.00
04549             -20.00     7000.00
04550             -20.00     7400.00
04551            -100.00     7400.00
04552             -60.00     7800.00
04553            -100.00     7600.00
04554             -20.00     7800.00
04555             -80.00     7800.00
04556             -80.00     8200.00
04557             -80.00     8200.00
04558            -100.00     8200.00
04559             -60.00     8400.00
04560             -60.00     8400.00
04561             -60.00     8600.00
04562            -140.00     8600.00
04563            -100.00     8600.00
04564             -80.00     9000.00
04565             -60.00     9000.00
04566             -60.00     9200.00
04567            -100.00     9200.00
04568            -140.00     9400.00
04569            -100.00     9200.00
04570             -60.00     9400.00
04571             -80.00     9400.00
04572            -100.00     9600.00
04573            -120.00     9600.00
04574            -100.00     9800.00
04575            -100.00     9800.00
04576            -120.00     9600.00
04577            -100.00     9800.00
04578            -100.00     9800.00
04579            -100.00    10000.00
04580            -100.00    10000.00
04581            -140.00    10000.00
04582            -140.00    10000.00
04583            -100.00    10000.00
04584            -100.00    10000.00
04585            -120.00    10200.00
04586            -140.00    10000.00
04587            -140.00    10000.00
04588            -100.00    10200.00
04589            -140.00    10200.00
04590            -100.00    10000.00
04591            -140.00    10200.00
04592            -120.00    10200.00
04593            -140.00    10200.00
04594            -100.00    10200.00
04595            -140.00    10200.00
04596            -160.00    10000.00
04597            -140.00    10000.00
04598            -140.00    10000.00
04599            -120.00     9800.00
04600            -160.00    10000.00
04601            -140.00    10000.00
04602            -160.00     9800.00
04603            -140.00     9800.00
04604            -140.00     9800.00
04605            -140.00     9800.00
04606            -140.00     9800.00
04607            -160.00     9600.00
04608            -160.00     9600.00
04609            -160.00     9400.00
04610            -160.00     9400.00
04611            -140.00     9400.00
04612            -140.00     9400.00
04613            -140.00     9200.00
04614            -160.00     9200.00
04615            -160.00     9000.00
04616            -160.00     9000.00
04617            -140.00     9000.00
04618            -140.00     8800.00
04619            -140.00     8600.00
04620            -140.00     8400.00
04621            -140.00     8600.00
04622            -140.00     8400.00
04623            -160.00     8400.00
04624            -140.00     8200.00
04625            -140.00     8000.00
04626            -100.00     8000.00
04627            -140.00     7800.00
04628            -160.00     7800.00
04629            -140.00     7600.00
04630            -140.00     7400.00
04631            -140.00     7400.00
04632            -140.00     7400.00
04633            -140.00     7000.00
04634            -140.00     6800.00
04635            -140.00     6800.00
04636            -140.00     6600.00
04637            -140.00     6400.00
04638            -100.00     6200.00
04639            -120.00     6200.00
04640            -100.00     6000.00
04641            -100.00     5800.00
04642            -140.00     5800.00
04643            -120.00     5600.00
04644            -100.00     5400.00
04645            -100.00     5400.00
04646            -100.00     5200.00
04647            -100.00     4800.00
04648            -100.00     4600.00
04649            -100.00     4600.00
04650            -100.00     4400.00
04651            -100.00     4200.00
04652            -100.00     4000.00
04653            -100.00     3800.00
04654            -100.00     3800.00
04655            -100.00     3600.00
04656             -80.00     3400.00
04657             -80.00     3200.00
04658             -80.00     3000.00
04659             -80.00     3000.00
04660             -80.00     2600.00
04661            -100.00     2400.00
04662             -80.00     2200.00
04663             -80.00     2000.00
04664             -60.00     2000.00
04665             -80.00     1800.00
04666             -60.00     1400.00
04667             -80.00     1400.00
04668             -80.00     1200.00
04669             -80.00     1000.00
04670             -60.00      600.00
04671             -60.00      600.00
04672             -80.00      400.00
04673             -60.00      200.00
04674             -60.00      200.00
04675             -20.00     -200.00
04676             -20.00     -200.00
04677              60.00     -600.00
04678              80.00     -600.00
04679              60.00    -1000.00
04680              20.00    -1000.00
04681               0.00    -1200.00
04682               0.00    -1400.00
04683              80.00    -1400.00
04684             460.00    -1800.00
04685             800.00    -2200.00
04686             300.00    -2200.00
04687            -500.00    -2600.00
04688            -800.00    -2600.00
04689            -840.00    -2600.00
04690            -100.00    -2600.00
04691             600.00    -3400.00
04692            -160.00    -3200.00
04693               0.00    -3400.00
04694             300.00    -3800.00
04695            -160.00    -3400.00
04696             180.00    -4000.00
04697              60.00    -4000.00
04698             -20.00    -4200.00
04699             300.00    -4600.00
04700               0.00    -4400.00
04701            -160.00    -5000.00
04702             -20.00    -4800.00
04703              80.00    -5000.00
04704              60.00    -5400.00
04705               0.00    -5200.00
04706              80.00    -5800.00
04707             -40.00    -5800.00
04708              60.00    -6000.00
04709             160.00    -6200.00
04710               0.00    -6200.00
04711              60.00    -6400.00
04712              80.00    -6600.00
04713              60.00    -6600.00
04714              20.00    -7000.00
04715              20.00    -7000.00
04716             100.00    -7200.00
04717             100.00    -7200.00
04718              60.00    -7400.00
04719              60.00    -7600.00
04720             100.00    -7400.00
04721              80.00    -7800.00
04722              80.00    -7800.00
04723              80.00    -8200.00
04724              60.00    -8200.00
04725              60.00    -8200.00
04726             100.00    -8400.00
04727             100.00    -8400.00
04728              60.00    -8600.00
04729              80.00    -8600.00
04730              80.00    -8800.00
04731              60.00    -8800.00
04732              80.00    -9000.00
04733             100.00    -9000.00
04734             100.00    -9200.00
04735              80.00    -9200.00
04736              80.00    -9200.00
04737              80.00    -9400.00
04738             100.00    -9400.00
04739             140.00    -9400.00
04740             120.00    -9400.00
04741              80.00    -9400.00
04742             100.00    -9800.00
04743             100.00    -9800.00
04744             100.00    -9800.00
04745             100.00    -9800.00
04746             140.00    -9800.00
04747             140.00    -9800.00
04748             100.00   -10000.00
04749             120.00   -10000.00
04750             100.00   -10000.00
04751             100.00   -10000.00
04752             140.00   -10200.00
04753             120.00   -10000.00
04754             140.00   -10000.00
04755             100.00   -10000.00
04756             120.00   -10200.00
04757             140.00   -10000.00
04758             100.00   -10000.00
04759             140.00   -10200.00
04760             140.00   -10000.00
04761             140.00   -10000.00
04762             140.00   -10000.00
04763             140.00   -10000.00
04764             100.00   -10000.00
04765             140.00   -10000.00
04766             140.00    -9800.00
04767             140.00   -10000.00
04768             140.00    -9800.00
04769             140.00   -10000.00
04770             140.00    -9800.00
04771             140.00    -9800.00
04772             160.00    -9800.00
04773             160.00    -9600.00
04774             160.00    -9600.00
04775             140.00    -9600.00
04776             140.00    -9400.00
04777             140.00    -9400.00
04778             140.00    -9400.00
04779             140.00    -9400.00
04780             160.00    -9200.00
04781             140.00    -9200.00
04782             140.00    -9000.00
04783             120.00    -9000.00
04784             140.00    -9000.00
04785             140.00    -8800.00
04786             160.00    -8600.00
04787             140.00    -8600.00
04788             140.00    -8600.00
04789             140.00    -8400.00
04790             140.00    -8200.00
04791             140.00    -8200.00
04792             140.00    -8200.00
04793             140.00    -8000.00
04794             140.00    -7800.00
04795             140.00    -7600.00
04796             140.00    -7600.00
04797             100.00    -7200.00
04798             100.00    -7200.00
04799             140.00    -7200.00
04800             140.00    -7000.00
04801             140.00    -7000.00
04802             100.00    -6800.00
04803             100.00    -6600.00
04804             100.00    -6600.00
04805             140.00    -6400.00
04806             140.00    -6200.00
04807             100.00    -6200.00
04808             100.00    -6000.00
04809             100.00    -5800.00
04810             100.00    -5600.00
04811             100.00    -5400.00
04812             100.00    -5200.00
04813             100.00    -5000.00
04814             100.00    -5000.00
04815              80.00    -4600.00
04816              80.00    -4600.00
04817              80.00    -4400.00
04818              80.00    -4200.00
04819             100.00    -4200.00
04820             100.00    -3800.00
04821              80.00    -3800.00
04822              80.00    -3600.00
04823              80.00    -3400.00
04824              80.00    -3200.00
04825             100.00    -3000.00
04826              80.00    -2800.00
04827              80.00    -2600.00
04828              80.00    -2600.00
04829              60.00    -2200.00
04830              80.00    -2200.00
04831              80.00    -1800.00
04832              60.00    -1800.00
04833              80.00    -1400.00
04834              80.00    -1400.00
04835              80.00    -1200.00
04836              60.00     -800.00
04837              60.00     -800.00
04838              80.00     -600.00
04839              60.00     -400.00
04840              60.00     -200.00
04841              60.00     -200.00
04842              60.00      200.00
04843              60.00      400.00
04844             140.00      600.00
04845             160.00      600.00
04846             140.00      800.00
04847             100.00     1000.00
04848              80.00     1200.00
04849             100.00     1200.00
04850             200.00     1600.00
04851             760.00     1800.00
04852             960.00     2200.00
04853             100.00     2200.00
04854            -820.00     2200.00
04855           -1180.00     2600.00
04856            -580.00     2800.00
04857             860.00     3000.00
04858             240.00     2800.00
04859            -300.00     3400.00
04860             400.00     3200.00
04861            -100.00     3600.00
04862            -100.00     4200.00
04863             140.00     3400.00
04864            -100.00     4200.00
04865             380.00     4400.00
04866             -60.00     4000.00
04867            -280.00     5000.00
04868             140.00     4600.00
04869            -140.00     5000.00
04870              20.00     5200.00
04871              20.00     5000.00
04872              20.00     5800.00
04873             -60.00     5400.00
04874            -140.00     5800.00
04875             160.00     6200.00
04876            -100.00     5800.00
04877             -80.00     6600.00
04878               0.00     6200.00
04879             -40.00     6600.00
04880             -60.00     6800.00
04881            -100.00     6800.00
04882               0.00     7200.00
04883             -20.00     6800.00
04884               0.00     7400.00
04885             -80.00     7200.00
04886             -60.00     7600.00
04887             -80.00     7600.00
04888             -60.00     7800.00
04889             -20.00     7800.00
04890            -100.00     8000.00
04891             -60.00     8200.00
04892            -100.00     8200.00
04893             -60.00     8400.00
04894             -60.00     8200.00
04895             -60.00     8600.00
04896             -80.00     8800.00
04897            -140.00     8600.00
04898            -100.00     9000.00
04899             -80.00     8800.00
04900             -60.00     9200.00
04901             -80.00     9000.00
04902            -100.00     9400.00
04903            -120.00     9400.00
04904             -80.00     9400.00
04905             -60.00     9400.00
04906            -100.00     9400.00
04907            -120.00     9400.00
04908            -140.00     9800.00
04909            -100.00     9800.00
04910            -120.00     9800.00
04911            -100.00     9800.00
04912            -100.00     9800.00
04913            -100.00    10000.00
04914            -100.00    10000.00
04915            -100.00    10000.00
04916            -140.00    10000.00
04917            -140.00    10000.00
04918            -120.00    10200.00
04919            -120.00    10200.00
04920            -140.00    10200.00
04921            -120.00    10200.00
04922            -100.00    10000.00
04923            -100.00    10200.00
04924            -140.00    10200.00
04925            -140.00    10200.00
04926            -140.00    10200.00
04927            -140.00    10200.00
04928            -100.00    10000.00
04929            -140.00    10200.00
04930            -160.00    10200.00
04931            -160.00    10000.00
04932            -160.00    10000.00
04933            -140.00    10000.00
04934            -120.00    10000.00
04935            -140.00    10000.00
04936            -140.00    10000.00
04937            -140.00     9800.00
04938            -140.00     9800.00
04939            -140.00     9800.00
04940            -160.00     9800.00
04941            -160.00     9800.00
04942            -140.00     9600.00
04943            -160.00     9600.00
04944            -140.00     9600.00
04945            -140.00     9400.00
04946            -140.00     9200.00
04947            -140.00     9400.00
04948            -160.00     9200.00
04949            -160.00     9200.00
04950            -140.00     9200.00
04951            -140.00     9000.00
04952            -140.00     8600.00
04953            -140.00     8600.00
04954            -140.00     8600.00
04955            -160.00     8600.00
04956            -140.00     8400.00
04957            -140.00     8400.00
04958            -140.00     8200.00
04959            -140.00     8200.00
04960            -140.00     8200.00
04961            -160.00     7800.00
04962            -160.00     7800.00
04963            -160.00     7600.00
04964            -140.00     7600.00
04965            -140.00     7400.00
04966            -100.00     7200.00
04967            -140.00     7000.00
04968            -140.00     7000.00
04969            -140.00     6600.00
04970            -140.00     6800.00
04971            -140.00     6600.00
04972            -120.00     6600.00
04973            -140.00     6200.00
04974            -120.00     6000.00
04975            -100.00     5800.00
04976            -140.00     5800.00
04977            -140.00     5600.00
04978            -100.00     5400.00
04979            -100.00     5200.00
04980            -100.00     5200.00
04981            -100.00     5000.00
04982            -100.00     4800.00
04983            -100.00     4600.00
04984            -100.00     4400.00
04985            -100.00     4400.00
04986            -100.00     4200.00
04987            -100.00     4000.00
04988            -100.00     3800.00
04989            -100.00     3600.00
04990            -100.00     3400.00
04991            -100.00     3400.00
04992             -80.00     3000.00
04993             -80.00     2800.00
04994             -80.00     2800.00
04995            -100.00     2600.00
04996            -100.00     2400.00
04997            -100.00     2200.00
04998             -80.00     2000.00
04999             -80.00     1800.00
05000             -80.00     1600.00
