Unit:(mV)
                     CH1         CH2
Frequency              ? 298.851 kHz
00001             300.00    -1200.00
00002             800.00    -1600.00
00003             660.00    -1840.00
00004            -220.00    -1840.00
00005           -1080.00    -2080.00
00006           -1360.00    -1840.00
00007             100.00    -2000.00
00008             860.00    -2560.00
00009            -300.00    -2080.00
00010              60.00    -2640.00
00011             480.00    -2960.00
00012            -100.00    -2320.00
00013             160.00    -2960.00
00014              60.00    -3360.00
00015            -100.00    -2880.00
00016             500.00    -3360.00
00017              40.00    -3600.00
00018            -300.00    -3600.00
00019             160.00    -3680.00
00020               0.00    -3760.00
00021              20.00    -4160.00
00022             240.00    -4080.00
00023              60.00    -4080.00
00024             -80.00    -4560.00
00025             160.00    -4400.00
00026             300.00    -4560.00
00027             -20.00    -4720.00
00028              40.00    -4880.00
00029             260.00    -4960.00
00030              80.00    -4880.00
00031              60.00    -5280.00
00032             140.00    -5280.00
00033             160.00    -5200.00
00034             180.00    -5600.00
00035             140.00    -5520.00
00036             160.00    -5600.00
00037             160.00    -5760.00
00038             160.00    -5920.00
00039             220.00    -6000.00
00040             180.00    -6000.00
00041             140.00    -6160.00
00042             180.00    -6160.00
00043             240.00    -6240.00
00044             220.00    -6400.00
00045             220.00    -6480.00
00046             260.00    -6560.00
00047             240.00    -6560.00
00048             220.00    -6720.00
00049             280.00    -6800.00
00050             300.00    -6800.00
00051             300.00    -6880.00
00052             320.00    -6880.00
00053             300.00    -6960.00
00054             300.00    -6960.00
00055             340.00    -7120.00
00056             380.00    -7120.00
00057             380.00    -7200.00
00058             380.00    -7280.00
00059             380.00    -7280.00
00060             400.00    -7280.00
00061             400.00    -7360.00
00062             460.00    -7440.00
00063             480.00    -7440.00
00064             500.00    -7520.00
00065             500.00    -7520.00
00066             540.00    -7520.00
00067             540.00    -7520.00
00068             540.00    -7600.00
00069             620.00    -7600.00
00070             620.00    -7600.00
00071             620.00    -7600.00
00072             640.00    -7600.00
00073             700.00    -7600.00
00074             700.00    -7600.00
00075             720.00    -7600.00
00076             800.00    -7600.00
00077             820.00    -7600.00
00078             860.00    -7680.00
00079             880.00    -7600.00
00080             900.00    -7600.00
00081             940.00    -7600.00
00082             980.00    -7600.00
00083            1020.00    -7520.00
00084            1040.00    -7520.00
00085            1060.00    -7520.00
00086            1100.00    -7440.00
00087            1120.00    -7440.00
00088            1120.00    -7360.00
00089            1140.00    -7280.00
00090            1140.00    -7280.00
00091            1160.00    -7200.00
00092            1180.00    -7280.00
00093            1140.00    -7120.00
00094            1140.00    -7120.00
00095            1140.00    -7040.00
00096            1140.00    -6960.00
00097            1120.00    -6960.00
00098            1120.00    -6880.00
00099            1100.00    -6800.00
00100            1040.00    -6800.00
00101            1020.00    -6640.00
00102            1020.00    -6640.00
00103             980.00    -6560.00
00104             940.00    -6400.00
00105             900.00    -6480.00
00106             880.00    -6320.00
00107             820.00    -6240.00
00108             800.00    -6160.00
00109             780.00    -6080.00
00110             740.00    -6000.00
00111             700.00    -5920.00
00112             640.00    -5840.00
00113             620.00    -5680.00
00114             580.00    -5600.00
00115             560.00    -5440.00
00116             560.00    -5440.00
00117             520.00    -5280.00
00118             480.00    -5200.00
00119             460.00    -5040.00
00120             420.00    -4960.00
00121             400.00    -4880.00
00122             380.00    -4720.00
00123             380.00    -4640.00
00124             340.00    -4560.00
00125             340.00    -4400.00
00126             320.00    -4320.00
00127             300.00    -4240.00
00128             300.00    -4000.00
00129             300.00    -3920.00
00130             260.00    -3840.00
00131             240.00    -3760.00
00132             220.00    -3600.00
00133             220.00    -3440.00
00134             220.00    -3360.00
00135             180.00    -3280.00
00136             220.00    -3040.00
00137             180.00    -2880.00
00138             160.00    -2800.00
00139             160.00    -2640.00
00140             160.00    -2480.00
00141             140.00    -2400.00
00142             140.00    -2240.00
00143             140.00    -2160.00
00144             140.00    -2000.00
00145             140.00    -1840.00
00146             100.00    -1760.00
00147             100.00    -1600.00
00148             100.00    -1440.00
00149             100.00    -1360.00
00150             100.00    -1200.00
00151             100.00    -1040.00
00152              80.00     -880.00
00153              80.00     -720.00
00154              80.00     -560.00
00155              80.00     -400.00
00156              60.00     -240.00
00157              80.00     -160.00
00158              80.00      -80.00
00159              60.00      160.00
00160              60.00      240.00
00161             100.00      400.00
00162             160.00      480.00
00163             140.00      640.00
00164             140.00      800.00
00165              80.00      880.00
00166              80.00     1120.00
00167             100.00     1200.00
00168             420.00     1440.00
00169            1020.00     1680.00
00170             640.00     1760.00
00171            -560.00     1840.00
00172           -1700.00     1600.00
00173           -1100.00     1920.00
00174             980.00     2400.00
00175             540.00     2240.00
00176            -540.00     2480.00
00177             480.00     2320.00
00178             240.00     2640.00
00179            -500.00     3440.00
00180             100.00     2560.00
00181               0.00     2960.00
00182             180.00     3920.00
00183             220.00     2960.00
00184            -540.00     3360.00
00185             100.00     4240.00
00186              80.00     3440.00
00187            -420.00     3840.00
00188             240.00     4160.00
00189              40.00     4000.00
00190            -300.00     4400.00
00191             -20.00     4080.00
00192               0.00     4640.00
00193               0.00     4800.00
00194            -260.00     4400.00
00195             -20.00     5200.00
00196              20.00     4880.00
00197            -260.00     4960.00
00198             -80.00     5280.00
00199            -140.00     5200.00
00200            -100.00     5600.00
00201             -40.00     5280.00
00202            -160.00     5600.00
00203            -100.00     5840.00
00204            -220.00     5520.00
00205            -160.00     6160.00
00206            -140.00     5840.00
00207            -180.00     6000.00
00208            -180.00     6240.00
00209            -240.00     6240.00
00210            -220.00     6400.00
00211            -160.00     6240.00
00212            -160.00     6560.00
00213            -260.00     6560.00
00214            -300.00     6480.00
00215            -260.00     6800.00
00216            -240.00     6640.00
00217            -240.00     6800.00
00218            -260.00     6880.00
00219            -320.00     6960.00
00220            -400.00     6960.00
00221            -320.00     7120.00
00222            -260.00     7200.00
00223            -320.00     7200.00
00224            -340.00     7200.00
00225            -340.00     7280.00
00226            -400.00     7360.00
00227            -460.00     7360.00
00228            -420.00     7440.00
00229            -400.00     7520.00
00230            -420.00     7440.00
00231            -420.00     7520.00
00232            -480.00     7520.00
00233            -540.00     7520.00
00234            -560.00     7600.00
00235            -540.00     7600.00
00236            -540.00     7680.00
00237            -620.00     7600.00
00238            -640.00     7680.00
00239            -640.00     7760.00
00240            -660.00     7600.00
00241            -720.00     7680.00
00242            -700.00     7600.00
00243            -800.00     7680.00
00244            -800.00     7680.00
00245            -800.00     7680.00
00246            -860.00     7680.00
00247            -940.00     7600.00
00248            -960.00     7600.00
00249            -960.00     7600.00
00250           -1000.00     7600.00
00251           -1020.00     7520.00
00252           -1040.00     7520.00
00253           -1060.00     7520.00
00254           -1120.00     7440.00
00255           -1100.00     7440.00
00256           -1120.00     7440.00
00257           -1140.00     7360.00
00258           -1160.00     7280.00
00259           -1140.00     7360.00
00260           -1160.00     7280.00
00261           -1140.00     7200.00
00262           -1120.00     7120.00
00263           -1100.00     7040.00
00264           -1100.00     6960.00
00265           -1100.00     6960.00
00266           -1120.00     6880.00
00267           -1100.00     6800.00
00268           -1060.00     6800.00
00269            -960.00     6720.00
00270            -960.00     6560.00
00271            -980.00     6560.00
00272            -960.00     6480.00
00273            -880.00     6480.00
00274            -800.00     6320.00
00275            -780.00     6240.00
00276            -780.00     6160.00
00277            -740.00     6000.00
00278            -740.00     6000.00
00279            -700.00     5920.00
00280            -640.00     5760.00
00281            -580.00     5680.00
00282            -560.00     5600.00
00283            -540.00     5440.00
00284            -500.00     5360.00
00285            -480.00     5280.00
00286            -460.00     5200.00
00287            -460.00     5040.00
00288            -460.00     4960.00
00289            -420.00     4880.00
00290            -400.00     4720.00
00291            -340.00     4640.00
00292            -300.00     4560.00
00293            -300.00     4400.00
00294            -340.00     4240.00
00295            -320.00     4080.00
00296            -300.00     4080.00
00297            -260.00     3920.00
00298            -240.00     3840.00
00299            -220.00     3680.00
00300            -220.00     3440.00
00301            -240.00     3440.00
00302            -220.00     3280.00
00303            -200.00     3120.00
00304            -200.00     3040.00
00305            -180.00     2880.00
00306            -160.00     2720.00
00307            -140.00     2640.00
00308            -140.00     2480.00
00309            -160.00     2400.00
00310            -140.00     2240.00
00311            -160.00     2080.00
00312            -120.00     1840.00
00313            -120.00     1760.00
00314            -100.00     1680.00
00315             -80.00     1520.00
00316            -100.00     1440.00
00317            -100.00     1200.00
00318            -100.00     1120.00
00319            -100.00      960.00
00320             -80.00      800.00
00321             -60.00      720.00
00322             -80.00      480.00
00323             -80.00      400.00
00324             -80.00      240.00
00325             -60.00      160.00
00326             -20.00        0.00
00327             -20.00     -160.00
00328              20.00     -320.00
00329              60.00     -400.00
00330              60.00     -560.00
00331              40.00     -720.00
00332              20.00     -880.00
00333              20.00     -880.00
00334              20.00    -1040.00
00335             120.00    -1200.00
00336             500.00    -1360.00
00337             860.00    -1680.00
00338             320.00    -1840.00
00339            -580.00    -1920.00
00340           -1360.00    -2000.00
00341            -940.00    -1760.00
00342             700.00    -2240.00
00343             420.00    -2480.00
00344            -380.00    -2160.00
00345             340.00    -3040.00
00346             240.00    -2720.00
00347            -100.00    -2400.00
00348             220.00    -3360.00
00349            -100.00    -3120.00
00350             160.00    -2960.00
00351             480.00    -3600.00
00352            -240.00    -3600.00
00353            -100.00    -3600.00
00354             160.00    -3680.00
00355             -40.00    -3840.00
00356             160.00    -4240.00
00357             200.00    -4000.00
00358             -60.00    -4320.00
00359               0.00    -4560.00
00360             240.00    -4400.00
00361             180.00    -4640.00
00362             -60.00    -4800.00
00363             180.00    -4960.00
00364             260.00    -4880.00
00365              60.00    -5040.00
00366              80.00    -5360.00
00367             140.00    -5200.00
00368             180.00    -5360.00
00369             160.00    -5600.00
00370             140.00    -5520.00
00371             180.00    -5680.00
00372             160.00    -5840.00
00373             220.00    -6000.00
00374             220.00    -6000.00
00375             160.00    -6000.00
00376             140.00    -6240.00
00377             220.00    -6160.00
00378             240.00    -6320.00
00379             220.00    -6400.00
00380             240.00    -6480.00
00381             300.00    -6560.00
00382             220.00    -6640.00
00383             240.00    -6720.00
00384             300.00    -6720.00
00385             300.00    -6880.00
00386             300.00    -6880.00
00387             320.00    -6880.00
00388             300.00    -6960.00
00389             300.00    -7040.00
00390             340.00    -7120.00
00391             400.00    -7120.00
00392             380.00    -7200.00
00393             380.00    -7280.00
00394             400.00    -7280.00
00395             400.00    -7280.00
00396             400.00    -7440.00
00397             460.00    -7360.00
00398             480.00    -7440.00
00399             480.00    -7520.00
00400             500.00    -7520.00
00401             540.00    -7520.00
00402             540.00    -7600.00
00403             560.00    -7600.00
00404             620.00    -7600.00
00405             620.00    -7600.00
00406             640.00    -7600.00
00407             660.00    -7600.00
00408             700.00    -7600.00
00409             720.00    -7600.00
00410             780.00    -7600.00
00411             800.00    -7600.00
00412             840.00    -7600.00
00413             860.00    -7600.00
00414             940.00    -7600.00
00415             940.00    -7600.00
00416             960.00    -7600.00
00417            1020.00    -7520.00
00418            1040.00    -7520.00
00419            1040.00    -7520.00
00420            1060.00    -7440.00
00421            1080.00    -7440.00
00422            1100.00    -7440.00
00423            1120.00    -7360.00
00424            1160.00    -7360.00
00425            1160.00    -7280.00
00426            1180.00    -7280.00
00427            1140.00    -7120.00
00428            1160.00    -7120.00
00429            1140.00    -7120.00
00430            1140.00    -7120.00
00431            1140.00    -6960.00
00432            1120.00    -6960.00
00433            1100.00    -6880.00
00434            1060.00    -6800.00
00435            1040.00    -6720.00
00436            1020.00    -6720.00
00437            1020.00    -6560.00
00438             980.00    -6560.00
00439             940.00    -6480.00
00440             880.00    -6400.00
00441             820.00    -6320.00
00442             800.00    -6240.00
00443             800.00    -6160.00
00444             780.00    -6000.00
00445             720.00    -5920.00
00446             700.00    -5840.00
00447             640.00    -5760.00
00448             600.00    -5680.00
00449             580.00    -5520.00
00450             560.00    -5440.00
00451             540.00    -5360.00
00452             500.00    -5280.00
00453             480.00    -5200.00
00454             420.00    -5040.00
00455             420.00    -4960.00
00456             400.00    -4880.00
00457             380.00    -4720.00
00458             380.00    -4640.00
00459             340.00    -4480.00
00460             320.00    -4400.00
00461             300.00    -4320.00
00462             300.00    -4160.00
00463             300.00    -4000.00
00464             260.00    -4000.00
00465             260.00    -3760.00
00466             240.00    -3680.00
00467             220.00    -3520.00
00468             220.00    -3440.00
00469             220.00    -3280.00
00470             180.00    -3120.00
00471             200.00    -3040.00
00472             180.00    -2800.00
00473             180.00    -2720.00
00474             160.00    -2640.00
00475             160.00    -2480.00
00476             160.00    -2320.00
00477             160.00    -2160.00
00478             140.00    -2080.00
00479             140.00    -2000.00
00480             140.00    -1840.00
00481             100.00    -1680.00
00482             100.00    -1520.00
00483             100.00    -1360.00
00484             100.00    -1280.00
00485              80.00    -1120.00
00486              80.00     -960.00
00487              80.00     -880.00
00488              80.00     -720.00
00489              80.00     -560.00
00490              60.00     -320.00
00491              60.00     -240.00
00492              60.00      -80.00
00493              60.00       80.00
00494              60.00      160.00
00495              80.00      320.00
00496             160.00      480.00
00497             140.00      560.00
00498             160.00      720.00
00499             100.00      800.00
00500             100.00      960.00
00501              80.00     1120.00
00502             160.00     1200.00
00503             720.00     1440.00
00504            1020.00     1680.00
00505             220.00     1760.00
00506           -1060.00     1840.00
00507           -1780.00     1680.00
00508            -240.00     2320.00
00509            1220.00     2400.00
00510            -160.00     2240.00
00511            -260.00     2480.00
00512             680.00     2320.00
00513            -220.00     3120.00
00514            -300.00     3120.00
00515             160.00     2400.00
00516             -80.00     3600.00
00517             380.00     3520.00
00518            -160.00     2720.00
00519            -420.00     3920.00
00520             320.00     3920.00
00521            -280.00     3360.00
00522            -220.00     4160.00
00523             360.00     3920.00
00524            -200.00     4240.00
00525            -180.00     4400.00
00526               0.00     4080.00
00527               0.00     4880.00
00528            -100.00     4400.00
00529            -240.00     4640.00
00530              80.00     5200.00
00531            -140.00     4800.00
00532            -220.00     5200.00
00533             -60.00     5200.00
00534            -160.00     5280.00
00535             -20.00     5520.00
00536            -120.00     5280.00
00537            -160.00     5920.00
00538            -160.00     5600.00
00539            -220.00     5760.00
00540            -140.00     6080.00
00541            -180.00     5840.00
00542            -180.00     6240.00
00543            -220.00     6160.00
00544            -220.00     6320.00
00545            -200.00     6320.00
00546            -180.00     6320.00
00547            -180.00     6640.00
00548            -260.00     6480.00
00549            -280.00     6640.00
00550            -260.00     6800.00
00551            -240.00     6800.00
00552            -260.00     6880.00
00553            -260.00     6960.00
00554            -340.00     6960.00
00555            -380.00     6960.00
00556            -280.00     7120.00
00557            -320.00     7200.00
00558            -340.00     7200.00
00559            -360.00     7280.00
00560            -380.00     7440.00
00561            -400.00     7440.00
00562            -420.00     7360.00
00563            -400.00     7440.00
00564            -440.00     7440.00
00565            -460.00     7440.00
00566            -440.00     7520.00
00567            -480.00     7600.00
00568            -560.00     7600.00
00569            -560.00     7520.00
00570            -500.00     7600.00
00571            -560.00     7680.00
00572            -620.00     7600.00
00573            -640.00     7680.00
00574            -660.00     7600.00
00575            -700.00     7600.00
00576            -720.00     7760.00
00577            -720.00     7760.00
00578            -800.00     7760.00
00579            -800.00     7680.00
00580            -820.00     7680.00
00581            -880.00     7600.00
00582            -940.00     7600.00
00583            -960.00     7600.00
00584            -960.00     7600.00
00585            -980.00     7600.00
00586           -1040.00     7600.00
00587           -1060.00     7520.00
00588           -1080.00     7520.00
00589           -1100.00     7440.00
00590           -1120.00     7440.00
00591           -1140.00     7440.00
00592           -1140.00     7280.00
00593           -1140.00     7360.00
00594           -1140.00     7280.00
00595           -1180.00     7280.00
00596           -1160.00     7200.00
00597           -1140.00     7120.00
00598           -1120.00     7120.00
00599           -1120.00     6960.00
00600           -1100.00     6960.00
00601           -1100.00     6880.00
00602           -1060.00     6800.00
00603           -1040.00     6800.00
00604            -980.00     6640.00
00605            -960.00     6560.00
00606            -940.00     6560.00
00607            -900.00     6480.00
00608            -880.00     6400.00
00609            -820.00     6320.00
00610            -800.00     6240.00
00611            -760.00     6160.00
00612            -720.00     6000.00
00613            -700.00     6000.00
00614            -660.00     5840.00
00615            -640.00     5680.00
00616            -600.00     5680.00
00617            -540.00     5520.00
00618            -520.00     5520.00
00619            -500.00     5360.00
00620            -480.00     5280.00
00621            -460.00     5200.00
00622            -460.00     5040.00
00623            -400.00     4960.00
00624            -380.00     4800.00
00625            -360.00     4640.00
00626            -340.00     4640.00
00627            -340.00     4480.00
00628            -320.00     4400.00
00629            -320.00     4240.00
00630            -260.00     4080.00
00631            -240.00     4000.00
00632            -260.00     3920.00
00633            -260.00     3760.00
00634            -240.00     3680.00
00635            -240.00     3520.00
00636            -200.00     3360.00
00637            -180.00     3280.00
00638            -200.00     3120.00
00639            -180.00     2960.00
00640            -180.00     2800.00
00641            -180.00     2720.00
00642            -160.00     2560.00
00643            -140.00     2400.00
00644            -100.00     2320.00
00645            -120.00     2240.00
00646            -120.00     2000.00
00647            -140.00     1840.00
00648            -140.00     1760.00
00649            -100.00     1600.00
00650            -100.00     1520.00
00651            -100.00     1360.00
00652            -100.00     1200.00
00653             -80.00     1040.00
00654             -80.00      880.00
00655             -80.00      720.00
00656            -100.00      560.00
00657            -100.00      400.00
00658             -80.00      400.00
00659             -60.00      160.00
00660             -20.00       80.00
00661             -60.00      -80.00
00662             -20.00     -160.00
00663              20.00     -320.00
00664              60.00     -480.00
00665              80.00     -560.00
00666              20.00     -800.00
00667               0.00     -880.00
00668               0.00    -1040.00
00669              20.00    -1120.00
00670             220.00    -1200.00
00671             700.00    -1440.00
00672             740.00    -1760.00
00673             -20.00    -1840.00
00674            -940.00    -2000.00
00675           -1420.00    -1920.00
00676            -260.00    -1840.00
00677             920.00    -2480.00
00678            -100.00    -2160.00
00679            -160.00    -2400.00
00680             500.00    -3120.00
00681             -20.00    -2400.00
00682              80.00    -2800.00
00683             160.00    -3440.00
00684            -140.00    -2960.00
00685             420.00    -3280.00
00686             220.00    -3600.00
00687            -320.00    -3600.00
00688             100.00    -3760.00
00689              40.00    -3760.00
00690             -20.00    -4000.00
00691             240.00    -4160.00
00692             100.00    -4080.00
00693             -80.00    -4400.00
00694             120.00    -4400.00
00695             300.00    -4400.00
00696              40.00    -4720.00
00697               0.00    -4800.00
00698             260.00    -4960.00
00699             160.00    -4880.00
00700              20.00    -5200.00
00701              80.00    -5360.00
00702             140.00    -5120.00
00703             220.00    -5520.00
00704             180.00    -5520.00
00705             180.00    -5600.00
00706             200.00    -5680.00
00707             160.00    -5840.00
00708             220.00    -6000.00
00709             220.00    -5920.00
00710             140.00    -6160.00
00711             160.00    -6240.00
00712             240.00    -6160.00
00713             240.00    -6320.00
00714             220.00    -6480.00
00715             280.00    -6480.00
00716             260.00    -6560.00
00717             220.00    -6640.00
00718             260.00    -6800.00
00719             300.00    -6720.00
00720             280.00    -6880.00
00721             300.00    -6960.00
00722             300.00    -6880.00
00723             300.00    -7040.00
00724             320.00    -7040.00
00725             380.00    -7120.00
00726             380.00    -7200.00
00727             360.00    -7200.00
00728             380.00    -7280.00
00729             380.00    -7280.00
00730             380.00    -7440.00
00731             420.00    -7360.00
00732             480.00    -7360.00
00733             480.00    -7520.00
00734             500.00    -7520.00
00735             500.00    -7520.00
00736             500.00    -7520.00
00737             540.00    -7600.00
00738             580.00    -7600.00
00739             640.00    -7600.00
00740             620.00    -7600.00
00741             640.00    -7600.00
00742             700.00    -7600.00
00743             720.00    -7600.00
00744             720.00    -7600.00
00745             780.00    -7680.00
00746             820.00    -7600.00
00747             860.00    -7600.00
00748             860.00    -7600.00
00749             900.00    -7600.00
00750             940.00    -7600.00
00751             960.00    -7520.00
00752            1020.00    -7520.00
00753            1040.00    -7520.00
00754            1060.00    -7440.00
00755            1100.00    -7440.00
00756            1120.00    -7440.00
00757            1120.00    -7440.00
00758            1120.00    -7280.00
00759            1160.00    -7280.00
00760            1160.00    -7200.00
00761            1180.00    -7200.00
00762            1140.00    -7200.00
00763            1180.00    -7120.00
00764            1140.00    -7120.00
00765            1140.00    -6960.00
00766            1140.00    -6960.00
00767            1120.00    -6960.00
00768            1100.00    -6800.00
00769            1060.00    -6800.00
00770            1020.00    -6640.00
00771            1020.00    -6640.00
00772             980.00    -6560.00
00773             960.00    -6480.00
00774             900.00    -6480.00
00775             880.00    -6320.00
00776             840.00    -6240.00
00777             800.00    -6160.00
00778             780.00    -6080.00
00779             740.00    -6000.00
00780             700.00    -6000.00
00781             660.00    -5840.00
00782             620.00    -5680.00
00783             580.00    -5600.00
00784             560.00    -5520.00
00785             540.00    -5440.00
00786             540.00    -5360.00
00787             500.00    -5200.00
00788             460.00    -5040.00
00789             420.00    -5040.00
00790             400.00    -4880.00
00791             400.00    -4800.00
00792             380.00    -4640.00
00793             340.00    -4560.00
00794             320.00    -4480.00
00795             300.00    -4400.00
00796             300.00    -4240.00
00797             280.00    -4080.00
00798             260.00    -4000.00
00799             260.00    -3840.00
00800             240.00    -3760.00
00801             220.00    -3600.00
00802             220.00    -3440.00
00803             200.00    -3360.00
00804             200.00    -3280.00
00805             180.00    -3120.00
00806             200.00    -2880.00
00807             160.00    -2880.00
00808             160.00    -2720.00
00809             160.00    -2640.00
00810             160.00    -2480.00
00811             140.00    -2320.00
00812             140.00    -2160.00
00813             140.00    -2080.00
00814             140.00    -1840.00
00815             120.00    -1760.00
00816             120.00    -1600.00
00817             100.00    -1440.00
00818             140.00    -1360.00
00819             120.00    -1120.00
00820             100.00    -1040.00
00821              80.00     -880.00
00822              60.00     -800.00
00823              80.00     -560.00
00824              80.00     -480.00
00825              80.00     -320.00
00826              80.00     -160.00
00827              60.00        0.00
00828              80.00      160.00
00829              80.00      240.00
00830             100.00      400.00
00831             140.00      480.00
00832             160.00      560.00
00833             140.00      800.00
00834             140.00      800.00
00835              80.00      960.00
00836              80.00     1120.00
00837             280.00     1360.00
00838             960.00     1680.00
00839             820.00     1760.00
00840            -220.00     1840.00
00841           -1500.00     1680.00
00842           -1440.00     1760.00
00843             620.00     2480.00
00844             860.00     2320.00
00845            -540.00     2400.00
00846             220.00     2400.00
00847             520.00     2480.00
00848            -480.00     3360.00
00849               0.00     2720.00
00850              80.00     2720.00
00851              60.00     3920.00
00852             340.00     3040.00
00853            -480.00     3040.00
00854            -100.00     4240.00
00855             240.00     3600.00
00856            -460.00     3680.00
00857             140.00     4240.00
00858             160.00     4000.00
00859            -340.00     4400.00
00860             -80.00     4160.00
00861               0.00     4400.00
00862               0.00     4880.00
00863            -220.00     4320.00
00864            -100.00     5040.00
00865              80.00     4960.00
00866            -280.00     4880.00
00867            -100.00     5360.00
00868             -80.00     5120.00
00869            -140.00     5520.00
00870             -20.00     5360.00
00871            -160.00     5520.00
00872            -140.00     5920.00
00873            -180.00     5520.00
00874            -180.00     6000.00
00875            -100.00     6000.00
00876            -180.00     5920.00
00877            -160.00     6240.00
00878            -220.00     6160.00
00879            -240.00     6400.00
00880            -180.00     6320.00
00881            -160.00     6480.00
00882            -240.00     6560.00
00883            -260.00     6480.00
00884            -260.00     6720.00
00885            -260.00     6720.00
00886            -260.00     6800.00
00887            -260.00     6880.00
00888            -260.00     6960.00
00889            -360.00     6960.00
00890            -320.00     7120.00
00891            -260.00     7120.00
00892            -320.00     7200.00
00893            -340.00     7200.00
00894            -340.00     7360.00
00895            -380.00     7440.00
00896            -420.00     7360.00
00897            -400.00     7440.00
00898            -420.00     7520.00
00899            -460.00     7440.00
00900            -460.00     7520.00
00901            -440.00     7600.00
00902            -500.00     7600.00
00903            -560.00     7600.00
00904            -540.00     7520.00
00905            -540.00     7760.00
00906            -620.00     7600.00
00907            -640.00     7680.00
00908            -640.00     7680.00
00909            -660.00     7600.00
00910            -720.00     7680.00
00911            -720.00     7680.00
00912            -740.00     7680.00
00913            -800.00     7600.00
00914            -820.00     7680.00
00915            -820.00     7680.00
00916            -900.00     7600.00
00917            -960.00     7600.00
00918            -960.00     7600.00
00919            -980.00     7600.00
00920           -1020.00     7600.00
00921           -1040.00     7520.00
00922           -1080.00     7520.00
00923           -1120.00     7440.00
00924           -1120.00     7440.00
00925           -1120.00     7440.00
00926           -1120.00     7440.00
00927           -1140.00     7360.00
00928           -1140.00     7360.00
00929           -1140.00     7200.00
00930           -1180.00     7200.00
00931           -1140.00     7120.00
00932           -1140.00     7120.00
00933           -1120.00     7120.00
00934           -1100.00     6960.00
00935           -1100.00     6960.00
00936           -1080.00     6880.00
00937           -1060.00     6800.00
00938           -1020.00     6800.00
00939            -980.00     6640.00
00940            -960.00     6560.00
00941            -920.00     6480.00
00942            -880.00     6400.00
00943            -880.00     6320.00
00944            -820.00     6240.00
00945            -780.00     6160.00
00946            -740.00     6080.00
00947            -700.00     6000.00
00948            -660.00     5920.00
00949            -640.00     5760.00
00950            -620.00     5680.00
00951            -580.00     5600.00
00952            -540.00     5520.00
00953            -500.00     5440.00
00954            -500.00     5360.00
00955            -480.00     5200.00
00956            -460.00     5120.00
00957            -420.00     5040.00
00958            -400.00     4880.00
00959            -380.00     4720.00
00960            -340.00     4640.00
00961            -320.00     4560.00
00962            -340.00     4400.00
00963            -340.00     4320.00
00964            -300.00     4240.00
00965            -260.00     4080.00
00966            -240.00     4000.00
00967            -240.00     3840.00
00968            -240.00     3680.00
00969            -240.00     3600.00
00970            -240.00     3440.00
00971            -180.00     3280.00
00972            -180.00     3280.00
00973            -180.00     3040.00
00974            -160.00     2960.00
00975            -160.00     2800.00
00976            -160.00     2640.00
00977            -160.00     2480.00
00978            -160.00     2320.00
00979            -140.00     2240.00
00980            -140.00     2080.00
00981            -140.00     2000.00
00982            -140.00     1840.00
00983            -120.00     1680.00
00984            -100.00     1520.00
00985             -80.00     1440.00
00986             -80.00     1360.00
00987            -100.00     1200.00
00988             -80.00     1040.00
00989            -100.00      800.00
00990            -100.00      720.00
00991             -80.00      560.00
00992             -80.00      400.00
00993             -60.00      240.00
00994             -40.00      160.00
00995             -60.00       80.00
00996             -60.00     -160.00
00997               0.00     -240.00
00998              80.00     -400.00
00999              60.00     -560.00
01000              40.00     -720.00
01001               0.00     -800.00
01002               0.00     -960.00
01003              20.00    -1040.00
01004              80.00    -1120.00
01005             380.00    -1280.00
01006             860.00    -1680.00
01007             540.00    -1840.00
01008            -400.00    -1840.00
01009           -1220.00    -2080.00
01010           -1200.00    -1840.00
01011             400.00    -2080.00
01012             660.00    -2560.00
01013            -340.00    -2160.00
01014             200.00    -2800.00
01015             400.00    -2880.00
01016            -140.00    -2320.00
01017             220.00    -3280.00
01018             -20.00    -3360.00
01019               0.00    -2960.00
01020             520.00    -3440.00
01021            -100.00    -3600.00
01022            -220.00    -3600.00
01023             160.00    -3760.00
01024             -20.00    -3760.00
01025             100.00    -4160.00
01026             240.00    -4080.00
01027               0.00    -4240.00
01028             -40.00    -4560.00
01029             220.00    -4400.00
01030             240.00    -4560.00
01031             -60.00    -4720.00
01032             100.00    -4960.00
01033             260.00    -4880.00
01034              80.00    -4960.00
01035              80.00    -5360.00
01036             140.00    -5280.00
01037             180.00    -5200.00
01038             180.00    -5600.00
01039             140.00    -5520.00
01040             180.00    -5680.00
01041             160.00    -5760.00
01042             200.00    -5920.00
01043             220.00    -6000.00
01044             160.00    -6000.00
01045             140.00    -6240.00
01046             200.00    -6160.00
01047             260.00    -6240.00
01048             220.00    -6400.00
01049             220.00    -6400.00
01050             260.00    -6560.00
01051             220.00    -6560.00
01052             220.00    -6640.00
01053             300.00    -6640.00
01054             300.00    -6800.00
01055             300.00    -6880.00
01056             300.00    -6880.00
01057             300.00    -6960.00
01058             300.00    -7040.00
01059             340.00    -7120.00
01060             380.00    -7120.00
01061             380.00    -7200.00
01062             380.00    -7280.00
01063             380.00    -7280.00
01064             380.00    -7280.00
01065             400.00    -7280.00
01066             460.00    -7440.00
01067             480.00    -7440.00
01068             480.00    -7440.00
01069             500.00    -7520.00
01070             520.00    -7520.00
01071             500.00    -7520.00
01072             540.00    -7520.00
01073             620.00    -7600.00
01074             620.00    -7600.00
01075             620.00    -7600.00
01076             660.00    -7600.00
01077             700.00    -7600.00
01078             700.00    -7600.00
01079             740.00    -7600.00
01080             800.00    -7600.00
01081             860.00    -7600.00
01082             860.00    -7600.00
01083             900.00    -7600.00
01084             900.00    -7520.00
01085             940.00    -7600.00
01086            1000.00    -7520.00
01087            1040.00    -7520.00
01088            1040.00    -7440.00
01089            1080.00    -7520.00
01090            1100.00    -7440.00
01091            1120.00    -7440.00
01092            1120.00    -7360.00
01093            1140.00    -7280.00
01094            1180.00    -7200.00
01095            1180.00    -7200.00
01096            1180.00    -7200.00
01097            1180.00    -7120.00
01098            1140.00    -7120.00
01099            1160.00    -6960.00
01100            1140.00    -6960.00
01101            1140.00    -6960.00
01102            1120.00    -6880.00
01103            1060.00    -6880.00
01104            1040.00    -6640.00
01105            1020.00    -6640.00
01106            1000.00    -6640.00
01107             980.00    -6480.00
01108             940.00    -6480.00
01109             880.00    -6320.00
01110             860.00    -6240.00
01111             820.00    -6240.00
01112             780.00    -6160.00
01113             780.00    -6000.00
01114             720.00    -5920.00
01115             700.00    -5840.00
01116             640.00    -5840.00
01117             580.00    -5680.00
01118             560.00    -5600.00
01119             560.00    -5440.00
01120             540.00    -5360.00
01121             500.00    -5280.00
01122             480.00    -5200.00
01123             460.00    -5040.00
01124             420.00    -4960.00
01125             380.00    -4880.00
01126             380.00    -4720.00
01127             380.00    -4640.00
01128             340.00    -4560.00
01129             320.00    -4400.00
01130             300.00    -4240.00
01131             260.00    -4160.00
01132             260.00    -4080.00
01133             260.00    -3920.00
01134             260.00    -3760.00
01135             240.00    -3760.00
01136             220.00    -3520.00
01137             220.00    -3440.00
01138             220.00    -3360.00
01139             200.00    -3120.00
01140             220.00    -3040.00
01141             180.00    -2880.00
01142             160.00    -2720.00
01143             160.00    -2720.00
01144             140.00    -2480.00
01145             140.00    -2400.00
01146             140.00    -2240.00
01147             160.00    -2160.00
01148             140.00    -2000.00
01149             120.00    -1840.00
01150             120.00    -1760.00
01151             100.00    -1520.00
01152              80.00    -1440.00
01153             140.00    -1200.00
01154             100.00    -1120.00
01155             100.00     -960.00
01156              80.00     -800.00
01157              80.00     -720.00
01158              80.00     -560.00
01159              80.00     -480.00
01160              80.00     -240.00
01161              80.00     -160.00
01162              60.00       80.00
01163              60.00      160.00
01164              80.00      320.00
01165             140.00      480.00
01166             160.00      560.00
01167             160.00      720.00
01168             140.00      800.00
01169              80.00      880.00
01170              80.00     1040.00
01171             140.00     1200.00
01172             560.00     1360.00
01173            1040.00     1680.00
01174             460.00     1760.00
01175            -800.00     1840.00
01176           -1780.00     1680.00
01177            -720.00     2080.00
01178            1180.00     2480.00
01179             180.00     2160.00
01180            -460.00     2560.00
01181             620.00     2320.00
01182               0.00     2800.00
01183            -420.00     3360.00
01184             160.00     2400.00
01185             -60.00     3200.00
01186             260.00     3760.00
01187              60.00     2800.00
01188            -540.00     3600.00
01189             240.00     4160.00
01190            -100.00     3440.00
01191            -380.00     4080.00
01192             320.00     4080.00
01193            -100.00     4080.00
01194            -260.00     4480.00
01195               0.00     4080.00
01196               0.00     4720.00
01197             -40.00     4640.00
01198            -260.00     4480.00
01199               0.00     5280.00
01200             -60.00     4800.00
01201            -260.00     5120.00
01202             -60.00     5280.00
01203            -160.00     5200.00
01204             -80.00     5600.00
01205            -100.00     5280.00
01206            -160.00     5680.00
01207            -100.00     5680.00
01208            -220.00     5680.00
01209            -140.00     6160.00
01210            -140.00     5840.00
01211            -180.00     6160.00
01212            -160.00     6240.00
01213            -220.00     6240.00
01214            -220.00     6400.00
01215            -180.00     6320.00
01216            -160.00     6640.00
01217            -260.00     6480.00
01218            -260.00     6560.00
01219            -240.00     6800.00
01220            -240.00     6720.00
01221            -260.00     6880.00
01222            -240.00     6880.00
01223            -320.00     6960.00
01224            -340.00     6960.00
01225            -300.00     7120.00
01226            -260.00     7200.00
01227            -340.00     7200.00
01228            -340.00     7280.00
01229            -380.00     7360.00
01230            -380.00     7440.00
01231            -420.00     7360.00
01232            -400.00     7440.00
01233            -420.00     7520.00
01234            -460.00     7440.00
01235            -420.00     7600.00
01236            -480.00     7600.00
01237            -540.00     7600.00
01238            -540.00     7520.00
01239            -500.00     7600.00
01240            -560.00     7760.00
01241            -620.00     7600.00
01242            -640.00     7680.00
01243            -640.00     7760.00
01244            -700.00     7600.00
01245            -720.00     7680.00
01246            -720.00     7760.00
01247            -780.00     7600.00
01248            -820.00     7600.00
01249            -820.00     7680.00
01250            -880.00     7680.00
01251            -940.00     7600.00
01252            -960.00     7600.00
01253            -960.00     7600.00
01254           -1020.00     7520.00
01255           -1040.00     7520.00
01256           -1060.00     7520.00
01257           -1100.00     7520.00
01258           -1120.00     7440.00
01259           -1120.00     7440.00
01260           -1120.00     7440.00
01261           -1140.00     7360.00
01262           -1140.00     7280.00
01263           -1140.00     7280.00
01264           -1180.00     7200.00
01265           -1180.00     7200.00
01266           -1140.00     7120.00
01267           -1120.00     7120.00
01268           -1120.00     6960.00
01269           -1120.00     6960.00
01270           -1100.00     6880.00
01271           -1080.00     6800.00
01272           -1040.00     6800.00
01273            -980.00     6640.00
01274            -980.00     6640.00
01275            -940.00     6560.00
01276            -900.00     6480.00
01277            -880.00     6480.00
01278            -860.00     6320.00
01279            -800.00     6240.00
01280            -740.00     6160.00
01281            -720.00     6000.00
01282            -680.00     6000.00
01283            -660.00     5840.00
01284            -640.00     5760.00
01285            -580.00     5680.00
01286            -560.00     5600.00
01287            -500.00     5520.00
01288            -500.00     5360.00
01289            -480.00     5280.00
01290            -460.00     5200.00
01291            -420.00     5120.00
01292            -400.00     4960.00
01293            -400.00     4880.00
01294            -380.00     4720.00
01295            -340.00     4640.00
01296            -320.00     4560.00
01297            -320.00     4400.00
01298            -300.00     4240.00
01299            -260.00     4080.00
01300            -260.00     4000.00
01301            -260.00     3920.00
01302            -260.00     3760.00
01303            -240.00     3680.00
01304            -220.00     3600.00
01305            -200.00     3360.00
01306            -180.00     3280.00
01307            -180.00     3120.00
01308            -180.00     2960.00
01309            -180.00     2880.00
01310            -180.00     2720.00
01311            -160.00     2560.00
01312            -160.00     2480.00
01313            -140.00     2320.00
01314            -140.00     2160.00
01315            -140.00     2080.00
01316            -140.00     1920.00
01317            -160.00     1760.00
01318            -140.00     1680.00
01319            -100.00     1520.00
01320             -80.00     1360.00
01321             -80.00     1200.00
01322             -80.00     1040.00
01323            -100.00     1040.00
01324            -100.00      800.00
01325             -80.00      640.00
01326             -80.00      480.00
01327             -80.00      400.00
01328             -60.00      240.00
01329             -60.00       80.00
01330             -80.00      -80.00
01331             -60.00     -240.00
01332               0.00     -400.00
01333              80.00     -480.00
01334              80.00     -560.00
01335              60.00     -720.00
01336               0.00     -880.00
01337               0.00     -960.00
01338               0.00    -1040.00
01339             160.00    -1200.00
01340             620.00    -1360.00
01341             860.00    -1760.00
01342             220.00    -1840.00
01343            -720.00    -1920.00
01344           -1420.00    -2000.00
01345            -640.00    -1760.00
01346             820.00    -2400.00
01347             180.00    -2320.00
01348            -260.00    -2240.00
01349             460.00    -3120.00
01350             120.00    -2560.00
01351             -20.00    -2560.00
01352             220.00    -3440.00
01353            -140.00    -3040.00
01354             300.00    -3120.00
01355             380.00    -3600.00
01356            -300.00    -3600.00
01357              20.00    -3680.00
01358             140.00    -3680.00
01359             -20.00    -3920.00
01360             200.00    -4160.00
01361             160.00    -4000.00
01362             -80.00    -4320.00
01363              60.00    -4560.00
01364             300.00    -4400.00
01365             140.00    -4720.00
01366             -60.00    -4800.00
01367             220.00    -4960.00
01368             220.00    -4880.00
01369              60.00    -5040.00
01370             100.00    -5360.00
01371             160.00    -5120.00
01372             220.00    -5360.00
01373             160.00    -5600.00
01374             160.00    -5520.00
01375             180.00    -5680.00
01376             160.00    -5840.00
01377             220.00    -5920.00
01378             220.00    -6000.00
01379             140.00    -6080.00
01380             140.00    -6240.00
01381             220.00    -6160.00
01382             220.00    -6320.00
01383             220.00    -6480.00
01384             240.00    -6480.00
01385             260.00    -6560.00
01386             220.00    -6640.00
01387             280.00    -6720.00
01388             300.00    -6720.00
01389             300.00    -6880.00
01390             300.00    -6880.00
01391             300.00    -6880.00
01392             260.00    -6960.00
01393             300.00    -7040.00
01394             380.00    -7120.00
01395             380.00    -7120.00
01396             380.00    -7280.00
01397             380.00    -7280.00
01398             400.00    -7280.00
01399             380.00    -7280.00
01400             420.00    -7440.00
01401             460.00    -7360.00
01402             480.00    -7440.00
01403             480.00    -7520.00
01404             520.00    -7520.00
01405             540.00    -7520.00
01406             540.00    -7520.00
01407             580.00    -7600.00
01408             620.00    -7600.00
01409             620.00    -7600.00
01410             640.00    -7680.00
01411             700.00    -7600.00
01412             700.00    -7600.00
01413             720.00    -7600.00
01414             780.00    -7600.00
01415             800.00    -7600.00
01416             860.00    -7600.00
01417             860.00    -7600.00
01418             920.00    -7600.00
01419             920.00    -7600.00
01420             960.00    -7600.00
01421            1020.00    -7520.00
01422            1060.00    -7520.00
01423            1100.00    -7520.00
01424            1100.00    -7440.00
01425            1120.00    -7440.00
01426            1120.00    -7440.00
01427            1140.00    -7360.00
01428            1180.00    -7280.00
01429            1160.00    -7200.00
01430            1180.00    -7280.00
01431            1140.00    -7200.00
01432            1140.00    -7120.00
01433            1140.00    -7120.00
01434            1140.00    -7040.00
01435            1120.00    -6960.00
01436            1120.00    -6960.00
01437            1120.00    -6880.00
01438            1060.00    -6800.00
01439            1040.00    -6640.00
01440            1020.00    -6640.00
01441             980.00    -6560.00
01442             960.00    -6560.00
01443             940.00    -6480.00
01444             880.00    -6320.00
01445             860.00    -6240.00
01446             800.00    -6240.00
01447             780.00    -6080.00
01448             760.00    -6000.00
01449             700.00    -5920.00
01450             660.00    -5840.00
01451             620.00    -5840.00
01452             580.00    -5680.00
01453             560.00    -5520.00
01454             540.00    -5440.00
01455             540.00    -5360.00
01456             500.00    -5280.00
01457             460.00    -5120.00
01458             420.00    -4960.00
01459             400.00    -4880.00
01460             380.00    -4880.00
01461             380.00    -4720.00
01462             360.00    -4640.00
01463             340.00    -4560.00
01464             320.00    -4400.00
01465             300.00    -4240.00
01466             260.00    -4160.00
01467             280.00    -4000.00
01468             260.00    -3920.00
01469             260.00    -3760.00
01470             240.00    -3600.00
01471             220.00    -3520.00
01472             220.00    -3360.00
01473             180.00    -3280.00
01474             200.00    -3120.00
01475             200.00    -3040.00
01476             180.00    -2800.00
01477             160.00    -2720.00
01478             160.00    -2640.00
01479             160.00    -2480.00
01480             160.00    -2320.00
01481             160.00    -2160.00
01482             140.00    -2000.00
01483             140.00    -1920.00
01484             140.00    -1760.00
01485             100.00    -1680.00
01486             100.00    -1520.00
01487             100.00    -1360.00
01488             100.00    -1200.00
01489             140.00    -1120.00
01490              80.00     -880.00
01491              80.00     -800.00
01492              80.00     -640.00
01493              60.00     -480.00
01494              80.00     -320.00
01495              80.00     -240.00
01496              80.00      -80.00
01497              80.00       80.00
01498              60.00      160.00
01499             100.00      320.00
01500             160.00      480.00
01501             160.00      560.00
01502             140.00      720.00
01503              80.00      880.00
01504              80.00      960.00
01505              80.00     1120.00
01506             220.00     1280.00
01507             820.00     1520.00
01508             960.00     1760.00
01509               0.00     1840.00
01510           -1280.00     1760.00
01511           -1680.00     1680.00
01512             180.00     2400.00
01513            1120.00     2400.00
01514            -420.00     2320.00
01515             -60.00     2480.00
01516             640.00     2320.00
01517            -400.00     3280.00
01518            -160.00     2960.00
01519             140.00     2480.00
01520             -60.00     3760.00
01521             380.00     3360.00
01522            -300.00     2800.00
01523            -320.00     4080.00
01524             320.00     3760.00
01525            -400.00     3440.00
01526             -80.00     4240.00
01527             300.00     3920.00
01528            -280.00     4320.00
01529            -140.00     4240.00
01530             -20.00     4240.00
01531               0.00     4960.00
01532            -160.00     4400.00
01533            -200.00     4800.00
01534              80.00     5200.00
01535            -200.00     4720.00
01536            -160.00     5280.00
01537             -80.00     5200.00
01538            -160.00     5440.00
01539               0.00     5520.00
01540            -140.00     5360.00
01541            -160.00     5920.00
01542            -180.00     5600.00
01543            -200.00     5920.00
01544            -100.00     6000.00
01545            -180.00     5840.00
01546            -160.00     6240.00
01547            -180.00     6080.00
01548            -220.00     6320.00
01549            -220.00     6320.00
01550            -180.00     6480.00
01551            -180.00     6640.00
01552            -260.00     6480.00
01553            -260.00     6720.00
01554            -240.00     6800.00
01555            -240.00     6800.00
01556            -260.00     6880.00
01557            -260.00     6960.00
01558            -340.00     6960.00
01559            -320.00     6960.00
01560            -260.00     7200.00
01561            -300.00     7200.00
01562            -340.00     7200.00
01563            -340.00     7280.00
01564            -380.00     7360.00
01565            -420.00     7360.00
01566            -420.00     7280.00
01567            -400.00     7440.00
01568            -460.00     7440.00
01569            -460.00     7520.00
01570            -440.00     7600.00
01571            -500.00     7520.00
01572            -560.00     7520.00
01573            -540.00     7520.00
01574            -540.00     7680.00
01575            -580.00     7600.00
01576            -640.00     7680.00
01577            -640.00     7760.00
01578            -660.00     7760.00
01579            -720.00     7680.00
01580            -720.00     7600.00
01581            -760.00     7600.00
01582            -800.00     7680.00
01583            -800.00     7600.00
01584            -860.00     7680.00
01585            -900.00     7680.00
01586            -960.00     7600.00
01587            -960.00     7680.00
01588            -960.00     7600.00
01589           -1000.00     7600.00
01590           -1060.00     7520.00
01591           -1060.00     7520.00
01592           -1120.00     7520.00
01593           -1120.00     7440.00
01594           -1120.00     7440.00
01595           -1120.00     7360.00
01596           -1140.00     7360.00
01597           -1140.00     7280.00
01598           -1140.00     7280.00
01599           -1180.00     7200.00
01600           -1140.00     7120.00
01601           -1120.00     7120.00
01602           -1120.00     7120.00
01603           -1100.00     7040.00
01604           -1100.00     6960.00
01605           -1060.00     6880.00
01606           -1060.00     6800.00
01607           -1020.00     6800.00
01608            -980.00     6640.00
01609            -960.00     6560.00
01610            -920.00     6560.00
01611            -880.00     6480.00
01612            -840.00     6320.00
01613            -820.00     6240.00
01614            -800.00     6160.00
01615            -740.00     6080.00
01616            -720.00     6000.00
01617            -660.00     5920.00
01618            -660.00     5840.00
01619            -620.00     5680.00
01620            -580.00     5600.00
01621            -540.00     5520.00
01622            -540.00     5440.00
01623            -500.00     5360.00
01624            -480.00     5200.00
01625            -460.00     5200.00
01626            -420.00     5040.00
01627            -400.00     4960.00
01628            -380.00     4880.00
01629            -380.00     4640.00
01630            -340.00     4560.00
01631            -340.00     4480.00
01632            -320.00     4320.00
01633            -300.00     4240.00
01634            -260.00     4080.00
01635            -260.00     4000.00
01636            -260.00     3920.00
01637            -260.00     3760.00
01638            -260.00     3600.00
01639            -260.00     3440.00
01640            -220.00     3360.00
01641            -160.00     3280.00
01642            -160.00     3120.00
01643            -160.00     2960.00
01644            -180.00     2800.00
01645            -180.00     2640.00
01646            -180.00     2480.00
01647            -160.00     2400.00
01648            -140.00     2240.00
01649            -160.00     2160.00
01650            -140.00     2000.00
01651            -100.00     1920.00
01652            -120.00     1680.00
01653            -100.00     1600.00
01654            -100.00     1440.00
01655            -100.00     1360.00
01656            -100.00     1200.00
01657             -80.00     1040.00
01658             -80.00      880.00
01659            -100.00      720.00
01660            -140.00      640.00
01661            -100.00      400.00
01662             -80.00      320.00
01663             -20.00      160.00
01664               0.00       80.00
01665               0.00     -160.00
01666             -20.00     -240.00
01667              20.00     -400.00
01668              20.00     -480.00
01669              80.00     -560.00
01670              60.00     -800.00
01671              60.00     -880.00
01672              20.00     -960.00
01673               0.00    -1120.00
01674             220.00    -1200.00
01675             780.00    -1520.00
01676             700.00    -1840.00
01677            -160.00    -1840.00
01678           -1040.00    -2080.00
01679           -1360.00    -1840.00
01680              60.00    -2000.00
01681             860.00    -2560.00
01682            -240.00    -2080.00
01683               0.00    -2560.00
01684             480.00    -3040.00
01685            -100.00    -2320.00
01686             180.00    -2960.00
01687              80.00    -3440.00
01688            -140.00    -2880.00
01689             460.00    -3360.00
01690              60.00    -3600.00
01691            -260.00    -3600.00
01692             180.00    -3680.00
01693              60.00    -3760.00
01694              60.00    -4160.00
01695             220.00    -4080.00
01696              20.00    -4080.00
01697             -80.00    -4400.00
01698             160.00    -4400.00
01699             320.00    -4560.00
01700             -20.00    -4720.00
01701              60.00    -4880.00
01702             260.00    -4960.00
01703              80.00    -4880.00
01704              60.00    -5280.00
01705             100.00    -5280.00
01706             180.00    -5200.00
01707             220.00    -5520.00
01708             140.00    -5520.00
01709             160.00    -5600.00
01710             160.00    -5680.00
01711             160.00    -5840.00
01712             220.00    -5920.00
01713             180.00    -6000.00
01714             160.00    -6160.00
01715             180.00    -6240.00
01716             240.00    -6240.00
01717             220.00    -6480.00
01718             220.00    -6400.00
01719             260.00    -6560.00
01720             240.00    -6560.00
01721             240.00    -6640.00
01722             260.00    -6720.00
01723             280.00    -6800.00
01724             280.00    -6880.00
01725             300.00    -6880.00
01726             300.00    -6960.00
01727             260.00    -7040.00
01728             340.00    -7120.00
01729             380.00    -7120.00
01730             380.00    -7200.00
01731             380.00    -7280.00
01732             400.00    -7280.00
01733             380.00    -7280.00
01734             400.00    -7440.00
01735             440.00    -7440.00
01736             480.00    -7360.00
01737             480.00    -7520.00
01738             520.00    -7520.00
01739             500.00    -7520.00
01740             500.00    -7520.00
01741             540.00    -7600.00
01742             580.00    -7600.00
01743             640.00    -7520.00
01744             640.00    -7600.00
01745             660.00    -7600.00
01746             700.00    -7600.00
01747             720.00    -7680.00
01748             720.00    -7600.00
01749             800.00    -7600.00
01750             840.00    -7600.00
01751             860.00    -7600.00
01752             900.00    -7600.00
01753             940.00    -7520.00
01754             940.00    -7520.00
01755             960.00    -7520.00
01756            1020.00    -7520.00
01757            1060.00    -7520.00
01758            1080.00    -7520.00
01759            1100.00    -7360.00
01760            1100.00    -7360.00
01761            1120.00    -7280.00
01762            1140.00    -7280.00
01763            1180.00    -7280.00
01764            1180.00    -7280.00
01765            1180.00    -7200.00
01766            1160.00    -7120.00
01767            1140.00    -7120.00
01768            1140.00    -7040.00
01769            1140.00    -6960.00
01770            1120.00    -6960.00
01771            1120.00    -6880.00
01772            1100.00    -6800.00
01773            1040.00    -6800.00
01774            1020.00    -6640.00
01775             980.00    -6640.00
01776             960.00    -6480.00
01777             940.00    -6480.00
01778             900.00    -6400.00
01779             880.00    -6320.00
01780             820.00    -6240.00
01781             780.00    -6160.00
01782             760.00    -6080.00
01783             740.00    -6000.00
01784             700.00    -5920.00
01785             640.00    -5840.00
01786             620.00    -5680.00
01787             580.00    -5520.00
01788             540.00    -5440.00
01789             540.00    -5360.00
01790             500.00    -5280.00
01791             480.00    -5200.00
01792             460.00    -5040.00
01793             420.00    -4960.00
01794             420.00    -4880.00
01795             380.00    -4800.00
01796             360.00    -4720.00
01797             320.00    -4560.00
01798             320.00    -4480.00
01799             320.00    -4320.00
01800             320.00    -4240.00
01801             320.00    -4080.00
01802             280.00    -3920.00
01803             260.00    -3920.00
01804             240.00    -3680.00
01805             220.00    -3600.00
01806             220.00    -3440.00
01807             220.00    -3360.00
01808             220.00    -3200.00
01809             220.00    -3120.00
01810             220.00    -2960.00
01811             180.00    -2800.00
01812             180.00    -2640.00
01813             140.00    -2560.00
01814             160.00    -2400.00
01815             140.00    -2160.00
01816             160.00    -2160.00
01817             140.00    -2000.00
01818             140.00    -1840.00
01819             100.00    -1680.00
01820             100.00    -1600.00
01821             120.00    -1440.00
01822             100.00    -1280.00
01823             100.00    -1120.00
01824             100.00    -1040.00
01825              80.00     -880.00
01826              80.00     -720.00
01827              80.00     -560.00
01828              80.00     -400.00
01829              80.00     -240.00
01830              80.00     -160.00
01831              60.00        0.00
01832              60.00      160.00
01833              60.00      240.00
01834             100.00      400.00
01835             160.00      560.00
01836             140.00      720.00
01837             100.00      800.00
01838              80.00      880.00
01839              60.00     1040.00
01840              80.00     1120.00
01841             400.00     1360.00
01842            1020.00     1680.00
01843             660.00     1760.00
01844            -500.00     1840.00
01845           -1700.00     1680.00
01846           -1160.00     2000.00
01847             940.00     2480.00
01848             580.00     2240.00
01849            -560.00     2480.00
01850             420.00     2400.00
01851             300.00     2640.00
01852            -500.00     3360.00
01853              80.00     2560.00
01854               0.00     2880.00
01855             160.00     3920.00
01856             220.00     2960.00
01857            -520.00     3280.00
01858              60.00     4240.00
01859             100.00     3360.00
01860            -460.00     3760.00
01861             240.00     4080.00
01862              60.00     3920.00
01863            -320.00     4560.00
01864             -20.00     4080.00
01865             -20.00     4640.00
01866               0.00     4880.00
01867            -260.00     4320.00
01868             -60.00     5200.00
01869              40.00     4960.00
01870            -260.00     4960.00
01871             -80.00     5360.00
01872            -120.00     5200.00
01873            -100.00     5600.00
01874             -20.00     5280.00
01875            -180.00     5600.00
01876            -120.00     5840.00
01877            -200.00     5600.00
01878            -160.00     6080.00
01879            -140.00     5920.00
01880            -180.00     6000.00
01881            -160.00     6240.00
01882            -220.00     6160.00
01883            -220.00     6480.00
01884            -160.00     6320.00
01885            -160.00     6560.00
01886            -240.00     6640.00
01887            -260.00     6560.00
01888            -260.00     6800.00
01889            -260.00     6720.00
01890            -260.00     6880.00
01891            -240.00     6880.00
01892            -260.00     6960.00
01893            -340.00     6960.00
01894            -300.00     7120.00
01895            -260.00     7200.00
01896            -340.00     7200.00
01897            -340.00     7200.00
01898            -360.00     7360.00
01899            -400.00     7360.00
01900            -460.00     7360.00
01901            -420.00     7440.00
01902            -420.00     7440.00
01903            -440.00     7440.00
01904            -420.00     7520.00
01905            -460.00     7600.00
01906            -540.00     7600.00
01907            -580.00     7600.00
01908            -540.00     7600.00
01909            -560.00     7680.00
01910            -620.00     7600.00
01911            -640.00     7680.00
01912            -660.00     7760.00
01913            -700.00     7680.00
01914            -720.00     7600.00
01915            -740.00     7760.00
01916            -780.00     7600.00
01917            -800.00     7680.00
01918            -820.00     7600.00
01919            -880.00     7760.00
01920            -940.00     7600.00
01921            -960.00     7600.00
01922            -960.00     7600.00
01923            -980.00     7600.00
01924           -1020.00     7600.00
01925           -1060.00     7520.00
01926           -1100.00     7520.00
01927           -1120.00     7520.00
01928           -1140.00     7440.00
01929           -1140.00     7520.00
01930           -1140.00     7360.00
01931           -1140.00     7360.00
01932           -1140.00     7280.00
01933           -1160.00     7360.00
01934           -1200.00     7200.00
01935           -1140.00     7120.00
01936           -1120.00     7120.00
01937           -1100.00     7120.00
01938           -1100.00     6960.00
01939           -1060.00     6960.00
01940           -1060.00     6880.00
01941           -1060.00     6800.00
01942            -980.00     6720.00
01943            -980.00     6640.00
01944            -940.00     6560.00
01945            -900.00     6480.00
01946            -860.00     6480.00
01947            -860.00     6320.00
01948            -800.00     6240.00
01949            -780.00     6160.00
01950            -720.00     6080.00
01951            -700.00     6000.00
01952            -660.00     5920.00
01953            -640.00     5760.00
01954            -620.00     5680.00
01955            -560.00     5600.00
01956            -540.00     5520.00
01957            -500.00     5360.00
01958            -480.00     5280.00
01959            -480.00     5200.00
01960            -440.00     5040.00
01961            -420.00     4960.00
01962            -400.00     4880.00
01963            -380.00     4720.00
01964            -360.00     4560.00
01965            -340.00     4560.00
01966            -340.00     4400.00
01967            -320.00     4320.00
01968            -300.00     4160.00
01969            -260.00     4080.00
01970            -240.00     3920.00
01971            -260.00     3760.00
01972            -260.00     3680.00
01973            -240.00     3600.00
01974            -220.00     3440.00
01975            -200.00     3280.00
01976            -180.00     3200.00
01977            -200.00     3040.00
01978            -180.00     2880.00
01979            -160.00     2800.00
01980            -160.00     2640.00
01981            -160.00     2480.00
01982            -160.00     2400.00
01983            -140.00     2320.00
01984            -140.00     2080.00
01985            -140.00     2000.00
01986            -140.00     1840.00
01987            -100.00     1680.00
01988            -100.00     1520.00
01989            -100.00     1440.00
01990            -100.00     1200.00
01991            -100.00     1120.00
01992            -100.00      960.00
01993             -80.00      800.00
01994             -80.00      720.00
01995             -80.00      560.00
01996             -60.00      400.00
01997             -80.00      240.00
01998             -60.00       80.00
01999             -60.00       80.00
02000             -60.00     -160.00
02001               0.00     -240.00
02002              80.00     -400.00
02003              60.00     -480.00
02004              60.00     -720.00
02005               0.00     -880.00
02006              20.00     -880.00
02007              20.00    -1040.00
02008             100.00    -1200.00
02009             480.00    -1360.00
02010             860.00    -1680.00
02011             400.00    -1760.00
02012            -540.00    -1840.00
02013           -1300.00    -2000.00
02014            -980.00    -1760.00
02015             640.00    -2160.00
02016             480.00    -2480.00
02017            -340.00    -2160.00
02018             320.00    -3040.00
02019             280.00    -2800.00
02020            -100.00    -2400.00
02021             240.00    -3360.00
02022            -100.00    -3120.00
02023             140.00    -2960.00
02024             480.00    -3440.00
02025            -220.00    -3600.00
02026            -100.00    -3600.00
02027             160.00    -3680.00
02028             -20.00    -3920.00
02029             160.00    -4160.00
02030             180.00    -4000.00
02031             -20.00    -4320.00
02032               0.00    -4560.00
02033             240.00    -4400.00
02034             200.00    -4560.00
02035             -80.00    -4720.00
02036             160.00    -4880.00
02037             220.00    -4880.00
02038              60.00    -5040.00
02039              80.00    -5360.00
02040             140.00    -5200.00
02041             180.00    -5280.00
02042             160.00    -5600.00
02043             140.00    -5520.00
02044             180.00    -5600.00
02045             160.00    -5840.00
02046             220.00    -6000.00
02047             220.00    -5920.00
02048             160.00    -6000.00
02049             140.00    -6240.00
02050             220.00    -6160.00
02051             240.00    -6320.00
02052             200.00    -6480.00
02053             220.00    -6480.00
02054             280.00    -6560.00
02055             220.00    -6560.00
02056             240.00    -6800.00
02057             300.00    -6720.00
02058             300.00    -6800.00
02059             300.00    -6960.00
02060             320.00    -6880.00
02061             300.00    -6960.00
02062             300.00    -7120.00
02063             360.00    -7120.00
02064             380.00    -7120.00
02065             380.00    -7280.00
02066             380.00    -7200.00
02067             400.00    -7280.00
02068             400.00    -7360.00
02069             420.00    -7440.00
02070             480.00    -7440.00
02071             480.00    -7440.00
02072             480.00    -7520.00
02073             500.00    -7440.00
02074             540.00    -7520.00
02075             540.00    -7520.00
02076             580.00    -7600.00
02077             620.00    -7600.00
02078             620.00    -7600.00
02079             640.00    -7600.00
02080             680.00    -7600.00
02081             700.00    -7600.00
02082             720.00    -7600.00
02083             780.00    -7600.00
02084             800.00    -7600.00
02085             860.00    -7600.00
02086             860.00    -7600.00
02087             920.00    -7600.00
02088             940.00    -7520.00
02089             940.00    -7520.00
02090            1020.00    -7520.00
02091            1040.00    -7520.00
02092            1060.00    -7520.00
02093            1100.00    -7440.00
02094            1100.00    -7440.00
02095            1100.00    -7440.00
02096            1120.00    -7360.00
02097            1140.00    -7280.00
02098            1160.00    -7280.00
02099            1140.00    -7200.00
02100            1140.00    -7200.00
02101            1140.00    -7120.00
02102            1140.00    -7120.00
02103            1140.00    -7040.00
02104            1140.00    -7040.00
02105            1120.00    -6960.00
02106            1060.00    -6960.00
02107            1060.00    -6800.00
02108            1040.00    -6800.00
02109            1020.00    -6640.00
02110             960.00    -6640.00
02111             960.00    -6480.00
02112             940.00    -6480.00
02113             880.00    -6320.00
02114             820.00    -6320.00
02115             800.00    -6160.00
02116             800.00    -6080.00
02117             780.00    -6000.00
02118             740.00    -5920.00
02119             700.00    -5920.00
02120             580.00    -5760.00
02121             560.00    -5680.00
02122             560.00    -5600.00
02123             580.00    -5440.00
02124             560.00    -5360.00
02125             540.00    -5280.00
02126             480.00    -5200.00
02127             400.00    -5040.00
02128             400.00    -4960.00
02129             380.00    -4880.00
02130             380.00    -4720.00
02131             380.00    -4640.00
02132             360.00    -4560.00
02133             320.00    -4400.00
02134             320.00    -4320.00
02135             300.00    -4160.00
02136             300.00    -4000.00
02137             300.00    -3920.00
02138             260.00    -3760.00
02139             240.00    -3680.00
02140             220.00    -3600.00
02141             220.00    -3440.00
02142             220.00    -3280.00
02143             220.00    -3120.00
02144             180.00    -3040.00
02145             160.00    -2880.00
02146             180.00    -2720.00
02147             180.00    -2640.00
02148             160.00    -2480.00
02149             160.00    -2400.00
02150             140.00    -2160.00
02151             160.00    -2080.00
02152             160.00    -1920.00
02153             140.00    -1840.00
02154             100.00    -1680.00
02155             120.00    -1520.00
02156             100.00    -1360.00
02157             100.00    -1280.00
02158              80.00    -1040.00
02159             100.00     -960.00
02160              80.00     -800.00
02161             100.00     -720.00
02162              80.00     -560.00
02163              80.00     -400.00
02164              60.00     -240.00
02165              40.00     -160.00
02166              60.00       80.00
02167              60.00      160.00
02168              60.00      400.00
02169             140.00      480.00
02170             140.00      560.00
02171             140.00      720.00
02172             100.00      800.00
02173              80.00      960.00
02174              60.00     1040.00
02175             140.00     1200.00
02176             680.00     1520.00
02177            1040.00     1680.00
02178             260.00     1760.00
02179           -1020.00     1840.00
02180           -1820.00     1680.00
02181            -320.00     2160.00
02182            1260.00     2400.00
02183            -100.00     2240.00
02184            -300.00     2480.00
02185             660.00     2320.00
02186            -220.00     3040.00
02187            -340.00     3280.00
02188             160.00     2400.00
02189             -80.00     3440.00
02190             380.00     3680.00
02191            -100.00     2720.00
02192            -460.00     3840.00
02193             320.00     4000.00
02194            -260.00     3360.00
02195            -260.00     4080.00
02196             340.00     3920.00
02197            -180.00     4240.00
02198            -160.00     4400.00
02199               0.00     4080.00
02200               0.00     4880.00
02201            -120.00     4560.00
02202            -280.00     4640.00
02203              80.00     5200.00
02204             -80.00     4720.00
02205            -180.00     5200.00
02206             -80.00     5280.00
02207            -220.00     5280.00
02208             -60.00     5600.00
02209             -80.00     5280.00
02210            -140.00     5840.00
02211            -140.00     5680.00
02212            -220.00     5760.00
02213            -100.00     6080.00
02214            -160.00     5840.00
02215            -160.00     6240.00
02216            -160.00     6160.00
02217            -240.00     6320.00
02218            -220.00     6400.00
02219            -160.00     6480.00
02220            -140.00     6640.00
02221            -240.00     6560.00
02222            -260.00     6640.00
02223            -260.00     6800.00
02224            -260.00     6800.00
02225            -260.00     6880.00
02226            -260.00     6960.00
02227            -300.00     7040.00
02228            -340.00     6960.00
02229            -300.00     7120.00
02230            -320.00     7200.00
02231            -380.00     7200.00
02232            -340.00     7200.00
02233            -340.00     7360.00
02234            -380.00     7440.00
02235            -400.00     7360.00
02236            -400.00     7440.00
02237            -420.00     7440.00
02238            -480.00     7520.00
02239            -480.00     7600.00
02240            -500.00     7600.00
02241            -560.00     7600.00
02242            -540.00     7600.00
02243            -500.00     7680.00
02244            -580.00     7600.00
02245            -640.00     7600.00
02246            -640.00     7680.00
02247            -640.00     7680.00
02248            -720.00     7680.00
02249            -700.00     7680.00
02250            -720.00     7600.00
02251            -800.00     7600.00
02252            -820.00     7680.00
02253            -860.00     7760.00
02254            -880.00     7680.00
02255            -960.00     7600.00
02256            -940.00     7600.00
02257            -960.00     7600.00
02258           -1040.00     7600.00
02259           -1060.00     7520.00
02260           -1060.00     7520.00
02261           -1100.00     7520.00
02262           -1100.00     7440.00
02263           -1100.00     7440.00
02264           -1120.00     7440.00
02265           -1140.00     7360.00
02266           -1140.00     7360.00
02267           -1160.00     7360.00
02268           -1180.00     7280.00
02269           -1140.00     7200.00
02270           -1120.00     7120.00
02271           -1120.00     7040.00
02272           -1120.00     6960.00
02273           -1120.00     6960.00
02274           -1100.00     6880.00
02275           -1060.00     6800.00
02276           -1000.00     6720.00
02277            -960.00     6640.00
02278            -960.00     6560.00
02279            -940.00     6480.00
02280            -900.00     6480.00
02281            -880.00     6480.00
02282            -820.00     6320.00
02283            -780.00     6240.00
02284            -740.00     6160.00
02285            -700.00     6000.00
02286            -660.00     5920.00
02287            -640.00     5840.00
02288            -640.00     5760.00
02289            -600.00     5680.00
02290            -560.00     5600.00
02291            -500.00     5520.00
02292            -500.00     5360.00
02293            -480.00     5280.00
02294            -480.00     5120.00
02295            -460.00     5040.00
02296            -420.00     4960.00
02297            -400.00     4800.00
02298            -380.00     4640.00
02299            -320.00     4640.00
02300            -340.00     4480.00
02301            -320.00     4400.00
02302            -320.00     4240.00
02303            -300.00     4080.00
02304            -260.00     4000.00
02305            -260.00     3920.00
02306            -260.00     3760.00
02307            -240.00     3680.00
02308            -240.00     3440.00
02309            -220.00     3360.00
02310            -220.00     3280.00
02311            -200.00     3120.00
02312            -180.00     2960.00
02313            -160.00     2800.00
02314            -160.00     2720.00
02315            -160.00     2640.00
02316            -160.00     2400.00
02317            -160.00     2320.00
02318            -160.00     2160.00
02319            -140.00     2000.00
02320            -140.00     1840.00
02321            -140.00     1760.00
02322            -100.00     1680.00
02323            -100.00     1440.00
02324            -100.00     1360.00
02325            -100.00     1200.00
02326            -100.00     1120.00
02327            -100.00      880.00
02328            -100.00      800.00
02329             -60.00      560.00
02330             -80.00      480.00
02331             -80.00      400.00
02332             -40.00      160.00
02333             -60.00       80.00
02334             -60.00      -80.00
02335             -20.00     -160.00
02336              60.00     -400.00
02337              80.00     -400.00
02338              60.00     -560.00
02339              20.00     -720.00
02340               0.00     -880.00
02341               0.00     -960.00
02342              20.00    -1120.00
02343             220.00    -1200.00
02344             700.00    -1440.00
02345             780.00    -1840.00
02346              20.00    -1840.00
02347            -880.00    -2000.00
02348           -1420.00    -1920.00
02349            -340.00    -1840.00
02350             940.00    -2480.00
02351             -20.00    -2240.00
02352            -160.00    -2400.00
02353             480.00    -3120.00
02354             -20.00    -2400.00
02355              60.00    -2720.00
02356             160.00    -3440.00
02357            -160.00    -2960.00
02358             400.00    -3120.00
02359             240.00    -3600.00
02360            -340.00    -3680.00
02361              80.00    -3680.00
02362              80.00    -3760.00
02363             -20.00    -4080.00
02364             220.00    -4080.00
02365             100.00    -4080.00
02366             -80.00    -4480.00
02367             100.00    -4480.00
02368             300.00    -4480.00
02369              60.00    -4720.00
02370             -20.00    -4880.00
02371             260.00    -4960.00
02372             160.00    -4880.00
02373              20.00    -5200.00
02374              80.00    -5280.00
02375             140.00    -5040.00
02376             180.00    -5520.00
02377             140.00    -5600.00
02378             160.00    -5600.00
02379             220.00    -5760.00
02380             160.00    -5920.00
02381             220.00    -6000.00
02382             220.00    -5920.00
02383             160.00    -6160.00
02384             160.00    -6240.00
02385             240.00    -6160.00
02386             260.00    -6320.00
02387             220.00    -6480.00
02388             260.00    -6480.00
02389             240.00    -6560.00
02390             220.00    -6640.00
02391             280.00    -6720.00
02392             300.00    -6720.00
02393             300.00    -6960.00
02394             300.00    -6880.00
02395             320.00    -6960.00
02396             300.00    -6960.00
02397             320.00    -7120.00
02398             380.00    -7120.00
02399             380.00    -7120.00
02400             380.00    -7280.00
02401             400.00    -7280.00
02402             380.00    -7360.00
02403             400.00    -7280.00
02404             460.00    -7440.00
02405             480.00    -7440.00
02406             500.00    -7440.00
02407             500.00    -7600.00
02408             540.00    -7520.00
02409             540.00    -7520.00
02410             540.00    -7520.00
02411             620.00    -7600.00
02412             620.00    -7600.00
02413             620.00    -7600.00
02414             640.00    -7600.00
02415             700.00    -7600.00
02416             720.00    -7600.00
02417             740.00    -7600.00
02418             800.00    -7600.00
02419             820.00    -7600.00
02420             840.00    -7600.00
02421             880.00    -7600.00
02422             900.00    -7600.00
02423             940.00    -7520.00
02424             960.00    -7600.00
02425            1040.00    -7520.00
02426            1060.00    -7520.00
02427            1040.00    -7440.00
02428            1100.00    -7440.00
02429            1060.00    -7440.00
02430            1060.00    -7360.00
02431            1100.00    -7360.00
02432            1160.00    -7280.00
02433            1220.00    -7280.00
02434            1240.00    -7200.00
02435            1200.00    -7200.00
02436            1160.00    -7120.00
02437            1100.00    -7120.00
02438            1060.00    -7040.00
02439            1100.00    -6960.00
02440            1120.00    -6960.00
02441            1140.00    -6880.00
02442            1100.00    -6800.00
02443            1040.00    -6640.00
02444            1020.00    -6640.00
02445             980.00    -6560.00
02446             960.00    -6480.00
02447             880.00    -6480.00
02448             860.00    -6320.00
02449             820.00    -6240.00
02450             780.00    -6160.00
02451             780.00    -6160.00
02452             760.00    -6000.00
02453             720.00    -5920.00
02454             680.00    -5840.00
02455             620.00    -5680.00
02456             620.00    -5600.00
02457             580.00    -5520.00
02458             560.00    -5360.00
02459             500.00    -5360.00
02460             460.00    -5200.00
02461             420.00    -5120.00
02462             420.00    -5040.00
02463             440.00    -4960.00
02464             420.00    -4800.00
02465             420.00    -4640.00
02466             380.00    -4560.00
02467             320.00    -4480.00
02468             300.00    -4400.00
02469             260.00    -4240.00
02470             260.00    -4160.00
02471             260.00    -4000.00
02472             260.00    -3840.00
02473             300.00    -3760.00
02474             260.00    -3600.00
02475             220.00    -3520.00
02476             220.00    -3360.00
02477             220.00    -3200.00
02478             180.00    -3120.00
02479             200.00    -2960.00
02480             180.00    -2800.00
02481             160.00    -2720.00
02482             160.00    -2560.00
02483             160.00    -2480.00
02484             140.00    -2240.00
02485             120.00    -2160.00
02486             140.00    -2000.00
02487             140.00    -1840.00
02488             120.00    -1760.00
02489             120.00    -1600.00
02490             100.00    -1440.00
02491             100.00    -1360.00
02492              80.00    -1200.00
02493              80.00    -1040.00
02494              80.00     -880.00
02495              80.00     -800.00
02496              80.00     -640.00
02497              40.00     -480.00
02498              60.00     -320.00
02499              80.00     -240.00
02500             100.00        0.00
02501              80.00       80.00
02502              80.00      240.00
02503              80.00      400.00
02504             140.00      480.00
02505             140.00      560.00
02506             120.00      720.00
02507              80.00      880.00
02508              60.00     1040.00
02509              80.00     1120.00
02510             300.00     1360.00
02511             960.00     1600.00
02512             840.00     1760.00
02513            -220.00     1840.00
02514           -1460.00     1680.00
02515           -1520.00     1760.00
02516             540.00     2480.00
02517             940.00     2320.00
02518            -540.00     2400.00
02519             160.00     2400.00
02520             540.00     2480.00
02521            -480.00     3360.00
02522             -60.00     2800.00
02523             100.00     2640.00
02524              20.00     3920.00
02525             360.00     3120.00
02526            -440.00     2960.00
02527            -140.00     4240.00
02528             260.00     3600.00
02529            -440.00     3600.00
02530              80.00     4240.00
02531             200.00     3920.00
02532            -320.00     4560.00
02533             -80.00     4240.00
02534               0.00     4320.00
02535              20.00     4880.00
02536            -220.00     4320.00
02537            -100.00     4960.00
02538             100.00     5040.00
02539            -260.00     4800.00
02540            -140.00     5360.00
02541            -100.00     5120.00
02542            -140.00     5520.00
02543             -20.00     5360.00
02544            -160.00     5440.00
02545            -140.00     5920.00
02546            -180.00     5520.00
02547            -180.00     5920.00
02548            -100.00     6000.00
02549            -180.00     5920.00
02550            -160.00     6320.00
02551            -220.00     6080.00
02552            -240.00     6400.00
02553            -220.00     6320.00
02554            -160.00     6480.00
02555            -220.00     6640.00
02556            -280.00     6480.00
02557            -260.00     6800.00
02558            -260.00     6720.00
02559            -240.00     6800.00
02560            -240.00     6880.00
02561            -260.00     6960.00
02562            -380.00     6960.00
02563            -340.00     6960.00
02564            -280.00     7200.00
02565            -320.00     7200.00
02566            -340.00     7200.00
02567            -380.00     7280.00
02568            -380.00     7440.00
02569            -420.00     7360.00
02570            -420.00     7440.00
02571            -400.00     7440.00
02572            -420.00     7440.00
02573            -480.00     7520.00
02574            -460.00     7520.00
02575            -500.00     7600.00
02576            -560.00     7520.00
02577            -540.00     7600.00
02578            -540.00     7680.00
02579            -620.00     7600.00
02580            -640.00     7600.00
02581            -640.00     7680.00
02582            -660.00     7600.00
02583            -700.00     7760.00
02584            -720.00     7600.00
02585            -760.00     7680.00
02586            -800.00     7680.00
02587            -820.00     7680.00
02588            -860.00     7760.00
02589            -900.00     7680.00
02590            -960.00     7600.00
02591            -960.00     7600.00
02592            -980.00     7600.00
02593           -1020.00     7600.00
02594           -1040.00     7520.00
02595           -1060.00     7520.00
02596           -1100.00     7440.00
02597           -1120.00     7440.00
02598           -1120.00     7520.00
02599           -1120.00     7440.00
02600           -1140.00     7360.00
02601           -1140.00     7360.00
02602           -1140.00     7280.00
02603           -1180.00     7200.00
02604           -1140.00     7120.00
02605           -1140.00     7120.00
02606           -1120.00     7120.00
02607           -1120.00     6960.00
02608           -1100.00     6960.00
02609           -1060.00     6880.00
02610           -1060.00     6800.00
02611           -1020.00     6720.00
02612            -980.00     6640.00
02613            -940.00     6640.00
02614            -900.00     6560.00
02615            -900.00     6480.00
02616            -880.00     6400.00
02617            -800.00     6240.00
02618            -780.00     6160.00
02619            -740.00     6080.00
02620            -720.00     6000.00
02621            -680.00     5920.00
02622            -660.00     5840.00
02623            -620.00     5760.00
02624            -560.00     5600.00
02625            -540.00     5520.00
02626            -500.00     5520.00
02627            -500.00     5360.00
02628            -480.00     5200.00
02629            -460.00     5200.00
02630            -420.00     5040.00
02631            -420.00     4880.00
02632            -400.00     4800.00
02633            -360.00     4640.00
02634            -320.00     4560.00
02635            -320.00     4400.00
02636            -320.00     4320.00
02637            -300.00     4240.00
02638            -260.00     4080.00
02639            -260.00     4000.00
02640            -260.00     3920.00
02641            -260.00     3680.00
02642            -240.00     3600.00
02643            -240.00     3440.00
02644            -220.00     3280.00
02645            -180.00     3200.00
02646            -180.00     3040.00
02647            -160.00     2880.00
02648            -160.00     2800.00
02649            -160.00     2640.00
02650            -160.00     2560.00
02651            -160.00     2400.00
02652            -160.00     2320.00
02653            -140.00     2160.00
02654            -140.00     2000.00
02655            -140.00     1840.00
02656            -100.00     1680.00
02657            -100.00     1600.00
02658            -100.00     1440.00
02659             -80.00     1360.00
02660            -100.00     1120.00
02661             -80.00      960.00
02662            -100.00      800.00
02663            -100.00      720.00
02664             -80.00      560.00
02665             -60.00      400.00
02666             -60.00      240.00
02667             -60.00      160.00
02668             -40.00       80.00
02669             -60.00      -80.00
02670               0.00     -240.00
02671              60.00     -400.00
02672              80.00     -480.00
02673              60.00     -640.00
02674              20.00     -800.00
02675               0.00     -880.00
02676              20.00    -1040.00
02677              60.00    -1120.00
02678             380.00    -1280.00
02679             820.00    -1600.00
02680             560.00    -1840.00
02681            -340.00    -1840.00
02682           -1180.00    -2080.00
02683           -1220.00    -1840.00
02684             320.00    -2080.00
02685             720.00    -2560.00
02686            -340.00    -2080.00
02687             160.00    -2800.00
02688             420.00    -2960.00
02689            -140.00    -2320.00
02690             220.00    -3200.00
02691             -20.00    -3360.00
02692             -20.00    -2960.00
02693             500.00    -3440.00
02694            -100.00    -3600.00
02695            -240.00    -3600.00
02696             180.00    -3680.00
02697               0.00    -3760.00
02698              80.00    -4080.00
02699             220.00    -4080.00
02700               0.00    -4240.00
02701             -60.00    -4560.00
02702             200.00    -4400.00
02703             260.00    -4560.00
02704             -40.00    -4720.00
02705              80.00    -4800.00
02706             260.00    -4880.00
02707              60.00    -4960.00
02708              60.00    -5360.00
02709             100.00    -5280.00
02710             220.00    -5200.00
02711             220.00    -5600.00
02712             140.00    -5520.00
02713             160.00    -5680.00
02714             140.00    -5680.00
02715             160.00    -5920.00
02716             220.00    -6000.00
02717             180.00    -6000.00
02718             160.00    -6240.00
02719             220.00    -6160.00
02720             240.00    -6320.00
02721             220.00    -6400.00
02722             220.00    -6480.00
02723             300.00    -6560.00
02724             240.00    -6640.00
02725             220.00    -6640.00
02726             300.00    -6800.00
02727             300.00    -6800.00
02728             300.00    -6880.00
02729             320.00    -6880.00
02730             300.00    -6960.00
02731             280.00    -7040.00
02732             340.00    -7120.00
02733             400.00    -7120.00
02734             400.00    -7200.00
02735             380.00    -7280.00
02736             380.00    -7280.00
02737             380.00    -7280.00
02738             400.00    -7440.00
02739             460.00    -7440.00
02740             500.00    -7440.00
02741             520.00    -7520.00
02742             500.00    -7520.00
02743             520.00    -7520.00
02744             540.00    -7520.00
02745             540.00    -7600.00
02746             600.00    -7600.00
02747             640.00    -7600.00
02748             640.00    -7600.00
02749             660.00    -7600.00
02750             680.00    -7600.00
02751             700.00    -7600.00
02752             740.00    -7600.00
02753             800.00    -7600.00
02754             860.00    -7600.00
02755             860.00    -7600.00
02756             900.00    -7520.00
02757             900.00    -7520.00
02758             940.00    -7600.00
02759             980.00    -7520.00
02760            1040.00    -7520.00
02761            1060.00    -7520.00
02762            1080.00    -7520.00
02763            1060.00    -7440.00
02764            1120.00    -7440.00
02765            1100.00    -7440.00
02766            1140.00    -7360.00
02767            1180.00    -7280.00
02768            1160.00    -7280.00
02769            1180.00    -7200.00
02770            1140.00    -7120.00
02771            1140.00    -7120.00
02772            1140.00    -7040.00
02773            1140.00    -6960.00
02774            1120.00    -6960.00
02775            1120.00    -6880.00
02776            1100.00    -6880.00
02777            1040.00    -6800.00
02778            1040.00    -6720.00
02779             980.00    -6640.00
02780             960.00    -6560.00
02781             940.00    -6480.00
02782             880.00    -6400.00
02783             860.00    -6320.00
02784             820.00    -6240.00
02785             800.00    -6160.00
02786             780.00    -6080.00
02787             740.00    -6000.00
02788             700.00    -5920.00
02789             660.00    -5840.00
02790             620.00    -5680.00
02791             580.00    -5520.00
02792             560.00    -5440.00
02793             560.00    -5360.00
02794             540.00    -5280.00
02795             460.00    -5120.00
02796             460.00    -5040.00
02797             420.00    -4960.00
02798             400.00    -4880.00
02799             400.00    -4800.00
02800             380.00    -4640.00
02801             340.00    -4560.00
02802             320.00    -4400.00
02803             300.00    -4320.00
02804             300.00    -4240.00
02805             300.00    -4080.00
02806             300.00    -4000.00
02807             280.00    -3760.00
02808             240.00    -3760.00
02809             220.00    -3600.00
02810             200.00    -3440.00
02811             200.00    -3360.00
02812             220.00    -3200.00
02813             200.00    -3040.00
02814             180.00    -2880.00
02815             180.00    -2800.00
02816             160.00    -2640.00
02817             160.00    -2480.00
02818             140.00    -2400.00
02819             140.00    -2320.00
02820             160.00    -2160.00
02821             140.00    -2000.00
02822             140.00    -1840.00
02823             100.00    -1680.00
02824             100.00    -1520.00
02825             100.00    -1440.00
02826             100.00    -1280.00
02827             100.00    -1120.00
02828              80.00    -1040.00
02829              80.00     -880.00
02830              80.00     -800.00
02831              80.00     -560.00
02832              60.00     -400.00
02833              80.00     -320.00
02834              60.00     -160.00
02835              60.00        0.00
02836              60.00      160.00
02837              60.00      320.00
02838             120.00      400.00
02839             160.00      560.00
02840             160.00      640.00
02841              80.00      800.00
02842              80.00      880.00
02843              80.00     1120.00
02844             140.00     1200.00
02845             540.00     1360.00
02846            1040.00     1680.00
02847             480.00     1840.00
02848            -740.00     1840.00
02849           -1780.00     1680.00
02850            -800.00     2080.00
02851            1140.00     2480.00
02852             240.00     2240.00
02853            -480.00     2480.00
02854             620.00     2320.00
02855              80.00     2800.00
02856            -460.00     3360.00
02857             140.00     2400.00
02858             -60.00     3200.00
02859             260.00     3840.00
02860              80.00     2800.00
02861            -500.00     3600.00
02862             220.00     4240.00
02863             -60.00     3360.00
02864            -400.00     4000.00
02865             320.00     4080.00
02866             -80.00     4080.00
02867            -260.00     4480.00
02868             -20.00     4080.00
02869               0.00     4880.00
02870             -20.00     4640.00
02871            -260.00     4480.00
02872              20.00     5200.00
02873             -20.00     4800.00
02874            -260.00     5040.00
02875             -60.00     5280.00
02876            -160.00     5200.00
02877             -80.00     5600.00
02878             -80.00     5280.00
02879            -160.00     5760.00
02880            -100.00     5840.00
02881            -220.00     5680.00
02882            -140.00     6000.00
02883            -160.00     5840.00
02884            -200.00     6160.00
02885            -180.00     6240.00
02886            -240.00     6240.00
02887            -220.00     6400.00
02888            -180.00     6320.00
02889            -160.00     6640.00
02890            -260.00     6560.00
02891            -280.00     6640.00
02892            -260.00     6800.00
02893            -240.00     6800.00
02894            -240.00     6880.00
02895            -240.00     6960.00
02896            -320.00     6960.00
02897            -380.00     6960.00
02898            -300.00     7120.00
02899            -260.00     7200.00
02900            -320.00     7200.00
02901            -340.00     7280.00
02902            -340.00     7360.00
02903            -400.00     7360.00
02904            -420.00     7360.00
02905            -400.00     7440.00
02906            -420.00     7520.00
02907            -460.00     7440.00
02908            -420.00     7520.00
02909            -460.00     7600.00
02910            -540.00     7600.00
02911            -560.00     7600.00
02912            -520.00     7600.00
02913            -560.00     7680.00
02914            -620.00     7600.00
02915            -620.00     7680.00
02916            -640.00     7760.00
02917            -700.00     7680.00
02918            -720.00     7760.00
02919            -720.00     7680.00
02920            -760.00     7760.00
02921            -800.00     7680.00
02922            -820.00     7680.00
02923            -880.00     7680.00
02924            -940.00     7600.00
02925            -960.00     7600.00
02926            -960.00     7600.00
02927           -1000.00     7600.00
02928           -1020.00     7520.00
02929           -1040.00     7520.00
02930           -1080.00     7520.00
02931           -1120.00     7440.00
02932           -1120.00     7520.00
02933           -1120.00     7520.00
02934           -1140.00     7360.00
02935           -1140.00     7440.00
02936           -1140.00     7280.00
02937           -1180.00     7280.00
02938           -1180.00     7200.00
02939           -1140.00     7120.00
02940           -1120.00     7120.00
02941           -1100.00     6960.00
02942           -1120.00     6960.00
02943           -1100.00     6960.00
02944           -1100.00     6800.00
02945           -1040.00     6800.00
02946            -980.00     6720.00
02947            -960.00     6560.00
02948            -940.00     6560.00
02949            -900.00     6480.00
02950            -880.00     6400.00
02951            -880.00     6320.00
02952            -800.00     6240.00
02953            -740.00     6160.00
02954            -720.00     6080.00
02955            -680.00     5920.00
02956            -660.00     5920.00
02957            -640.00     5840.00
02958            -620.00     5680.00
02959            -560.00     5600.00
02960            -540.00     5520.00
02961            -500.00     5360.00
02962            -480.00     5280.00
02963            -480.00     5200.00
02964            -440.00     5040.00
02965            -420.00     4960.00
02966            -380.00     4880.00
02967            -380.00     4720.00
02968            -340.00     4640.00
02969            -320.00     4480.00
02970            -320.00     4400.00
02971            -300.00     4240.00
02972            -300.00     4160.00
02973            -260.00     4080.00
02974            -240.00     3920.00
02975            -240.00     3760.00
02976            -240.00     3600.00
02977            -240.00     3520.00
02978            -240.00     3360.00
02979            -180.00     3280.00
02980            -200.00     3120.00
02981            -180.00     3040.00
02982            -160.00     2880.00
02983            -160.00     2720.00
02984            -160.00     2560.00
02985            -160.00     2480.00
02986            -140.00     2320.00
02987            -120.00     2160.00
02988            -140.00     2080.00
02989            -140.00     1920.00
02990            -140.00     1760.00
02991            -100.00     1680.00
02992            -100.00     1520.00
02993             -80.00     1440.00
02994            -100.00     1200.00
02995            -100.00     1120.00
02996             -80.00      960.00
02997             -80.00      800.00
02998             -80.00      720.00
02999             -80.00      480.00
03000             -60.00      400.00
03001             -60.00      240.00
03002             -60.00      160.00
03003             -20.00      -80.00
03004             -40.00     -160.00
03005              20.00     -240.00
03006              60.00     -400.00
03007              80.00     -560.00
03008              20.00     -720.00
03009               0.00     -800.00
03010               0.00     -960.00
03011              20.00    -1120.00
03012             160.00    -1200.00
03013             580.00    -1360.00
03014             820.00    -1760.00
03015             220.00    -1840.00
03016            -700.00    -1920.00
03017           -1420.00    -2000.00
03018            -720.00    -1760.00
03019             820.00    -2400.00
03020             220.00    -2320.00
03021            -300.00    -2160.00
03022             460.00    -3120.00
03023             140.00    -2560.00
03024             -40.00    -2480.00
03025             220.00    -3360.00
03026            -160.00    -3040.00
03027             260.00    -3120.00
03028             380.00    -3600.00
03029            -300.00    -3600.00
03030             -20.00    -3680.00
03031             140.00    -3760.00
03032             -40.00    -3920.00
03033             200.00    -4240.00
03034             160.00    -4080.00
03035             -60.00    -4400.00
03036              60.00    -4480.00
03037             300.00    -4400.00
03038             140.00    -4720.00
03039             -60.00    -4720.00
03040             220.00    -4880.00
03041             180.00    -4880.00
03042              40.00    -5040.00
03043              80.00    -5280.00
03044             160.00    -5120.00
03045             220.00    -5360.00
03046             160.00    -5600.00
03047             160.00    -5520.00
03048             180.00    -5760.00
03049             160.00    -5840.00
03050             220.00    -6000.00
03051             220.00    -6000.00
03052             160.00    -6160.00
03053             160.00    -6240.00
03054             220.00    -6160.00
03055             240.00    -6320.00
03056             220.00    -6480.00
03057             260.00    -6480.00
03058             260.00    -6560.00
03059             220.00    -6560.00
03060             240.00    -6640.00
03061             300.00    -6720.00
03062             300.00    -6880.00
03063             320.00    -6960.00
03064             320.00    -6960.00
03065             300.00    -6960.00
03066             300.00    -7120.00
03067             380.00    -7120.00
03068             380.00    -7200.00
03069             380.00    -7280.00
03070             380.00    -7280.00
03071             400.00    -7280.00
03072             380.00    -7280.00
03073             420.00    -7440.00
03074             480.00    -7440.00
03075             480.00    -7440.00
03076             480.00    -7520.00
03077             520.00    -7520.00
03078             540.00    -7520.00
03079             540.00    -7600.00
03080             560.00    -7600.00
03081             620.00    -7600.00
03082             620.00    -7600.00
03083             640.00    -7600.00
03084             680.00    -7600.00
03085             700.00    -7600.00
03086             720.00    -7600.00
03087             780.00    -7600.00
03088             800.00    -7600.00
03089             860.00    -7600.00
03090             880.00    -7600.00
03091             900.00    -7600.00
03092             940.00    -7520.00
03093             960.00    -7600.00
03094            1020.00    -7520.00
03095            1040.00    -7520.00
03096            1060.00    -7520.00
03097            1060.00    -7440.00
03098            1100.00    -7440.00
03099            1100.00    -7440.00
03100            1140.00    -7360.00
03101            1180.00    -7280.00
03102            1180.00    -7280.00
03103            1180.00    -7280.00
03104            1180.00    -7200.00
03105            1140.00    -7120.00
03106            1120.00    -7120.00
03107            1140.00    -7040.00
03108            1140.00    -6960.00
03109            1140.00    -6960.00
03110            1100.00    -6800.00
03111            1060.00    -6800.00
03112            1040.00    -6800.00
03113            1020.00    -6640.00
03114            1000.00    -6560.00
03115             960.00    -6560.00
03116             900.00    -6400.00
03117             880.00    -6320.00
03118             820.00    -6240.00
03119             820.00    -6240.00
03120             780.00    -6160.00
03121             760.00    -6000.00
03122             720.00    -5920.00
03123             660.00    -5840.00
03124             660.00    -5680.00
03125             620.00    -5680.00
03126             580.00    -5600.00
03127             540.00    -5440.00
03128             520.00    -5360.00
03129             500.00    -5280.00
03130             460.00    -5120.00
03131             460.00    -5040.00
03132             420.00    -4880.00
03133             400.00    -4880.00
03134             380.00    -4720.00
03135             360.00    -4640.00
03136             320.00    -4480.00
03137             320.00    -4320.00
03138             300.00    -4320.00
03139             260.00    -4160.00
03140             300.00    -4000.00
03141             300.00    -3920.00
03142             240.00    -3760.00
03143             240.00    -3680.00
03144             220.00    -3520.00
03145             220.00    -3440.00
03146             200.00    -3280.00
03147             180.00    -3120.00
03148             220.00    -3040.00
03149             160.00    -2800.00
03150             140.00    -2800.00
03151             160.00    -2640.00
03152             160.00    -2400.00
03153             140.00    -2320.00
03154             140.00    -2160.00
03155             160.00    -2080.00
03156             140.00    -2000.00
03157             120.00    -1760.00
03158             100.00    -1680.00
03159             100.00    -1520.00
03160             100.00    -1360.00
03161             100.00    -1200.00
03162              80.00    -1120.00
03163              80.00     -960.00
03164              80.00     -800.00
03165              80.00     -640.00
03166              80.00     -480.00
03167              80.00     -320.00
03168              80.00     -240.00
03169              80.00     -160.00
03170              60.00       80.00
03171              60.00      240.00
03172              80.00      400.00
03173             140.00      480.00
03174             160.00      560.00
03175             120.00      720.00
03176             100.00      800.00
03177              80.00      880.00
03178             100.00     1120.00
03179             220.00     1200.00
03180             800.00     1520.00
03181             960.00     1680.00
03182              20.00     1840.00
03183           -1260.00     1680.00
03184           -1740.00     1680.00
03185             100.00     2320.00
03186            1180.00     2400.00
03187            -340.00     2320.00
03188             -80.00     2480.00
03189             660.00     2320.00
03190            -360.00     3200.00
03191            -180.00     2960.00
03192             160.00     2480.00
03193             -60.00     3680.00
03194             380.00     3360.00
03195            -260.00     2800.00
03196            -320.00     4080.00
03197             340.00     3840.00
03198            -380.00     3440.00
03199            -100.00     4240.00
03200             320.00     4000.00
03201            -280.00     4320.00
03202            -140.00     4320.00
03203               0.00     4240.00
03204               0.00     4960.00
03205            -160.00     4400.00
03206            -200.00     4800.00
03207             100.00     5200.00
03208            -180.00     4720.00
03209            -180.00     5280.00
03210             -60.00     5200.00
03211            -160.00     5440.00
03212             -20.00     5520.00
03213            -140.00     5280.00
03214            -160.00     5840.00
03215            -160.00     5600.00
03216            -220.00     5840.00
03217            -140.00     6000.00
03218            -180.00     5920.00
03219            -200.00     6240.00
03220            -200.00     6160.00
03221            -220.00     6320.00
03222            -180.00     6320.00
03223            -160.00     6400.00
03224            -200.00     6640.00
03225            -300.00     6480.00
03226            -260.00     6720.00
03227            -260.00     6800.00
03228            -240.00     6800.00
03229            -260.00     6880.00
03230            -260.00     6960.00
03231            -360.00     7040.00
03232            -380.00     6960.00
03233            -260.00     7200.00
03234            -300.00     7200.00
03235            -340.00     7200.00
03236            -340.00     7280.00
03237            -360.00     7440.00
03238            -420.00     7440.00
03239            -420.00     7360.00
03240            -400.00     7520.00
03241            -440.00     7440.00
03242            -460.00     7520.00
03243            -420.00     7520.00
03244            -480.00     7600.00
03245            -560.00     7600.00
03246            -540.00     7600.00
03247            -540.00     7680.00
03248            -580.00     7600.00
03249            -620.00     7600.00
03250            -640.00     7760.00
03251            -660.00     7600.00
03252            -720.00     7680.00
03253            -720.00     7760.00
03254            -740.00     7680.00
03255            -800.00     7680.00
03256            -800.00     7600.00
03257            -820.00     7680.00
03258            -900.00     7760.00
03259            -960.00     7600.00
03260            -960.00     7600.00
03261            -960.00     7600.00
03262           -1020.00     7600.00
03263           -1040.00     7600.00
03264           -1060.00     7520.00
03265           -1100.00     7520.00
03266           -1120.00     7440.00
03267           -1120.00     7440.00
03268           -1120.00     7440.00
03269           -1140.00     7280.00
03270           -1140.00     7360.00
03271           -1140.00     7280.00
03272           -1180.00     7200.00
03273           -1180.00     7200.00
03274           -1120.00     7120.00
03275           -1120.00     7040.00
03276           -1100.00     6960.00
03277           -1100.00     6960.00
03278           -1100.00     6880.00
03279           -1060.00     6800.00
03280           -1020.00     6800.00
03281            -980.00     6640.00
03282            -960.00     6560.00
03283            -940.00     6560.00
03284            -900.00     6480.00
03285            -880.00     6400.00
03286            -820.00     6240.00
03287            -780.00     6160.00
03288            -740.00     6080.00
03289            -700.00     6000.00
03290            -660.00     5920.00
03291            -660.00     5840.00
03292            -640.00     5760.00
03293            -580.00     5680.00
03294            -540.00     5600.00
03295            -500.00     5440.00
03296            -500.00     5360.00
03297            -480.00     5280.00
03298            -460.00     5200.00
03299            -420.00     4960.00
03300            -400.00     4880.00
03301            -360.00     4880.00
03302            -380.00     4720.00
03303            -340.00     4560.00
03304            -340.00     4400.00
03305            -300.00     4400.00
03306            -300.00     4240.00
03307            -260.00     4080.00
03308            -260.00     4000.00
03309            -240.00     3920.00
03310            -220.00     3760.00
03311            -240.00     3600.00
03312            -240.00     3440.00
03313            -180.00     3360.00
03314            -180.00     3280.00
03315            -180.00     3120.00
03316            -180.00     2960.00
03317            -160.00     2800.00
03318            -160.00     2640.00
03319            -160.00     2480.00
03320            -160.00     2400.00
03321            -140.00     2320.00
03322            -120.00     2160.00
03323            -140.00     2000.00
03324            -140.00     1840.00
03325            -120.00     1680.00
03326            -100.00     1600.00
03327            -100.00     1520.00
03328            -100.00     1360.00
03329             -80.00     1120.00
03330             -80.00     1040.00
03331             -80.00      880.00
03332             -80.00      800.00
03333             -80.00      640.00
03334             -80.00      480.00
03335             -60.00      320.00
03336             -40.00      160.00
03337             -60.00       80.00
03338             -40.00      -80.00
03339             -20.00     -240.00
03340              60.00     -320.00
03341              80.00     -480.00
03342              60.00     -560.00
03343              20.00     -800.00
03344               0.00     -880.00
03345               0.00    -1040.00
03346              40.00    -1120.00
03347             260.00    -1280.00
03348             780.00    -1520.00
03349             700.00    -1840.00
03350            -160.00    -1840.00
03351           -1020.00    -2000.00
03352           -1380.00    -1840.00
03353             -20.00    -1920.00
03354             860.00    -2560.00
03355            -240.00    -2160.00
03356             -20.00    -2640.00
03357             500.00    -3120.00
03358            -100.00    -2320.00
03359             140.00    -2880.00
03360              80.00    -3440.00
03361            -140.00    -2960.00
03362             480.00    -3280.00
03363              80.00    -3600.00
03364            -320.00    -3600.00
03365             160.00    -3680.00
03366              20.00    -3760.00
03367              20.00    -4080.00
03368             240.00    -4080.00
03369              60.00    -4080.00
03370             -60.00    -4560.00
03371             160.00    -4400.00
03372             300.00    -4480.00
03373             -20.00    -4720.00
03374              20.00    -4880.00
03375             280.00    -4960.00
03376             120.00    -4880.00
03377              60.00    -5280.00
03378             100.00    -5280.00
03379             180.00    -5200.00
03380             200.00    -5520.00
03381             140.00    -5520.00
03382             160.00    -5520.00
03383             180.00    -5760.00
03384             180.00    -5920.00
03385             240.00    -6000.00
03386             200.00    -6000.00
03387             160.00    -6160.00
03388             180.00    -6240.00
03389             240.00    -6240.00
03390             220.00    -6480.00
03391             220.00    -6480.00
03392             280.00    -6480.00
03393             260.00    -6560.00
03394             240.00    -6640.00
03395             300.00    -6720.00
03396             300.00    -6800.00
03397             260.00    -6960.00
03398             300.00    -6880.00
03399             320.00    -6960.00
03400             280.00    -7040.00
03401             340.00    -7120.00
03402             380.00    -7120.00
03403             380.00    -7200.00
03404             380.00    -7280.00
03405             380.00    -7280.00
03406             400.00    -7280.00
03407             400.00    -7440.00
03408             460.00    -7440.00
03409             480.00    -7440.00
03410             480.00    -7520.00
03411             500.00    -7520.00
03412             500.00    -7520.00
03413             520.00    -7520.00
03414             540.00    -7520.00
03415             620.00    -7600.00
03416             620.00    -7600.00
03417             620.00    -7600.00
03418             640.00    -7600.00
03419             700.00    -7600.00
03420             700.00    -7600.00
03421             720.00    -7600.00
03422             800.00    -7600.00
03423             820.00    -7600.00
03424             860.00    -7600.00
03425             900.00    -7600.00
03426             940.00    -7600.00
03427             940.00    -7520.00
03428             960.00    -7600.00
03429            1020.00    -7520.00
03430            1040.00    -7520.00
03431            1060.00    -7440.00
03432            1100.00    -7520.00
03433            1120.00    -7440.00
03434            1100.00    -7440.00
03435            1140.00    -7440.00
03436            1180.00    -7280.00
03437            1180.00    -7280.00
03438            1180.00    -7200.00
03439            1140.00    -7120.00
03440            1140.00    -7120.00
03441            1140.00    -7040.00
03442            1180.00    -6960.00
03443            1140.00    -6960.00
03444            1120.00    -6880.00
03445            1100.00    -6880.00
03446            1060.00    -6800.00
03447            1020.00    -6640.00
03448            1020.00    -6640.00
03449             980.00    -6560.00
03450             960.00    -6560.00
03451             880.00    -6400.00
03452             860.00    -6320.00
03453             860.00    -6320.00
03454             820.00    -6160.00
03455             780.00    -6160.00
03456             720.00    -6000.00
03457             700.00    -5920.00
03458             660.00    -5840.00
03459             640.00    -5760.00
03460             580.00    -5520.00
03461             540.00    -5440.00
03462             500.00    -5440.00
03463             500.00    -5280.00
03464             500.00    -5200.00
03465             480.00    -5120.00
03466             420.00    -5040.00
03467             400.00    -4880.00
03468             380.00    -4800.00
03469             360.00    -4720.00
03470             380.00    -4560.00
03471             360.00    -4480.00
03472             320.00    -4400.00
03473             300.00    -4240.00
03474             240.00    -4000.00
03475             240.00    -4000.00
03476             240.00    -3760.00
03477             240.00    -3760.00
03478             220.00    -3600.00
03479             220.00    -3440.00
03480             220.00    -3360.00
03481             200.00    -3280.00
03482             220.00    -3120.00
03483             180.00    -2880.00
03484             180.00    -2800.00
03485             160.00    -2640.00
03486             140.00    -2560.00
03487             160.00    -2400.00
03488             140.00    -2320.00
03489             140.00    -2160.00
03490             100.00    -2000.00
03491             100.00    -1840.00
03492             100.00    -1760.00
03493             100.00    -1600.00
03494             140.00    -1440.00
03495             100.00    -1360.00
03496             140.00    -1200.00
03497             100.00    -1040.00
03498              80.00     -880.00
03499              60.00     -720.00
03500              80.00     -560.00
03501              80.00     -400.00
03502              80.00     -240.00
03503              80.00     -160.00
03504              80.00      -80.00
03505              80.00      160.00
03506              80.00      240.00
03507             140.00      400.00
03508             160.00      560.00
03509             160.00      560.00
03510             140.00      800.00
03511              80.00      880.00
03512              60.00     1040.00
03513              80.00     1120.00
03514             400.00     1360.00
03515            1020.00     1680.00
03516             700.00     1760.00
03517            -460.00     1760.00
03518           -1680.00     1600.00
03519           -1220.00     1920.00
03520             900.00     2400.00
03521             640.00     2320.00
03522            -560.00     2480.00
03523             380.00     2400.00
03524             360.00     2640.00
03525            -500.00     3440.00
03526              80.00     2560.00
03527               0.00     2880.00
03528             140.00     3920.00
03529             240.00     2960.00
03530            -500.00     3200.00
03531              60.00     4240.00
03532             140.00     3440.00
03533            -460.00     3760.00
03534             220.00     4160.00
03535              60.00     4000.00
03536            -320.00     4400.00
03537             -60.00     4080.00
03538             -20.00     4560.00
03539               0.00     4800.00
03540            -260.00     4320.00
03541             -80.00     5040.00
03542               0.00     4880.00
03543            -300.00     4880.00
03544             -80.00     5360.00
03545            -100.00     5200.00
03546            -100.00     5600.00
03547             -60.00     5280.00
03548            -160.00     5600.00
03549            -100.00     5840.00
03550            -200.00     5520.00
03551            -140.00     6000.00
03552            -160.00     5920.00
03553            -240.00     6000.00
03554            -180.00     6240.00
03555            -180.00     6160.00
03556            -160.00     6400.00
03557            -160.00     6320.00
03558            -160.00     6560.00
03559            -260.00     6560.00
03560            -300.00     6560.00
03561            -240.00     6800.00
03562            -240.00     6720.00
03563            -240.00     6880.00
03564            -260.00     6880.00
03565            -300.00     6960.00
03566            -340.00     6960.00
03567            -300.00     7040.00
03568            -260.00     7200.00
03569            -320.00     7200.00
03570            -360.00     7200.00
03571            -340.00     7360.00
03572            -380.00     7360.00
03573            -420.00     7360.00
03574            -420.00     7440.00
03575            -420.00     7440.00
03576            -460.00     7520.00
03577            -420.00     7600.00
03578            -440.00     7600.00
03579            -540.00     7600.00
03580            -560.00     7520.00
03581            -540.00     7600.00
03582            -560.00     7760.00
03583            -620.00     7600.00
03584            -620.00     7680.00
03585            -640.00     7760.00
03586            -660.00     7600.00
03587            -740.00     7680.00
03588            -720.00     7760.00
03589            -780.00     7680.00
03590            -820.00     7680.00
03591            -800.00     7600.00
03592            -860.00     7760.00
03593            -900.00     7600.00
03594            -960.00     7600.00
03595            -960.00     7600.00
03596            -980.00     7600.00
03597           -1040.00     7600.00
03598           -1060.00     7520.00
03599           -1060.00     7520.00
03600           -1100.00     7520.00
03601           -1100.00     7440.00
03602           -1120.00     7520.00
03603           -1140.00     7440.00
03604           -1140.00     7280.00
03605           -1140.00     7360.00
03606           -1160.00     7200.00
03607           -1200.00     7200.00
03608           -1140.00     7120.00
03609           -1120.00     7120.00
03610           -1120.00     7040.00
03611           -1120.00     6960.00
03612           -1120.00     6960.00
03613           -1080.00     6800.00
03614           -1040.00     6800.00
03615            -980.00     6720.00
03616            -980.00     6640.00
03617            -960.00     6560.00
03618            -900.00     6480.00
03619            -900.00     6480.00
03620            -860.00     6320.00
03621            -820.00     6240.00
03622            -740.00     6160.00
03623            -720.00     6000.00
03624            -700.00     6000.00
03625            -660.00     5920.00
03626            -660.00     5840.00
03627            -620.00     5680.00
03628            -560.00     5520.00
03629            -540.00     5520.00
03630            -500.00     5360.00
03631            -480.00     5280.00
03632            -480.00     5200.00
03633            -460.00     5120.00
03634            -420.00     5040.00
03635            -400.00     4880.00
03636            -380.00     4800.00
03637            -340.00     4640.00
03638            -320.00     4560.00
03639            -320.00     4400.00
03640            -320.00     4240.00
03641            -300.00     4160.00
03642            -260.00     4080.00
03643            -260.00     3920.00
03644            -260.00     3760.00
03645            -240.00     3680.00
03646            -240.00     3600.00
03647            -240.00     3440.00
03648            -180.00     3280.00
03649            -180.00     3200.00
03650            -180.00     3040.00
03651            -180.00     2960.00
03652            -160.00     2800.00
03653            -160.00     2640.00
03654            -160.00     2480.00
03655            -160.00     2320.00
03656            -140.00     2240.00
03657            -140.00     2080.00
03658            -140.00     2000.00
03659            -140.00     1840.00
03660            -140.00     1680.00
03661            -120.00     1520.00
03662            -100.00     1440.00
03663            -100.00     1280.00
03664            -100.00     1120.00
03665             -80.00      960.00
03666             -80.00      800.00
03667            -100.00      640.00
03668             -80.00      560.00
03669             -80.00      400.00
03670             -60.00      240.00
03671             -60.00      160.00
03672             -60.00       80.00
03673             -60.00     -160.00
03674               0.00     -320.00
03675              60.00     -400.00
03676              60.00     -560.00
03677              20.00     -720.00
03678               0.00     -800.00
03679               0.00     -880.00
03680              20.00    -1040.00
03681              80.00    -1200.00
03682             460.00    -1280.00
03683             860.00    -1680.00
03684             400.00    -1760.00
03685            -500.00    -1920.00
03686           -1300.00    -2000.00
03687           -1020.00    -1760.00
03688             620.00    -2160.00
03689             540.00    -2480.00
03690            -340.00    -2080.00
03691             320.00    -2960.00
03692             300.00    -2800.00
03693            -120.00    -2400.00
03694             220.00    -3280.00
03695            -100.00    -3200.00
03696             100.00    -2960.00
03697             480.00    -3440.00
03698            -180.00    -3600.00
03699            -120.00    -3600.00
03700             160.00    -3760.00
03701             -20.00    -3840.00
03702             140.00    -4160.00
03703             220.00    -4000.00
03704             -20.00    -4240.00
03705             -20.00    -4560.00
03706             260.00    -4400.00
03707             220.00    -4640.00
03708             -80.00    -4720.00
03709             160.00    -4880.00
03710             260.00    -4880.00
03711              60.00    -4960.00
03712              80.00    -5360.00
03713             140.00    -5200.00
03714             220.00    -5280.00
03715             180.00    -5600.00
03716             160.00    -5440.00
03717             180.00    -5680.00
03718             160.00    -5760.00
03719             180.00    -5920.00
03720             220.00    -5920.00
03721             160.00    -6000.00
03722             160.00    -6160.00
03723             220.00    -6160.00
03724             260.00    -6320.00
03725             220.00    -6480.00
03726             220.00    -6480.00
03727             260.00    -6560.00
03728             220.00    -6560.00
03729             240.00    -6640.00
03730             300.00    -6640.00
03731             300.00    -6880.00
03732             300.00    -6880.00
03733             300.00    -6960.00
03734             300.00    -6960.00
03735             300.00    -7120.00
03736             360.00    -7120.00
03737             400.00    -7120.00
03738             340.00    -7200.00
03739             380.00    -7280.00
03740             380.00    -7280.00
03741             380.00    -7280.00
03742             400.00    -7360.00
03743             460.00    -7360.00
03744             480.00    -7440.00
03745             480.00    -7520.00
03746             500.00    -7520.00
03747             500.00    -7520.00
03748             540.00    -7520.00
03749             560.00    -7600.00
03750             620.00    -7600.00
03751             620.00    -7600.00
03752             620.00    -7600.00
03753             660.00    -7520.00
03754             700.00    -7600.00
03755             700.00    -7600.00
03756             780.00    -7600.00
03757             820.00    -7600.00
03758             820.00    -7680.00
03759             860.00    -7600.00
03760             900.00    -7600.00
03761             920.00    -7600.00
03762             940.00    -7600.00
03763            1020.00    -7520.00
03764            1040.00    -7520.00
03765            1060.00    -7520.00
03766            1060.00    -7440.00
03767            1100.00    -7440.00
03768            1120.00    -7440.00
03769            1140.00    -7360.00
03770            1180.00    -7360.00
03771            1180.00    -7200.00
03772            1180.00    -7280.00
03773            1160.00    -7200.00
03774            1140.00    -7120.00
03775            1140.00    -7120.00
03776            1140.00    -7040.00
03777            1160.00    -6960.00
03778            1140.00    -6960.00
03779            1120.00    -6880.00
03780            1080.00    -6800.00
03781            1020.00    -6720.00
03782            1020.00    -6720.00
03783            1020.00    -6560.00
03784             980.00    -6480.00
03785             940.00    -6480.00
03786             880.00    -6320.00
03787             860.00    -6240.00
03788             820.00    -6160.00
03789             800.00    -6160.00
03790             780.00    -6000.00
03791             720.00    -5920.00
03792             660.00    -5920.00
03793             620.00    -5840.00
03794             620.00    -5680.00
03795             580.00    -5600.00
03796             560.00    -5440.00
03797             540.00    -5360.00
03798             500.00    -5280.00
03799             460.00    -5200.00
03800             440.00    -5040.00
03801             400.00    -4960.00
03802             380.00    -4880.00
03803             380.00    -4720.00
03804             340.00    -4640.00
03805             340.00    -4560.00
03806             320.00    -4400.00
03807             320.00    -4320.00
03808             300.00    -4160.00
03809             280.00    -4080.00
03810             260.00    -3920.00
03811             260.00    -3760.00
03812             240.00    -3680.00
03813             220.00    -3520.00
03814             220.00    -3440.00
03815             220.00    -3280.00
03816             220.00    -3120.00
03817             200.00    -2960.00
03818             160.00    -2800.00
03819             180.00    -2800.00
03820             160.00    -2640.00
03821             160.00    -2480.00
03822             160.00    -2400.00
03823             140.00    -2240.00
03824             160.00    -2080.00
03825             140.00    -1920.00
03826             120.00    -1840.00
03827             100.00    -1680.00
03828             100.00    -1520.00
03829             120.00    -1360.00
03830             120.00    -1280.00
03831             100.00    -1120.00
03832              80.00     -960.00
03833              60.00     -800.00
03834              80.00     -720.00
03835              80.00     -480.00
03836              80.00     -400.00
03837              80.00     -240.00
03838              80.00      -80.00
03839              80.00       80.00
03840              60.00      160.00
03841              80.00      320.00
03842             160.00      480.00
03843             160.00      560.00
03844             140.00      720.00
03845             100.00      800.00
03846              80.00      880.00
03847              60.00     1120.00
03848             160.00     1200.00
03849             660.00     1520.00
03850            1040.00     1680.00
03851             300.00     1840.00
03852            -980.00     1840.00
03853           -1820.00     1600.00
03854            -400.00     2240.00
03855            1220.00     2400.00
03856             -80.00     2160.00
03857            -320.00     2480.00
03858             660.00     2320.00
03859            -160.00     3040.00
03860            -340.00     3120.00
03861             160.00     2400.00
03862             -80.00     3440.00
03863             340.00     3680.00
03864            -100.00     2720.00
03865            -480.00     3760.00
03866             320.00     4000.00
03867            -240.00     3360.00
03868            -280.00     4080.00
03869             340.00     4000.00
03870            -180.00     4240.00
03871            -220.00     4400.00
03872               0.00     4080.00
03873               0.00     4880.00
03874            -100.00     4560.00
03875            -260.00     4560.00
03876              80.00     5200.00
03877            -100.00     4720.00
03878            -240.00     5200.00
03879             -60.00     5280.00
03880            -180.00     5280.00
03881             -60.00     5520.00
03882            -100.00     5280.00
03883            -160.00     5840.00
03884            -140.00     5680.00
03885            -220.00     5680.00
03886            -100.00     6080.00
03887            -160.00     5840.00
03888            -180.00     6240.00
03889            -200.00     6160.00
03890            -220.00     6320.00
03891            -220.00     6400.00
03892            -160.00     6320.00
03893            -160.00     6640.00
03894            -260.00     6480.00
03895            -260.00     6640.00
03896            -260.00     6800.00
03897            -260.00     6800.00
03898            -260.00     6800.00
03899            -260.00     6960.00
03900            -320.00     6960.00
03901            -380.00     6960.00
03902            -260.00     7120.00
03903            -300.00     7200.00
03904            -340.00     7200.00
03905            -340.00     7200.00
03906            -380.00     7360.00
03907            -400.00     7440.00
03908            -420.00     7440.00
03909            -400.00     7440.00
03910            -420.00     7520.00
03911            -460.00     7440.00
03912            -440.00     7520.00
03913            -480.00     7520.00
03914            -540.00     7600.00
03915            -540.00     7600.00
03916            -500.00     7680.00
03917            -560.00     7680.00
03918            -620.00     7600.00
03919            -640.00     7680.00
03920            -660.00     7760.00
03921            -700.00     7760.00
03922            -720.00     7760.00
03923            -740.00     7680.00
03924            -800.00     7680.00
03925            -820.00     7600.00
03926            -820.00     7680.00
03927            -900.00     7680.00
03928            -940.00     7600.00
03929            -960.00     7600.00
03930            -960.00     7600.00
03931           -1020.00     7600.00
03932           -1060.00     7600.00
03933           -1060.00     7520.00
03934           -1100.00     7520.00
03935           -1120.00     7440.00
03936           -1120.00     7440.00
03937           -1120.00     7440.00
03938           -1140.00     7440.00
03939           -1140.00     7360.00
03940           -1140.00     7360.00
03941           -1180.00     7280.00
03942           -1180.00     7200.00
03943           -1120.00     7120.00
03944           -1120.00     7120.00
03945           -1120.00     7040.00
03946           -1100.00     6960.00
03947           -1080.00     6880.00
03948           -1060.00     6880.00
03949           -1040.00     6800.00
03950            -960.00     6720.00
03951            -960.00     6640.00
03952            -920.00     6560.00
03953            -900.00     6480.00
03954            -880.00     6400.00
03955            -840.00     6240.00
03956            -800.00     6240.00
03957            -740.00     6160.00
03958            -700.00     6000.00
03959            -660.00     6000.00
03960            -660.00     5840.00
03961            -640.00     5760.00
03962            -580.00     5680.00
03963            -560.00     5520.00
03964            -520.00     5520.00
03965            -500.00     5360.00
03966            -480.00     5280.00
03967            -440.00     5200.00
03968            -420.00     5040.00
03969            -400.00     4960.00
03970            -380.00     4880.00
03971            -340.00     4720.00
03972            -340.00     4640.00
03973            -320.00     4480.00
03974            -320.00     4400.00
03975            -320.00     4240.00
03976            -300.00     4080.00
03977            -260.00     4000.00
03978            -260.00     3920.00
03979            -260.00     3760.00
03980            -240.00     3600.00
03981            -220.00     3520.00
03982            -220.00     3360.00
03983            -200.00     3280.00
03984            -180.00     3120.00
03985            -180.00     3040.00
03986            -160.00     2880.00
03987            -160.00     2720.00
03988            -160.00     2640.00
03989            -160.00     2480.00
03990            -140.00     2320.00
03991            -100.00     2160.00
03992            -140.00     2080.00
03993            -160.00     1840.00
03994            -160.00     1680.00
03995            -100.00     1600.00
03996            -100.00     1520.00
03997            -100.00     1360.00
03998            -100.00     1200.00
03999            -100.00     1040.00
04000             -80.00      880.00
04001            -100.00      720.00
04002            -100.00      640.00
04003            -100.00      480.00
04004             -60.00      400.00
04005             -20.00      240.00
04006             -20.00       80.00
04007             -60.00      -80.00
04008             -40.00     -240.00
04009               0.00     -320.00
04010              60.00     -480.00
04011              80.00     -560.00
04012              60.00     -800.00
04013               0.00     -880.00
04014               0.00     -960.00
04015              20.00    -1040.00
04016             160.00    -1200.00
04017             660.00    -1440.00
04018             800.00    -1760.00
04019              80.00    -1840.00
04020            -820.00    -2000.00
04021           -1440.00    -2000.00
04022            -400.00    -1840.00
04023             900.00    -2400.00
04024               0.00    -2240.00
04025            -160.00    -2320.00
04026             500.00    -3120.00
04027               0.00    -2400.00
04028              60.00    -2720.00
04029             180.00    -3440.00
04030            -160.00    -2960.00
04031             400.00    -3200.00
04032             240.00    -3600.00
04033            -340.00    -3600.00
04034              80.00    -3680.00
04035              80.00    -3760.00
04036               0.00    -4000.00
04037             220.00    -4160.00
04038             120.00    -4000.00
04039             -80.00    -4400.00
04040             100.00    -4480.00
04041             300.00    -4400.00
04042              60.00    -4640.00
04043             -20.00    -4800.00
04044             240.00    -4960.00
04045             160.00    -4880.00
04046              20.00    -5200.00
04047             100.00    -5360.00
04048             160.00    -5200.00
04049             220.00    -5520.00
04050             140.00    -5600.00
04051             160.00    -5520.00
04052             160.00    -5680.00
04053             160.00    -5840.00
04054             220.00    -5920.00
04055             220.00    -5920.00
04056             140.00    -6160.00
04057             160.00    -6240.00
04058             240.00    -6240.00
04059             220.00    -6400.00
04060             220.00    -6480.00
04061             240.00    -6480.00
04062             260.00    -6560.00
04063             220.00    -6640.00
04064             260.00    -6720.00
04065             300.00    -6800.00
04066             260.00    -6880.00
04067             300.00    -6960.00
04068             300.00    -6880.00
04069             300.00    -6960.00
04070             320.00    -7120.00
04071             380.00    -7120.00
04072             380.00    -7200.00
04073             360.00    -7200.00
04074             380.00    -7280.00
04075             400.00    -7280.00
04076             400.00    -7360.00
04077             420.00    -7440.00
04078             460.00    -7360.00
04079             480.00    -7440.00
04080             500.00    -7520.00
04081             540.00    -7520.00
04082             540.00    -7520.00
04083             520.00    -7520.00
04084             580.00    -7600.00
04085             620.00    -7600.00
04086             620.00    -7600.00
04087             640.00    -7600.00
04088             680.00    -7600.00
04089             700.00    -7600.00
04090             720.00    -7680.00
04091             800.00    -7600.00
04092             840.00    -7600.00
04093             860.00    -7600.00
04094             880.00    -7600.00
04095             920.00    -7520.00
04096             940.00    -7600.00
04097             960.00    -7520.00
04098            1020.00    -7520.00
04099            1040.00    -7520.00
04100            1060.00    -7520.00
04101            1100.00    -7440.00
04102            1120.00    -7440.00
04103            1140.00    -7360.00
04104            1180.00    -7360.00
04105            1180.00    -7280.00
04106            1180.00    -7280.00
04107            1140.00    -7200.00
04108            1160.00    -7120.00
04109            1180.00    -7120.00
04110            1180.00    -7040.00
04111            1120.00    -7040.00
04112            1120.00    -6960.00
04113            1140.00    -6880.00
04114            1140.00    -6800.00
04115            1100.00    -6800.00
04116            1020.00    -6640.00
04117             960.00    -6640.00
04118             960.00    -6560.00
04119             940.00    -6480.00
04120             900.00    -6480.00
04121             900.00    -6320.00
04122             860.00    -6240.00
04123             800.00    -6160.00
04124             760.00    -6160.00
04125             760.00    -6000.00
04126             720.00    -5920.00
04127             660.00    -5840.00
04128             620.00    -5680.00
04129             580.00    -5520.00
04130             540.00    -5520.00
04131             540.00    -5440.00
04132             560.00    -5360.00
04133             500.00    -5200.00
04134             460.00    -5040.00
04135             400.00    -5040.00
04136             380.00    -4880.00
04137             380.00    -4800.00
04138             400.00    -4640.00
04139             380.00    -4560.00
04140             340.00    -4480.00
04141             320.00    -4400.00
04142             300.00    -4240.00
04143             260.00    -4080.00
04144             260.00    -4000.00
04145             260.00    -3920.00
04146             260.00    -3760.00
04147             240.00    -3600.00
04148             220.00    -3440.00
04149             200.00    -3360.00
04150             180.00    -3280.00
04151             180.00    -3120.00
04152             180.00    -2880.00
04153             180.00    -2800.00
04154             200.00    -2720.00
04155             180.00    -2560.00
04156             160.00    -2480.00
04157             120.00    -2240.00
04158             140.00    -2160.00
04159             160.00    -2000.00
04160             140.00    -1920.00
04161             140.00    -1760.00
04162             100.00    -1520.00
04163              80.00    -1440.00
04164              80.00    -1280.00
04165             120.00    -1200.00
04166             100.00    -1040.00
04167             100.00     -880.00
04168             100.00     -800.00
04169              80.00     -640.00
04170              60.00     -480.00
04171              60.00     -320.00
04172              60.00     -160.00
04173              80.00      -80.00
04174              60.00       80.00
04175              80.00      240.00
04176             100.00      400.00
04177             160.00      480.00
04178             160.00      560.00
04179             140.00      800.00
04180              80.00      880.00
04181              80.00      960.00
04182              80.00     1120.00
04183             260.00     1280.00
04184             940.00     1600.00
04185             860.00     1680.00
04186            -220.00     1840.00
04187           -1500.00     1680.00
04188           -1520.00     1760.00
04189             540.00     2400.00
04190             960.00     2320.00
04191            -520.00     2400.00
04192             140.00     2400.00
04193             540.00     2480.00
04194            -480.00     3360.00
04195             -60.00     2800.00
04196             120.00     2640.00
04197               0.00     3920.00
04198             360.00     3120.00
04199            -420.00     3040.00
04200            -180.00     4240.00
04201             260.00     3680.00
04202            -440.00     3680.00
04203              80.00     4240.00
04204             220.00     3920.00
04205            -320.00     4400.00
04206            -100.00     4240.00
04207               0.00     4400.00
04208              20.00     4960.00
04209            -220.00     4320.00
04210            -140.00     4960.00
04211             100.00     5040.00
04212            -240.00     4880.00
04213            -100.00     5360.00
04214            -100.00     5120.00
04215            -160.00     5520.00
04216             -60.00     5360.00
04217            -180.00     5440.00
04218            -140.00     5920.00
04219            -160.00     5600.00
04220            -140.00     6000.00
04221             -80.00     6000.00
04222            -160.00     5920.00
04223            -160.00     6240.00
04224            -240.00     6240.00
04225            -260.00     6400.00
04226            -240.00     6320.00
04227            -180.00     6560.00
04228            -240.00     6640.00
04229            -260.00     6480.00
04230            -240.00     6800.00
04231            -180.00     6720.00
04232            -220.00     6880.00
04233            -240.00     6880.00
04234            -260.00     6960.00
04235            -400.00     6960.00
04236            -380.00     7040.00
04237            -320.00     7200.00
04238            -320.00     7200.00
04239            -320.00     7200.00
04240            -320.00     7200.00
04241            -320.00     7440.00
04242            -400.00     7360.00
04243            -420.00     7360.00
04244            -420.00     7520.00
04245            -480.00     7440.00
04246            -480.00     7600.00
04247            -460.00     7600.00
04248            -500.00     7600.00
04249            -560.00     7600.00
04250            -540.00     7600.00
04251            -540.00     7600.00
04252            -580.00     7680.00
04253            -640.00     7600.00
04254            -640.00     7760.00
04255            -660.00     7680.00
04256            -720.00     7600.00
04257            -740.00     7760.00
04258            -800.00     7680.00
04259            -820.00     7760.00
04260            -840.00     7760.00
04261            -860.00     7760.00
04262            -880.00     7600.00
04263            -920.00     7600.00
04264            -960.00     7680.00
04265            -980.00     7600.00
04266           -1060.00     7600.00
04267           -1100.00     7520.00
04268           -1100.00     7520.00
04269           -1120.00     7440.00
04270           -1100.00     7440.00
04271           -1100.00     7440.00
04272           -1120.00     7440.00
04273           -1140.00     7360.00
04274           -1140.00     7360.00
04275           -1180.00     7280.00
04276           -1200.00     7200.00
04277           -1140.00     7120.00
04278           -1120.00     7040.00
04279           -1120.00     7040.00
04280           -1100.00     6960.00
04281           -1120.00     6960.00
04282           -1080.00     6880.00
04283           -1060.00     6800.00
04284           -1000.00     6800.00
04285            -980.00     6640.00
04286            -960.00     6640.00
04287            -900.00     6480.00
04288            -880.00     6480.00
04289            -860.00     6320.00
04290            -820.00     6240.00
04291            -780.00     6160.00
04292            -740.00     6000.00
04293            -700.00     5920.00
04294            -640.00     5920.00
04295            -640.00     5840.00
04296            -620.00     5680.00
04297            -580.00     5680.00
04298            -560.00     5600.00
04299            -520.00     5440.00
04300            -500.00     5360.00
04301            -460.00     5280.00
04302            -420.00     5120.00
04303            -420.00     4960.00
04304            -380.00     4880.00
04305            -340.00     4800.00
04306            -360.00     4640.00
04307            -340.00     4560.00
04308            -360.00     4480.00
04309            -340.00     4320.00
04310            -300.00     4160.00
04311            -240.00     4080.00
04312            -240.00     3920.00
04313            -260.00     3840.00
04314            -260.00     3760.00
04315            -260.00     3600.00
04316            -240.00     3440.00
04317            -240.00     3280.00
04318            -180.00     3200.00
04319            -180.00     3040.00
04320            -180.00     2960.00
04321            -160.00     2800.00
04322            -160.00     2640.00
04323            -160.00     2480.00
04324            -160.00     2400.00
04325            -120.00     2320.00
04326            -140.00     2160.00
04327            -140.00     2000.00
04328            -140.00     1840.00
04329            -140.00     1680.00
04330            -100.00     1600.00
04331            -100.00     1440.00
04332             -80.00     1360.00
04333             -80.00     1120.00
04334             -80.00      960.00
04335            -100.00      800.00
04336            -100.00      720.00
04337            -100.00      560.00
04338             -80.00      400.00
04339             -60.00      320.00
04340             -20.00      160.00
04341             -60.00       80.00
04342             -60.00      -80.00
04343               0.00     -240.00
04344              60.00     -320.00
04345              60.00     -480.00
04346              40.00     -720.00
04347              20.00     -800.00
04348              20.00     -880.00
04349               0.00    -1040.00
04350              60.00    -1120.00
04351             380.00    -1200.00
04352             860.00    -1520.00
04353             580.00    -1840.00
04354            -320.00    -1840.00
04355           -1180.00    -2000.00
04356           -1280.00    -1840.00
04357             300.00    -2000.00
04358             740.00    -2480.00
04359            -320.00    -2080.00
04360             160.00    -2720.00
04361             420.00    -2960.00
04362            -140.00    -2320.00
04363             220.00    -3200.00
04364               0.00    -3360.00
04365             -20.00    -2960.00
04366             500.00    -3440.00
04367             -60.00    -3600.00
04368            -240.00    -3680.00
04369             160.00    -3680.00
04370               0.00    -3760.00
04371              80.00    -4160.00
04372             240.00    -4000.00
04373               0.00    -4160.00
04374             -40.00    -4560.00
04375             220.00    -4400.00
04376             260.00    -4560.00
04377             -60.00    -4720.00
04378              80.00    -4880.00
04379             240.00    -4880.00
04380              60.00    -4880.00
04381              80.00    -5360.00
04382             140.00    -5280.00
04383             180.00    -5120.00
04384             180.00    -5520.00
04385             140.00    -5520.00
04386             160.00    -5680.00
04387             160.00    -5680.00
04388             180.00    -5840.00
04389             220.00    -5920.00
04390             180.00    -6000.00
04391             140.00    -6240.00
04392             180.00    -6160.00
04393             260.00    -6240.00
04394             220.00    -6480.00
04395             220.00    -6480.00
04396             260.00    -6560.00
04397             220.00    -6560.00
04398             220.00    -6720.00
04399             300.00    -6720.00
04400             300.00    -6800.00
04401             300.00    -6960.00
04402             300.00    -6880.00
04403             300.00    -6960.00
04404             300.00    -7040.00
04405             340.00    -7120.00
04406             400.00    -7120.00
04407             380.00    -7200.00
04408             380.00    -7200.00
04409             400.00    -7280.00
04410             400.00    -7280.00
04411             400.00    -7440.00
04412             460.00    -7440.00
04413             480.00    -7360.00
04414             500.00    -7520.00
04415             500.00    -7520.00
04416             540.00    -7440.00
04417             500.00    -7520.00
04418             540.00    -7520.00
04419             620.00    -7520.00
04420             620.00    -7600.00
04421             620.00    -7600.00
04422             660.00    -7600.00
04423             720.00    -7520.00
04424             720.00    -7600.00
04425             760.00    -7600.00
04426             800.00    -7600.00
04427             820.00    -7600.00
04428             860.00    -7600.00
04429             900.00    -7600.00
04430             900.00    -7520.00
04431             940.00    -7520.00
04432            1000.00    -7520.00
04433            1040.00    -7520.00
04434            1060.00    -7440.00
04435            1080.00    -7440.00
04436            1100.00    -7440.00
04437            1120.00    -7440.00
04438            1120.00    -7360.00
04439            1140.00    -7280.00
04440            1180.00    -7280.00
04441            1180.00    -7280.00
04442            1180.00    -7200.00
04443            1140.00    -7120.00
04444            1140.00    -7120.00
04445            1120.00    -7040.00
04446            1120.00    -6960.00
04447            1120.00    -6960.00
04448            1120.00    -6880.00
04449            1100.00    -6800.00
04450            1040.00    -6800.00
04451            1000.00    -6640.00
04452             980.00    -6560.00
04453             960.00    -6560.00
04454             940.00    -6480.00
04455             900.00    -6400.00
04456             860.00    -6320.00
04457             820.00    -6240.00
04458             800.00    -6160.00
04459             780.00    -6080.00
04460             720.00    -6000.00
04461             700.00    -5920.00
04462             640.00    -5840.00
04463             580.00    -5680.00
04464             580.00    -5600.00
04465             560.00    -5440.00
04466             540.00    -5360.00
04467             480.00    -5280.00
04468             480.00    -5200.00
04469             460.00    -5040.00
04470             400.00    -4960.00
04471             400.00    -4880.00
04472             380.00    -4720.00
04473             380.00    -4640.00
04474             340.00    -4560.00
04475             320.00    -4400.00
04476             300.00    -4320.00
04477             300.00    -4240.00
04478             260.00    -4000.00
04479             260.00    -4000.00
04480             260.00    -3840.00
04481             240.00    -3680.00
04482             240.00    -3600.00
04483             220.00    -3440.00
04484             220.00    -3280.00
04485             200.00    -3120.00
04486             200.00    -3040.00
04487             180.00    -2880.00
04488             180.00    -2800.00
04489             160.00    -2640.00
04490             140.00    -2480.00
04491             140.00    -2400.00
04492             160.00    -2160.00
04493             160.00    -2160.00
04494             140.00    -2000.00
04495             140.00    -1840.00
04496             100.00    -1680.00
04497             100.00    -1520.00
04498             120.00    -1440.00
04499             100.00    -1200.00
04500             100.00    -1120.00
04501             100.00    -1040.00
04502              80.00     -880.00
04503              80.00     -720.00
04504              60.00     -560.00
04505              80.00     -480.00
04506              80.00     -240.00
04507              80.00     -160.00
04508              80.00       80.00
04509              80.00       80.00
04510              60.00      240.00
04511             100.00      400.00
04512             160.00      560.00
04513             140.00      720.00
04514             100.00      800.00
04515              80.00      880.00
04516              80.00     1040.00
04517             100.00     1200.00
04518             500.00     1440.00
04519            1040.00     1680.00
04520             500.00     1760.00
04521            -720.00     1840.00
04522           -1780.00     1680.00
04523            -860.00     2080.00
04524            1120.00     2480.00
04525             300.00     2240.00
04526            -480.00     2480.00
04527             560.00     2320.00
04528             100.00     2800.00
04529            -460.00     3280.00
04530             140.00     2480.00
04531             -40.00     3120.00
04532             240.00     3840.00
04533             100.00     2800.00
04534            -540.00     3520.00
04535             180.00     4240.00
04536             -20.00     3360.00
04537            -400.00     4000.00
04538             300.00     4080.00
04539             -60.00     4080.00
04540            -260.00     4560.00
04541               0.00     4080.00
04542               0.00     4800.00
04543             -40.00     4720.00
04544            -280.00     4480.00
04545               0.00     5280.00
04546             -20.00     4800.00
04547            -260.00     5040.00
04548             -60.00     5280.00
04549            -140.00     5200.00
04550             -80.00     5600.00
04551             -60.00     5280.00
04552            -160.00     5760.00
04553            -100.00     5760.00
04554            -200.00     5680.00
04555            -140.00     6080.00
04556            -140.00     5840.00
04557            -180.00     6160.00
04558            -180.00     6240.00
04559            -220.00     6240.00
04560            -220.00     6480.00
04561            -160.00     6320.00
04562            -160.00     6640.00
04563            -240.00     6560.00
04564            -260.00     6560.00
04565            -260.00     6800.00
04566            -240.00     6720.00
04567            -260.00     6880.00
04568            -240.00     6880.00
04569            -320.00     7040.00
04570            -360.00     6960.00
04571            -300.00     7120.00
04572            -300.00     7200.00
04573            -340.00     7200.00
04574            -340.00     7280.00
04575            -360.00     7360.00
04576            -400.00     7440.00
04577            -460.00     7360.00
04578            -400.00     7440.00
04579            -420.00     7440.00
04580            -460.00     7440.00
04581            -460.00     7520.00
04582            -460.00     7520.00
04583            -520.00     7600.00
04584            -580.00     7520.00
04585            -500.00     7600.00
04586            -560.00     7680.00
04587            -620.00     7600.00
04588            -640.00     7600.00
04589            -640.00     7680.00
04590            -720.00     7680.00
04591            -720.00     7600.00
04592            -720.00     7680.00
04593            -780.00     7760.00
04594            -820.00     7600.00
04595            -860.00     7680.00
04596            -900.00     7680.00
04597            -940.00     7600.00
04598            -960.00     7600.00
04599            -960.00     7600.00
04600            -980.00     7520.00
04601           -1040.00     7600.00
04602           -1060.00     7520.00
04603           -1100.00     7520.00
04604           -1120.00     7520.00
04605           -1120.00     7440.00
04606           -1120.00     7440.00
04607           -1140.00     7360.00
04608           -1140.00     7280.00
04609           -1140.00     7360.00
04610           -1180.00     7200.00
04611           -1180.00     7200.00
04612           -1140.00     7120.00
04613           -1100.00     7120.00
04614           -1100.00     7040.00
04615           -1120.00     6960.00
04616           -1100.00     6880.00
04617           -1060.00     6800.00
04618           -1020.00     6800.00
04619            -960.00     6720.00
04620            -960.00     6640.00
04621            -960.00     6560.00
04622            -900.00     6480.00
04623            -880.00     6480.00
04624            -860.00     6320.00
04625            -800.00     6240.00
04626            -760.00     6160.00
04627            -720.00     6080.00
04628            -680.00     6000.00
04629            -660.00     5840.00
04630            -640.00     5840.00
04631            -580.00     5680.00
04632            -560.00     5600.00
04633            -540.00     5520.00
04634            -500.00     5360.00
04635            -480.00     5360.00
04636            -460.00     5200.00
04637            -460.00     5040.00
04638            -420.00     4960.00
04639            -420.00     4880.00
04640            -380.00     4720.00
04641            -340.00     4640.00
04642            -320.00     4560.00
04643            -320.00     4400.00
04644            -320.00     4240.00
04645            -320.00     4160.00
04646            -260.00     4080.00
04647            -260.00     3920.00
04648            -240.00     3840.00
04649            -240.00     3680.00
04650            -240.00     3520.00
04651            -240.00     3360.00
04652            -220.00     3280.00
04653            -180.00     3120.00
04654            -180.00     3040.00
04655            -180.00     2800.00
04656            -160.00     2720.00
04657            -160.00     2640.00
04658            -160.00     2480.00
04659            -160.00     2320.00
04660            -140.00     2160.00
04661            -140.00     2080.00
04662            -160.00     1920.00
04663            -140.00     1840.00
04664            -100.00     1680.00
04665            -100.00     1520.00
04666             -80.00     1360.00
04667            -100.00     1200.00
04668            -100.00     1120.00
04669            -100.00      960.00
04670             -80.00      800.00
04671             -80.00      720.00
04672             -60.00      560.00
04673             -80.00      400.00
04674             -60.00      240.00
04675             -80.00       80.00
04676             -40.00      -80.00
04677             -20.00     -160.00
04678              20.00     -320.00
04679              80.00     -400.00
04680              80.00     -640.00
04681              20.00     -720.00
04682              20.00     -880.00
04683              20.00     -960.00
04684              20.00    -1040.00
04685             140.00    -1200.00
04686             600.00    -1360.00
04687             860.00    -1760.00
04688             240.00    -1760.00
04689            -680.00    -2000.00
04690           -1400.00    -2000.00
04691            -720.00    -1760.00
04692             820.00    -2320.00
04693             260.00    -2400.00
04694            -300.00    -2160.00
04695             440.00    -3120.00
04696             160.00    -2640.00
04697             -60.00    -2480.00
04698             220.00    -3440.00
04699            -140.00    -3040.00
04700             260.00    -3040.00
04701             400.00    -3600.00
04702            -300.00    -3600.00
04703             -20.00    -3680.00
04704             140.00    -3680.00
04705             -20.00    -3920.00
04706             180.00    -4240.00
04707             160.00    -4000.00
04708             -60.00    -4320.00
04709              20.00    -4480.00
04710             280.00    -4400.00
04711             140.00    -4640.00
04712             -80.00    -4720.00
04713             200.00    -4960.00
04714             220.00    -4880.00
04715              20.00    -5040.00
04716              80.00    -5360.00
04717             140.00    -5120.00
04718             220.00    -5360.00
04719             140.00    -5600.00
04720             140.00    -5600.00
04721             180.00    -5680.00
04722             140.00    -5760.00
04723             220.00    -5920.00
04724             220.00    -6000.00
04725             140.00    -6160.00
04726             140.00    -6240.00
04727             220.00    -6160.00
04728             240.00    -6320.00
04729             220.00    -6480.00
04730             260.00    -6480.00
04731             260.00    -6560.00
04732             220.00    -6640.00
04733             240.00    -6800.00
04734             300.00    -6640.00
04735             300.00    -6800.00
04736             300.00    -6960.00
04737             300.00    -6880.00
04738             300.00    -6960.00
04739             320.00    -7040.00
04740             380.00    -7120.00
04741             380.00    -7120.00
04742             380.00    -7200.00
04743             380.00    -7280.00
04744             400.00    -7280.00
04745             400.00    -7440.00
04746             440.00    -7360.00
04747             460.00    -7360.00
04748             480.00    -7440.00
04749             500.00    -7520.00
04750             520.00    -7520.00
04751             540.00    -7520.00
04752             540.00    -7600.00
04753             580.00    -7600.00
04754             620.00    -7600.00
04755             620.00    -7520.00
04756             620.00    -7600.00
04757             700.00    -7600.00
04758             700.00    -7600.00
04759             720.00    -7600.00
04760             780.00    -7600.00
04761             800.00    -7600.00
04762             840.00    -7600.00
04763             880.00    -7600.00
04764             940.00    -7520.00
04765             940.00    -7600.00
04766             960.00    -7520.00
04767            1020.00    -7520.00
04768            1040.00    -7520.00
04769            1060.00    -7520.00
04770            1100.00    -7440.00
04771            1120.00    -7440.00
04772            1120.00    -7440.00
04773            1120.00    -7360.00
04774            1140.00    -7280.00
04775            1140.00    -7200.00
04776            1140.00    -7280.00
04777            1140.00    -7200.00
04778            1180.00    -7120.00
04779            1140.00    -7120.00
04780            1160.00    -6960.00
04781            1140.00    -6960.00
04782            1120.00    -6880.00
04783            1100.00    -6800.00
04784            1060.00    -6800.00
04785            1020.00    -6720.00
04786            1020.00    -6640.00
04787             960.00    -6560.00
04788             960.00    -6480.00
04789             940.00    -6400.00
04790             880.00    -6320.00
04791             860.00    -6240.00
04792             820.00    -6160.00
04793             780.00    -6160.00
04794             740.00    -6000.00
04795             720.00    -5920.00
04796             660.00    -5840.00
04797             640.00    -5680.00
04798             600.00    -5680.00
04799             580.00    -5520.00
04800             560.00    -5440.00
04801             540.00    -5360.00
04802             500.00    -5280.00
04803             480.00    -5120.00
04804             460.00    -5040.00
04805             400.00    -4880.00
04806             380.00    -4880.00
04807             380.00    -4720.00
04808             380.00    -4560.00
04809             340.00    -4560.00
04810             340.00    -4400.00
04811             320.00    -4240.00
04812             300.00    -4080.00
04813             300.00    -4000.00
04814             280.00    -3920.00
04815             260.00    -3760.00
04816             240.00    -3600.00
04817             220.00    -3520.00
04818             200.00    -3360.00
04819             220.00    -3280.00
04820             220.00    -3040.00
04821             200.00    -2960.00
04822             200.00    -2800.00
04823             180.00    -2720.00
04824             160.00    -2560.00
04825             160.00    -2480.00
04826             140.00    -2320.00
04827             140.00    -2160.00
04828             140.00    -2080.00
04829             160.00    -1920.00
04830             140.00    -1760.00
04831             100.00    -1680.00
04832             100.00    -1520.00
04833             100.00    -1360.00
04834             100.00    -1200.00
04835              80.00    -1040.00
04836              80.00     -960.00
04837              80.00     -800.00
04838              60.00     -720.00
04839              60.00     -480.00
04840              80.00     -320.00
04841              60.00     -240.00
04842              60.00      -80.00
04843              60.00       80.00
04844              80.00      160.00
04845             100.00      320.00
04846             140.00      480.00
04847             160.00      560.00
04848             140.00      720.00
04849              80.00      880.00
04850              80.00      960.00
04851              80.00     1120.00
04852             180.00     1280.00
04853             800.00     1520.00
04854             960.00     1680.00
04855              60.00     1840.00
04856           -1200.00     1680.00
04857           -1740.00     1760.00
04858              60.00     2320.00
04859            1180.00     2320.00
04860            -340.00     2320.00
04861            -140.00     2480.00
04862             660.00     2320.00
04863            -340.00     3200.00
04864            -220.00     3040.00
04865             160.00     2480.00
04866             -60.00     3680.00
04867             400.00     3440.00
04868            -260.00     2720.00
04869            -360.00     4080.00
04870             320.00     3920.00
04871            -340.00     3440.00
04872            -100.00     4080.00
04873             320.00     3920.00
04874            -260.00     4320.00
04875            -140.00     4240.00
04876               0.00     4160.00
04877              20.00     4960.00
04878            -160.00     4400.00
04879            -220.00     4720.00
04880             100.00     5120.00
04881            -180.00     4720.00
04882            -160.00     5280.00
04883             -60.00     5200.00
04884            -160.00     5360.00
04885             -20.00     5520.00
04886            -140.00     5360.00
04887            -160.00     5920.00
04888            -140.00     5600.00
04889            -180.00     5840.00
04890            -100.00     6080.00
04891            -160.00     5840.00
04892            -180.00     6240.00
04893            -180.00     6160.00
04894            -220.00     6320.00
04895            -180.00     6400.00
04896            -160.00     6400.00
04897            -180.00     6640.00
04898            -260.00     6480.00
04899            -260.00     6720.00
04900            -260.00     6800.00
04901            -260.00     6800.00
04902            -260.00     6880.00
04903            -260.00     6960.00
04904            -340.00     6960.00
04905            -340.00     6960.00
04906            -280.00     7120.00
04907            -320.00     7200.00
04908            -340.00     7200.00
04909            -380.00     7200.00
04910            -380.00     7360.00
04911            -400.00     7360.00
04912            -420.00     7360.00
04913            -400.00     7440.00
04914            -440.00     7440.00
04915            -480.00     7520.00
04916            -440.00     7520.00
04917            -500.00     7600.00
04918            -560.00     7600.00
04919            -560.00     7600.00
04920            -540.00     7600.00
04921            -580.00     7600.00
04922            -640.00     7600.00
04923            -640.00     7680.00
04924            -660.00     7680.00
04925            -720.00     7600.00
04926            -720.00     7680.00
04927            -740.00     7680.00
04928            -800.00     7600.00
04929            -820.00     7600.00
04930            -860.00     7760.00
04931            -900.00     7600.00
04932            -960.00     7600.00
04933            -960.00     7600.00
04934            -960.00     7600.00
04935           -1020.00     7600.00
04936           -1040.00     7520.00
04937           -1060.00     7520.00
04938           -1100.00     7520.00
04939           -1120.00     7440.00
04940           -1100.00     7440.00
04941           -1120.00     7440.00
04942           -1140.00     7360.00
04943           -1140.00     7280.00
04944           -1160.00     7280.00
04945           -1180.00     7200.00
04946           -1180.00     7200.00
04947           -1120.00     7120.00
04948           -1120.00     7120.00
04949           -1120.00     7040.00
04950           -1100.00     6960.00
04951           -1080.00     6880.00
04952           -1060.00     6800.00
04953           -1020.00     6800.00
04954            -980.00     6640.00
04955            -960.00     6640.00
04956            -900.00     6480.00
04957            -880.00     6400.00
04958            -880.00     6400.00
04959            -820.00     6240.00
04960            -800.00     6240.00
04961            -740.00     6160.00
04962            -700.00     6000.00
04963            -680.00     5920.00
04964            -660.00     5840.00
04965            -640.00     5680.00
04966            -580.00     5600.00
04967            -540.00     5600.00
04968            -540.00     5520.00
04969            -500.00     5280.00
04970            -480.00     5280.00
04971            -460.00     5120.00
04972            -460.00     4960.00
04973            -400.00     4880.00
04974            -400.00     4800.00
04975            -340.00     4720.00
04976            -340.00     4560.00
04977            -320.00     4400.00
04978            -320.00     4320.00
04979            -320.00     4240.00
04980            -280.00     4080.00
04981            -260.00     4000.00
04982            -260.00     3920.00
04983            -260.00     3760.00
04984            -240.00     3600.00
04985            -240.00     3440.00
04986            -220.00     3280.00
04987            -200.00     3280.00
04988            -180.00     3120.00
04989            -180.00     2960.00
04990            -180.00     2800.00
04991            -160.00     2720.00
04992            -160.00     2560.00
04993            -160.00     2400.00
04994            -140.00     2320.00
04995            -140.00     2160.00
04996            -140.00     2080.00
04997            -140.00     1840.00
04998            -140.00     1760.00
04999            -100.00     1600.00
05000            -100.00     1440.00
