Unit:(mV)
                     CH1         CH2
Frequency              ? 298.939 kHz
00001              20.00     -560.00
00002               0.00     -640.00
00003               0.00     -800.00
00004             200.00     -880.00
00005             720.00    -1040.00
00006             800.00    -1280.00
00007               0.00    -1360.00
00008           -1440.00    -1440.00
00009           -1520.00    -1200.00
00010             340.00    -1600.00
00011             900.00    -1760.00
00012            -300.00    -1280.00
00013             140.00    -2080.00
00014             700.00    -2240.00
00015            -100.00    -1520.00
00016             -80.00    -2240.00
00017              60.00    -2720.00
00018             -60.00    -1920.00
00019             400.00    -2240.00
00020             100.00    -2960.00
00021            -340.00    -2560.00
00022             180.00    -2480.00
00023               0.00    -3040.00
00024            -100.00    -3040.00
00025             400.00    -2880.00
00026               0.00    -3040.00
00027            -220.00    -3440.00
00028             380.00    -3360.00
00029             260.00    -3120.00
00030            -140.00    -3680.00
00031              80.00    -3760.00
00032             260.00    -3360.00
00033              80.00    -3760.00
00034             -20.00    -4080.00
00035             160.00    -3840.00
00036             220.00    -3840.00
00037             100.00    -4240.00
00038             160.00    -4160.00
00039             180.00    -4080.00
00040             120.00    -4400.00
00041             140.00    -4480.00
00042             260.00    -4320.00
00043             180.00    -4400.00
00044              60.00    -4720.00
00045             220.00    -4560.00
00046             240.00    -4640.00
00047             140.00    -4800.00
00048             220.00    -4800.00
00049             300.00    -4800.00
00050             180.00    -4960.00
00051             180.00    -5040.00
00052             280.00    -4960.00
00053             260.00    -5040.00
00054             240.00    -5200.00
00055             320.00    -5120.00
00056             300.00    -5120.00
00057             220.00    -5280.00
00058             320.00    -5280.00
00059             380.00    -5280.00
00060             320.00    -5360.00
00061             320.00    -5440.00
00062             380.00    -5360.00
00063             340.00    -5440.00
00064             340.00    -5440.00
00065             400.00    -5440.00
00066             420.00    -5440.00
00067             380.00    -5600.00
00068             400.00    -5600.00
00069             460.00    -5520.00
00070             400.00    -5600.00
00071             440.00    -5680.00
00072             540.00    -5600.00
00073             540.00    -5680.00
00074             500.00    -5680.00
00075             560.00    -5680.00
00076             580.00    -5520.00
00077             540.00    -5680.00
00078             560.00    -5680.00
00079             640.00    -5600.00
00080             640.00    -5680.00
00081             640.00    -5760.00
00082             700.00    -5680.00
00083             680.00    -5680.00
00084             680.00    -5680.00
00085             720.00    -5600.00
00086             780.00    -5600.00
00087             780.00    -5600.00
00088             780.00    -5520.00
00089             800.00    -5520.00
00090             800.00    -5520.00
00091             800.00    -5520.00
00092             840.00    -5440.00
00093             860.00    -5440.00
00094             840.00    -5440.00
00095             860.00    -5360.00
00096             860.00    -5360.00
00097             800.00    -5280.00
00098             820.00    -5280.00
00099             840.00    -5280.00
00100             840.00    -5120.00
00101             820.00    -5200.00
00102             820.00    -5120.00
00103             800.00    -5040.00
00104             800.00    -4960.00
00105             800.00    -4960.00
00106             800.00    -4880.00
00107             780.00    -4800.00
00108             740.00    -4800.00
00109             740.00    -4720.00
00110             700.00    -4640.00
00111             700.00    -4640.00
00112             660.00    -4560.00
00113             700.00    -4480.00
00114             640.00    -4400.00
00115             620.00    -4400.00
00116             580.00    -4240.00
00117             560.00    -4160.00
00118             540.00    -4080.00
00119             540.00    -4000.00
00120             500.00    -4000.00
00121             480.00    -3840.00
00122             480.00    -3840.00
00123             440.00    -3760.00
00124             420.00    -3680.00
00125             420.00    -3520.00
00126             400.00    -3520.00
00127             380.00    -3360.00
00128             360.00    -3360.00
00129             340.00    -3200.00
00130             320.00    -3120.00
00131             300.00    -3040.00
00132             300.00    -2880.00
00133             300.00    -2880.00
00134             280.00    -2720.00
00135             260.00    -2640.00
00136             240.00    -2560.00
00137             240.00    -2400.00
00138             220.00    -2320.00
00139             220.00    -2240.00
00140             220.00    -2160.00
00141             180.00    -2080.00
00142             160.00    -1920.00
00143             160.00    -1840.00
00144             160.00    -1760.00
00145             140.00    -1600.00
00146             160.00    -1520.00
00147             140.00    -1440.00
00148             140.00    -1360.00
00149             140.00    -1200.00
00150             140.00    -1120.00
00151              80.00    -1040.00
00152              80.00     -880.00
00153             100.00     -800.00
00154              80.00     -720.00
00155              80.00     -640.00
00156             100.00     -480.00
00157              80.00     -400.00
00158              80.00     -320.00
00159              80.00     -160.00
00160              60.00        0.00
00161              60.00        0.00
00162              60.00      160.00
00163              60.00      240.00
00164              80.00      320.00
00165             100.00      400.00
00166             140.00      480.00
00167             140.00      640.00
00168             100.00      720.00
00169              80.00      800.00
00170              60.00      960.00
00171             260.00     1120.00
00172             940.00     1360.00
00173             800.00     1440.00
00174            -480.00     1440.00
00175           -2140.00     1280.00
00176           -1140.00     1600.00
00177            1200.00     2000.00
00178             540.00     1840.00
00179            -560.00     1760.00
00180             560.00     1680.00
00181             620.00     2320.00
00182            -720.00     2560.00
00183            -260.00     1760.00
00184             320.00     2320.00
00185              60.00     3120.00
00186             -20.00     2240.00
00187            -260.00     2320.00
00188             -80.00     3520.00
00189             160.00     2880.00
00190            -500.00     2480.00
00191             100.00     3520.00
00192             420.00     3280.00
00193            -620.00     3040.00
00194            -100.00     3440.00
00195             380.00     3520.00
00196            -400.00     3680.00
00197            -160.00     3520.00
00198              60.00     3600.00
00199            -120.00     4240.00
00200            -100.00     3680.00
00201            -240.00     3840.00
00202             -20.00     4480.00
00203             -60.00     4000.00
00204            -220.00     4080.00
00205             -20.00     4480.00
00206            -180.00     4320.00
00207            -240.00     4480.00
00208            -100.00     4480.00
00209            -140.00     4720.00
00210            -160.00     4640.00
00211            -260.00     4560.00
00212            -180.00     4960.00
00213            -180.00     4800.00
00214            -260.00     4880.00
00215            -100.00     5120.00
00216            -240.00     4960.00
00217            -320.00     5120.00
00218            -240.00     5120.00
00219            -240.00     5280.00
00220            -240.00     5200.00
00221            -240.00     5200.00
00222            -260.00     5440.00
00223            -320.00     5280.00
00224            -320.00     5360.00
00225            -240.00     5520.00
00226            -300.00     5520.00
00227            -340.00     5520.00
00228            -300.00     5600.00
00229            -340.00     5680.00
00230            -400.00     5600.00
00231            -380.00     5600.00
00232            -340.00     5760.00
00233            -400.00     5760.00
00234            -400.00     5760.00
00235            -380.00     5840.00
00236            -460.00     5760.00
00237            -500.00     5760.00
00238            -460.00     5840.00
00239            -460.00     5920.00
00240            -520.00     5840.00
00241            -540.00     5840.00
00242            -500.00     5920.00
00243            -560.00     5920.00
00244            -580.00     5840.00
00245            -560.00     5920.00
00246            -580.00     5920.00
00247            -640.00     5840.00
00248            -620.00     5920.00
00249            -640.00     5840.00
00250            -720.00     5840.00
00251            -720.00     5840.00
00252            -720.00     5840.00
00253            -720.00     5840.00
00254            -780.00     5760.00
00255            -780.00     5760.00
00256            -800.00     5760.00
00257            -800.00     5760.00
00258            -800.00     5760.00
00259            -800.00     5680.00
00260            -820.00     5680.00
00261            -820.00     5600.00
00262            -820.00     5600.00
00263            -860.00     5600.00
00264            -880.00     5520.00
00265            -860.00     5440.00
00266            -820.00     5440.00
00267            -860.00     5440.00
00268            -860.00     5360.00
00269            -820.00     5280.00
00270            -820.00     5280.00
00271            -820.00     5200.00
00272            -800.00     5200.00
00273            -800.00     5200.00
00274            -780.00     5040.00
00275            -740.00     4960.00
00276            -740.00     4960.00
00277            -740.00     4800.00
00278            -720.00     4800.00
00279            -700.00     4800.00
00280            -660.00     4640.00
00281            -640.00     4640.00
00282            -620.00     4480.00
00283            -620.00     4480.00
00284            -620.00     4320.00
00285            -560.00     4320.00
00286            -540.00     4240.00
00287            -500.00     4160.00
00288            -480.00     4160.00
00289            -480.00     4000.00
00290            -460.00     3920.00
00291            -440.00     3920.00
00292            -420.00     3760.00
00293            -400.00     3680.00
00294            -380.00     3600.00
00295            -360.00     3520.00
00296            -380.00     3440.00
00297            -340.00     3280.00
00298            -320.00     3200.00
00299            -300.00     3200.00
00300            -300.00     3040.00
00301            -260.00     2960.00
00302            -260.00     2880.00
00303            -260.00     2720.00
00304            -260.00     2640.00
00305            -220.00     2560.00
00306            -220.00     2480.00
00307            -200.00     2320.00
00308            -220.00     2240.00
00309            -180.00     2240.00
00310            -180.00     2080.00
00311            -180.00     1920.00
00312            -160.00     1840.00
00313            -160.00     1760.00
00314            -140.00     1600.00
00315            -140.00     1600.00
00316            -120.00     1440.00
00317            -100.00     1280.00
00318            -100.00     1200.00
00319            -100.00     1120.00
00320            -100.00     1040.00
00321            -100.00      960.00
00322            -100.00      800.00
00323             -80.00      720.00
00324            -100.00      640.00
00325             -80.00      480.00
00326             -80.00      320.00
00327             -40.00      320.00
00328             -60.00      160.00
00329             -60.00       80.00
00330             -60.00        0.00
00331               0.00     -160.00
00332              60.00     -240.00
00333              60.00     -320.00
00334              20.00     -480.00
00335               0.00     -560.00
00336               0.00     -640.00
00337             -20.00     -720.00
00338              60.00     -880.00
00339             420.00     -960.00
00340             860.00    -1200.00
00341             500.00    -1360.00
00342            -720.00    -1440.00
00343           -1820.00    -1280.00
00344            -700.00    -1280.00
00345            1020.00    -1840.00
00346             220.00    -1520.00
00347            -260.00    -1600.00
00348             560.00    -2400.00
00349             320.00    -1760.00
00350            -160.00    -1760.00
00351              60.00    -2720.00
00352             -60.00    -2400.00
00353             160.00    -1920.00
00354             340.00    -2720.00
00355            -260.00    -2880.00
00356            -100.00    -2400.00
00357             180.00    -2720.00
00358            -140.00    -3120.00
00359             220.00    -3040.00
00360             320.00    -2880.00
00361            -260.00    -3200.00
00362              60.00    -3440.00
00363             400.00    -3120.00
00364               0.00    -3280.00
00365             -80.00    -3760.00
00366             220.00    -3520.00
00367             220.00    -3440.00
00368               0.00    -3840.00
00369              60.00    -4000.00
00370             240.00    -3760.00
00371             160.00    -4000.00
00372             100.00    -4320.00
00373             220.00    -4080.00
00374             140.00    -4160.00
00375             100.00    -4480.00
00376             220.00    -4320.00
00377             260.00    -4320.00
00378              80.00    -4640.00
00379             140.00    -4720.00
00380             280.00    -4560.00
00381             180.00    -4720.00
00382             160.00    -4880.00
00383             300.00    -4800.00
00384             240.00    -4800.00
00385             160.00    -5040.00
00386             220.00    -4960.00
00387             300.00    -4960.00
00388             240.00    -5120.00
00389             300.00    -5120.00
00390             380.00    -5120.00
00391             300.00    -5120.00
00392             240.00    -5360.00
00393             320.00    -5280.00
00394             280.00    -5280.00
00395             200.00    -5440.00
00396             300.00    -5360.00
00397             380.00    -5360.00
00398             400.00    -5440.00
00399             480.00    -5440.00
00400             540.00    -5440.00
00401             460.00    -5520.00
00402             380.00    -5600.00
00403             360.00    -5520.00
00404             320.00    -5520.00
00405             320.00    -5680.00
00406             460.00    -5680.00
00407             580.00    -5680.00
00408             560.00    -5680.00
00409             580.00    -5680.00
00410             600.00    -5680.00
00411             540.00    -5680.00
00412             480.00    -5760.00
00413             560.00    -5680.00
00414             620.00    -5680.00
00415             620.00    -5680.00
00416             680.00    -5680.00
00417             720.00    -5600.00
00418             700.00    -5600.00
00419             700.00    -5680.00
00420             780.00    -5520.00
00421             780.00    -5600.00
00422             780.00    -5600.00
00423             800.00    -5520.00
00424             800.00    -5520.00
00425             780.00    -5520.00
00426             780.00    -5520.00
00427             800.00    -5440.00
00428             800.00    -5440.00
00429             860.00    -5440.00
00430             880.00    -5360.00
00431             880.00    -5360.00
00432             860.00    -5280.00
00433             860.00    -5280.00
00434             820.00    -5200.00
00435             800.00    -5120.00
00436             780.00    -5120.00
00437             800.00    -5040.00
00438             820.00    -4960.00
00439             820.00    -4960.00
00440             820.00    -4880.00
00441             800.00    -4880.00
00442             740.00    -4800.00
00443             680.00    -4800.00
00444             680.00    -4640.00
00445             660.00    -4640.00
00446             700.00    -4560.00
00447             700.00    -4480.00
00448             700.00    -4400.00
00449             640.00    -4400.00
00450             580.00    -4320.00
00451             540.00    -4160.00
00452             500.00    -4160.00
00453             520.00    -4080.00
00454             540.00    -4000.00
00455             540.00    -3920.00
00456             500.00    -3840.00
00457             460.00    -3680.00
00458             420.00    -3680.00
00459             380.00    -3680.00
00460             380.00    -3520.00
00461             380.00    -3440.00
00462             380.00    -3360.00
00463             380.00    -3280.00
00464             360.00    -3120.00
00465             320.00    -3040.00
00466             300.00    -2960.00
00467             260.00    -2880.00
00468             260.00    -2800.00
00469             260.00    -2720.00
00470             220.00    -2640.00
00471             240.00    -2560.00
00472             240.00    -2480.00
00473             240.00    -2320.00
00474             220.00    -2240.00
00475             180.00    -2160.00
00476             160.00    -1920.00
00477             140.00    -1920.00
00478             160.00    -1840.00
00479             180.00    -1760.00
00480             180.00    -1600.00
00481             160.00    -1520.00
00482             140.00    -1440.00
00483             100.00    -1280.00
00484              80.00    -1120.00
00485             140.00    -1120.00
00486             160.00     -960.00
00487             140.00     -880.00
00488             100.00     -800.00
00489              60.00     -640.00
00490              60.00     -480.00
00491              80.00     -400.00
00492             100.00     -320.00
00493              80.00     -240.00
00494              20.00      -80.00
00495              60.00        0.00
00496             100.00       80.00
00497             100.00      160.00
00498              60.00      320.00
00499              80.00      400.00
00500             100.00      480.00
00501             100.00      640.00
00502             100.00      720.00
00503             100.00      800.00
00504              80.00      800.00
00505              80.00      960.00
00506             560.00     1120.00
00507            1020.00     1360.00
00508             380.00     1440.00
00509           -1420.00     1360.00
00510           -1980.00     1280.00
00511              80.00     1760.00
00512            1340.00     2000.00
00513            -320.00     1760.00
00514            -200.00     1760.00
00515            1040.00     1920.00
00516            -180.00     2560.00
00517            -720.00     2240.00
00518             240.00     1760.00
00519             160.00     2880.00
00520              20.00     2880.00
00521            -100.00     2000.00
00522            -300.00     2960.00
00523             220.00     3360.00
00524            -160.00     2400.00
00525            -400.00     2960.00
00526             500.00     3520.00
00527            -160.00     3040.00
00528            -620.00     3280.00
00529             380.00     3440.00
00530              20.00     3520.00
00531            -400.00     3680.00
00532              60.00     3360.00
00533             -80.00     4000.00
00534            -160.00     4000.00
00535            -180.00     3520.00
00536            -160.00     4240.00
00537              60.00     4320.00
00538            -160.00     3840.00
00539            -140.00     4320.00
00540             -80.00     4320.00
00541            -260.00     4320.00
00542            -160.00     4480.00
00543            -100.00     4560.00
00544            -140.00     4720.00
00545            -220.00     4480.00
00546            -260.00     4800.00
00547            -160.00     4960.00
00548            -240.00     4720.00
00549            -160.00     4960.00
00550            -100.00     5040.00
00551            -280.00     4960.00
00552            -260.00     5120.00
00553            -260.00     5200.00
00554            -260.00     5280.00
00555            -240.00     5280.00
00556            -260.00     5280.00
00557            -280.00     5440.00
00558            -340.00     5280.00
00559            -280.00     5520.00
00560            -260.00     5600.00
00561            -340.00     5440.00
00562            -320.00     5520.00
00563            -320.00     5600.00
00564            -340.00     5680.00
00565            -380.00     5600.00
00566            -340.00     5760.00
00567            -380.00     5760.00
00568            -420.00     5680.00
00569            -400.00     5760.00
00570            -420.00     5840.00
00571            -480.00     5760.00
00572            -480.00     5840.00
00573            -420.00     5920.00
00574            -480.00     5840.00
00575            -540.00     5840.00
00576            -500.00     5840.00
00577            -540.00     5920.00
00578            -580.00     5840.00
00579            -580.00     5840.00
00580            -560.00     5920.00
00581            -620.00     5840.00
00582            -640.00     5840.00
00583            -640.00     5920.00
00584            -660.00     5920.00
00585            -740.00     5840.00
00586            -720.00     5840.00
00587            -700.00     5840.00
00588            -740.00     5840.00
00589            -780.00     5760.00
00590            -780.00     5760.00
00591            -800.00     5760.00
00592            -820.00     5760.00
00593            -800.00     5760.00
00594            -800.00     5600.00
00595            -820.00     5600.00
00596            -820.00     5600.00
00597            -820.00     5600.00
00598            -880.00     5520.00
00599            -880.00     5520.00
00600            -820.00     5440.00
00601            -820.00     5440.00
00602            -820.00     5360.00
00603            -820.00     5280.00
00604            -840.00     5200.00
00605            -860.00     5200.00
00606            -800.00     5200.00
00607            -780.00     5120.00
00608            -800.00     5120.00
00609            -780.00     4960.00
00610            -740.00     4960.00
00611            -740.00     4960.00
00612            -740.00     4880.00
00613            -700.00     4800.00
00614            -680.00     4720.00
00615            -640.00     4640.00
00616            -640.00     4560.00
00617            -640.00     4480.00
00618            -620.00     4400.00
00619            -560.00     4320.00
00620            -540.00     4320.00
00621            -500.00     4240.00
00622            -500.00     4160.00
00623            -500.00     4080.00
00624            -480.00     4000.00
00625            -460.00     3840.00
00626            -420.00     3840.00
00627            -400.00     3680.00
00628            -400.00     3600.00
00629            -380.00     3520.00
00630            -360.00     3440.00
00631            -340.00     3360.00
00632            -340.00     3280.00
00633            -320.00     3200.00
00634            -280.00     3120.00
00635            -300.00     3040.00
00636            -260.00     2880.00
00637            -260.00     2800.00
00638            -240.00     2720.00
00639            -240.00     2640.00
00640            -200.00     2560.00
00641            -220.00     2400.00
00642            -220.00     2320.00
00643            -180.00     2240.00
00644            -180.00     2080.00
00645            -180.00     2000.00
00646            -160.00     1920.00
00647            -160.00     1760.00
00648            -140.00     1680.00
00649            -160.00     1600.00
00650            -160.00     1440.00
00651            -120.00     1360.00
00652            -100.00     1280.00
00653            -100.00     1200.00
00654            -100.00     1120.00
00655            -100.00      960.00
00656            -100.00      800.00
00657            -100.00      720.00
00658             -80.00      640.00
00659             -80.00      560.00
00660             -80.00      400.00
00661             -60.00      320.00
00662             -60.00      240.00
00663             -60.00       80.00
00664             -60.00        0.00
00665             -40.00     -160.00
00666              20.00     -160.00
00667              60.00     -240.00
00668              40.00     -400.00
00669               0.00     -480.00
00670               0.00     -560.00
00671               0.00     -640.00
00672               0.00     -800.00
00673             200.00     -880.00
00674             700.00    -1120.00
00675             800.00    -1280.00
00676               0.00    -1280.00
00677           -1440.00    -1440.00
00678           -1560.00    -1200.00
00679             300.00    -1520.00
00680             940.00    -1760.00
00681            -280.00    -1360.00
00682             100.00    -2080.00
00683             720.00    -2240.00
00684             -80.00    -1520.00
00685             -80.00    -2240.00
00686              60.00    -2720.00
00687             -80.00    -2000.00
00688             380.00    -2160.00
00689             120.00    -2960.00
00690            -340.00    -2640.00
00691             180.00    -2480.00
00692              60.00    -2960.00
00693             -80.00    -3040.00
00694             420.00    -2880.00
00695              20.00    -3040.00
00696            -240.00    -3360.00
00697             340.00    -3360.00
00698             300.00    -3120.00
00699            -140.00    -3680.00
00700              80.00    -3680.00
00701             300.00    -3440.00
00702             100.00    -3680.00
00703             -20.00    -4080.00
00704             160.00    -3840.00
00705             220.00    -3760.00
00706             100.00    -4160.00
00707             160.00    -4240.00
00708             180.00    -4000.00
00709             100.00    -4320.00
00710             140.00    -4480.00
00711             260.00    -4320.00
00712             180.00    -4480.00
00713              60.00    -4640.00
00714             220.00    -4560.00
00715             260.00    -4560.00
00716             160.00    -4800.00
00717             240.00    -4880.00
00718             320.00    -4800.00
00719             160.00    -4960.00
00720             180.00    -5040.00
00721             260.00    -4960.00
00722             260.00    -5040.00
00723             240.00    -5200.00
00724             300.00    -5120.00
00725             280.00    -5120.00
00726             220.00    -5280.00
00727             300.00    -5360.00
00728             380.00    -5200.00
00729             320.00    -5360.00
00730             320.00    -5440.00
00731             360.00    -5360.00
00732             320.00    -5440.00
00733             300.00    -5520.00
00734             380.00    -5440.00
00735             420.00    -5440.00
00736             420.00    -5680.00
00737             420.00    -5600.00
00738             420.00    -5520.00
00739             380.00    -5600.00
00740             400.00    -5680.00
00741             540.00    -5600.00
00742             540.00    -5600.00
00743             480.00    -5760.00
00744             540.00    -5680.00
00745             560.00    -5680.00
00746             540.00    -5680.00
00747             560.00    -5680.00
00748             640.00    -5680.00
00749             640.00    -5680.00
00750             640.00    -5760.00
00751             660.00    -5680.00
00752             700.00    -5680.00
00753             700.00    -5600.00
00754             720.00    -5600.00
00755             760.00    -5600.00
00756             780.00    -5520.00
00757             780.00    -5520.00
00758             800.00    -5600.00
00759             800.00    -5440.00
00760             800.00    -5520.00
00761             820.00    -5440.00
00762             820.00    -5440.00
00763             820.00    -5440.00
00764             840.00    -5360.00
00765             860.00    -5360.00
00766             820.00    -5360.00
00767             820.00    -5280.00
00768             860.00    -5200.00
00769             860.00    -5200.00
00770             820.00    -5120.00
00771             820.00    -5120.00
00772             800.00    -5040.00
00773             800.00    -5040.00
00774             780.00    -5040.00
00775             800.00    -4880.00
00776             780.00    -4800.00
00777             740.00    -4720.00
00778             720.00    -4720.00
00779             720.00    -4640.00
00780             700.00    -4640.00
00781             660.00    -4480.00
00782             660.00    -4480.00
00783             640.00    -4400.00
00784             620.00    -4320.00
00785             580.00    -4160.00
00786             540.00    -4160.00
00787             540.00    -4080.00
00788             540.00    -4080.00
00789             500.00    -4000.00
00790             480.00    -3920.00
00791             480.00    -3840.00
00792             460.00    -3680.00
00793             400.00    -3680.00
00794             380.00    -3520.00
00795             400.00    -3440.00
00796             380.00    -3440.00
00797             340.00    -3360.00
00798             320.00    -3200.00
00799             320.00    -3120.00
00800             320.00    -2960.00
00801             300.00    -2960.00
00802             300.00    -2800.00
00803             240.00    -2720.00
00804             240.00    -2640.00
00805             240.00    -2560.00
00806             220.00    -2480.00
00807             220.00    -2400.00
00808             200.00    -2320.00
00809             220.00    -2160.00
00810             220.00    -2080.00
00811             160.00    -1920.00
00812             140.00    -1920.00
00813             180.00    -1680.00
00814             160.00    -1600.00
00815             140.00    -1520.00
00816             160.00    -1440.00
00817             140.00    -1280.00
00818              60.00    -1200.00
00819              60.00    -1120.00
00820             140.00    -1040.00
00821             140.00     -880.00
00822             140.00     -880.00
00823             100.00     -800.00
00824              80.00     -560.00
00825              60.00     -400.00
00826              60.00     -400.00
00827              80.00     -240.00
00828             100.00     -160.00
00829              60.00        0.00
00830              60.00       80.00
00831              20.00      160.00
00832              60.00      240.00
00833             100.00      400.00
00834             160.00      480.00
00835             140.00      480.00
00836             100.00      640.00
00837              60.00      720.00
00838              20.00      800.00
00839              60.00      880.00
00840             300.00     1040.00
00841             940.00     1280.00
00842             820.00     1360.00
00843            -400.00     1440.00
00844           -2100.00     1200.00
00845           -1220.00     1600.00
00846            1180.00     1920.00
00847             620.00     1920.00
00848            -560.00     1760.00
00849             480.00     1680.00
00850             640.00     2320.00
00851            -680.00     2640.00
00852            -300.00     1760.00
00853             380.00     2240.00
00854              60.00     3200.00
00855             -20.00     2240.00
00856            -260.00     2240.00
00857            -100.00     3520.00
00858             160.00     2880.00
00859            -480.00     2400.00
00860              40.00     3360.00
00861             460.00     3280.00
00862            -580.00     3040.00
00863            -120.00     3520.00
00864             400.00     3520.00
00865            -400.00     3680.00
00866            -180.00     3520.00
00867              60.00     3520.00
00868            -140.00     4160.00
00869            -100.00     3600.00
00870            -240.00     3840.00
00871             -40.00     4560.00
00872             -60.00     3920.00
00873            -220.00     4080.00
00874             -20.00     4400.00
00875            -160.00     4320.00
00876            -260.00     4480.00
00877            -140.00     4480.00
00878            -160.00     4720.00
00879            -180.00     4640.00
00880            -240.00     4560.00
00881            -160.00     4960.00
00882            -180.00     4800.00
00883            -260.00     4880.00
00884            -100.00     5120.00
00885            -220.00     4960.00
00886            -320.00     5120.00
00887            -240.00     5120.00
00888            -260.00     5200.00
00889            -260.00     5280.00
00890            -240.00     5200.00
00891            -260.00     5440.00
00892            -320.00     5280.00
00893            -320.00     5280.00
00894            -240.00     5600.00
00895            -260.00     5440.00
00896            -320.00     5520.00
00897            -300.00     5600.00
00898            -320.00     5680.00
00899            -420.00     5600.00
00900            -360.00     5600.00
00901            -340.00     5760.00
00902            -400.00     5760.00
00903            -380.00     5680.00
00904            -380.00     5840.00
00905            -460.00     5840.00
00906            -500.00     5760.00
00907            -460.00     5840.00
00908            -420.00     5920.00
00909            -500.00     5840.00
00910            -500.00     5760.00
00911            -480.00     5920.00
00912            -560.00     5920.00
00913            -600.00     5840.00
00914            -580.00     5920.00
00915            -580.00     5920.00
00916            -640.00     5840.00
00917            -640.00     5840.00
00918            -640.00     5920.00
00919            -720.00     5840.00
00920            -740.00     5840.00
00921            -700.00     5840.00
00922            -720.00     5840.00
00923            -780.00     5760.00
00924            -780.00     5760.00
00925            -780.00     5760.00
00926            -820.00     5760.00
00927            -820.00     5760.00
00928            -820.00     5760.00
00929            -840.00     5600.00
00930            -860.00     5600.00
00931            -820.00     5600.00
00932            -860.00     5600.00
00933            -880.00     5440.00
00934            -860.00     5520.00
00935            -820.00     5440.00
00936            -820.00     5440.00
00937            -820.00     5440.00
00938            -820.00     5280.00
00939            -840.00     5280.00
00940            -820.00     5200.00
00941            -800.00     5200.00
00942            -800.00     5120.00
00943            -800.00     5120.00
00944            -780.00     4960.00
00945            -740.00     4960.00
00946            -740.00     4800.00
00947            -720.00     4800.00
00948            -660.00     4800.00
00949            -640.00     4640.00
00950            -640.00     4720.00
00951            -640.00     4560.00
00952            -620.00     4480.00
00953            -600.00     4320.00
00954            -540.00     4320.00
00955            -500.00     4240.00
00956            -500.00     4160.00
00957            -500.00     4080.00
00958            -480.00     4000.00
00959            -480.00     3840.00
00960            -420.00     3840.00
00961            -400.00     3760.00
00962            -380.00     3680.00
00963            -380.00     3600.00
00964            -380.00     3520.00
00965            -340.00     3440.00
00966            -340.00     3280.00
00967            -340.00     3200.00
00968            -320.00     3120.00
00969            -280.00     3120.00
00970            -300.00     2960.00
00971            -260.00     2880.00
00972            -260.00     2720.00
00973            -240.00     2720.00
00974            -220.00     2560.00
00975            -220.00     2480.00
00976            -180.00     2320.00
00977            -180.00     2320.00
00978            -180.00     2160.00
00979            -180.00     2080.00
00980            -180.00     1920.00
00981            -160.00     1840.00
00982            -160.00     1760.00
00983            -160.00     1680.00
00984            -140.00     1600.00
00985            -140.00     1440.00
00986            -120.00     1280.00
00987            -100.00     1280.00
00988            -100.00     1120.00
00989            -100.00     1040.00
00990            -100.00      960.00
00991            -100.00      800.00
00992            -100.00      720.00
00993             -80.00      560.00
00994             -80.00      480.00
00995             -80.00      320.00
00996             -60.00      320.00
00997             -60.00      160.00
00998             -60.00       80.00
00999             -60.00      -80.00
01000             -20.00     -160.00
01001              60.00     -240.00
01002              60.00     -320.00
01003              40.00     -400.00
01004               0.00     -560.00
01005               0.00     -640.00
01006               0.00     -640.00
01007              60.00     -800.00
01008             400.00     -960.00
01009             860.00    -1200.00
01010             540.00    -1360.00
01011            -680.00    -1360.00
01012           -1820.00    -1360.00
01013            -740.00    -1280.00
01014             980.00    -1840.00
01015             260.00    -1600.00
01016            -260.00    -1600.00
01017             540.00    -2400.00
01018             360.00    -1840.00
01019            -160.00    -1760.00
01020              40.00    -2640.00
01021             -60.00    -2480.00
01022             140.00    -1920.00
01023             380.00    -2720.00
01024            -220.00    -2880.00
01025            -100.00    -2400.00
01026             220.00    -2720.00
01027            -120.00    -3040.00
01028             180.00    -2960.00
01029             340.00    -2880.00
01030            -260.00    -3200.00
01031              80.00    -3440.00
01032             420.00    -3200.00
01033              20.00    -3360.00
01034             -80.00    -3840.00
01035             220.00    -3520.00
01036             240.00    -3440.00
01037               0.00    -3920.00
01038              20.00    -3920.00
01039             220.00    -3840.00
01040             160.00    -4000.00
01041             100.00    -4240.00
01042             200.00    -4080.00
01043             160.00    -4160.00
01044             100.00    -4480.00
01045             220.00    -4400.00
01046             240.00    -4320.00
01047              80.00    -4640.00
01048             100.00    -4640.00
01049             260.00    -4480.00
01050             220.00    -4720.00
01051             160.00    -4800.00
01052             300.00    -4800.00
01053             260.00    -4800.00
01054             160.00    -5040.00
01055             240.00    -4960.00
01056             300.00    -4960.00
01057             220.00    -5200.00
01058             240.00    -5120.00
01059             300.00    -5120.00
01060             220.00    -5120.00
01061             220.00    -5360.00
01062             340.00    -5280.00
01063             340.00    -5280.00
01064             300.00    -5440.00
01065             340.00    -5440.00
01066             380.00    -5360.00
01067             320.00    -5440.00
01068             340.00    -5600.00
01069             420.00    -5440.00
01070             380.00    -5520.00
01071             380.00    -5680.00
01072             440.00    -5600.00
01073             420.00    -5520.00
01074             400.00    -5680.00
01075             480.00    -5680.00
01076             540.00    -5600.00
01077             480.00    -5600.00
01078             500.00    -5680.00
01079             560.00    -5680.00
01080             540.00    -5680.00
01081             540.00    -5680.00
01082             620.00    -5680.00
01083             640.00    -5600.00
01084             640.00    -5680.00
01085             660.00    -5760.00
01086             720.00    -5600.00
01087             700.00    -5600.00
01088             700.00    -5680.00
01089             780.00    -5600.00
01090             780.00    -5600.00
01091             760.00    -5600.00
01092             780.00    -5520.00
01093             800.00    -5520.00
01094             780.00    -5520.00
01095             800.00    -5440.00
01096             860.00    -5440.00
01097             860.00    -5360.00
01098             860.00    -5360.00
01099             860.00    -5360.00
01100             840.00    -5280.00
01101             820.00    -5280.00
01102             820.00    -5280.00
01103             860.00    -5200.00
01104             860.00    -5200.00
01105             860.00    -5120.00
01106             840.00    -5040.00
01107             800.00    -5040.00
01108             780.00    -5040.00
01109             780.00    -4960.00
01110             780.00    -4880.00
01111             760.00    -4800.00
01112             740.00    -4720.00
01113             720.00    -4720.00
01114             700.00    -4640.00
01115             680.00    -4640.00
01116             700.00    -4480.00
01117             640.00    -4400.00
01118             620.00    -4400.00
01119             580.00    -4320.00
01120             560.00    -4160.00
01121             560.00    -4160.00
01122             560.00    -4080.00
01123             540.00    -4000.00
01124             480.00    -3920.00
01125             460.00    -3840.00
01126             420.00    -3760.00
01127             420.00    -3680.00
01128             400.00    -3600.00
01129             420.00    -3520.00
01130             400.00    -3360.00
01131             380.00    -3360.00
01132             320.00    -3280.00
01133             320.00    -3200.00
01134             280.00    -3040.00
01135             320.00    -2960.00
01136             320.00    -2880.00
01137             260.00    -2800.00
01138             240.00    -2720.00
01139             220.00    -2560.00
01140             240.00    -2480.00
01141             220.00    -2400.00
01142             220.00    -2320.00
01143             220.00    -2160.00
01144             220.00    -2080.00
01145             180.00    -2080.00
01146             160.00    -1920.00
01147             140.00    -1840.00
01148             140.00    -1760.00
01149             140.00    -1600.00
01150             160.00    -1520.00
01151             140.00    -1440.00
01152             160.00    -1280.00
01153             140.00    -1200.00
01154             100.00    -1120.00
01155             100.00     -960.00
01156             100.00     -880.00
01157             100.00     -800.00
01158              80.00     -720.00
01159              80.00     -560.00
01160             100.00     -400.00
01161              80.00     -320.00
01162              80.00     -240.00
01163              80.00     -160.00
01164              80.00        0.00
01165              60.00       80.00
01166              60.00      240.00
01167              80.00      320.00
01168             100.00      400.00
01169             140.00      480.00
01170             140.00      640.00
01171             100.00      720.00
01172              80.00      800.00
01173              40.00      960.00
01174             100.00     1040.00
01175             600.00     1120.00
01176            1020.00     1360.00
01177             400.00     1440.00
01178           -1360.00     1360.00
01179           -2020.00     1280.00
01180               0.00     1760.00
01181            1380.00     2000.00
01182            -240.00     1760.00
01183            -260.00     1760.00
01184             960.00     1920.00
01185            -140.00     2560.00
01186            -720.00     2240.00
01187             200.00     1840.00
01188             160.00     2880.00
01189              20.00     2880.00
01190            -100.00     2000.00
01191            -320.00     2880.00
01192             180.00     3360.00
01193            -180.00     2400.00
01194            -420.00     2960.00
01195             480.00     3600.00
01196            -100.00     3040.00
01197            -640.00     3200.00
01198             340.00     3440.00
01199               0.00     3520.00
01200            -420.00     3680.00
01201              60.00     3360.00
01202             -60.00     3920.00
01203            -140.00     4000.00
01204            -180.00     3520.00
01205            -200.00     4240.00
01206               0.00     4240.00
01207            -180.00     3840.00
01208            -140.00     4320.00
01209             -60.00     4320.00
01210            -260.00     4320.00
01211            -160.00     4480.00
01212            -140.00     4480.00
01213            -140.00     4720.00
01214            -200.00     4560.00
01215            -220.00     4800.00
01216            -160.00     4960.00
01217            -240.00     4720.00
01218            -160.00     5040.00
01219            -100.00     5040.00
01220            -300.00     5040.00
01221            -260.00     5120.00
01222            -240.00     5120.00
01223            -260.00     5280.00
01224            -240.00     5200.00
01225            -260.00     5360.00
01226            -300.00     5440.00
01227            -320.00     5280.00
01228            -260.00     5520.00
01229            -240.00     5520.00
01230            -340.00     5440.00
01231            -320.00     5520.00
01232            -300.00     5600.00
01233            -380.00     5600.00
01234            -400.00     5600.00
01235            -340.00     5760.00
01236            -380.00     5760.00
01237            -400.00     5600.00
01238            -380.00     5760.00
01239            -400.00     5840.00
01240            -480.00     5760.00
01241            -480.00     5760.00
01242            -420.00     5840.00
01243            -480.00     5840.00
01244            -540.00     5760.00
01245            -500.00     5840.00
01246            -520.00     5920.00
01247            -580.00     5840.00
01248            -560.00     5840.00
01249            -560.00     5920.00
01250            -620.00     5840.00
01251            -640.00     5840.00
01252            -640.00     5920.00
01253            -660.00     5840.00
01254            -740.00     5840.00
01255            -740.00     5760.00
01256            -720.00     5840.00
01257            -740.00     5840.00
01258            -780.00     5760.00
01259            -780.00     5760.00
01260            -800.00     5760.00
01261            -820.00     5680.00
01262            -820.00     5760.00
01263            -800.00     5600.00
01264            -820.00     5680.00
01265            -860.00     5600.00
01266            -860.00     5600.00
01267            -880.00     5520.00
01268            -860.00     5440.00
01269            -840.00     5440.00
01270            -820.00     5440.00
01271            -860.00     5280.00
01272            -820.00     5360.00
01273            -820.00     5280.00
01274            -860.00     5200.00
01275            -800.00     5200.00
01276            -800.00     5120.00
01277            -780.00     5120.00
01278            -760.00     4960.00
01279            -780.00     4960.00
01280            -740.00     4880.00
01281            -740.00     4800.00
01282            -700.00     4800.00
01283            -660.00     4720.00
01284            -640.00     4640.00
01285            -640.00     4560.00
01286            -620.00     4480.00
01287            -600.00     4400.00
01288            -560.00     4320.00
01289            -540.00     4320.00
01290            -520.00     4160.00
01291            -500.00     4160.00
01292            -500.00     4000.00
01293            -460.00     4000.00
01294            -420.00     3840.00
01295            -420.00     3840.00
01296            -420.00     3680.00
01297            -400.00     3600.00
01298            -380.00     3520.00
01299            -380.00     3440.00
01300            -340.00     3360.00
01301            -340.00     3280.00
01302            -320.00     3200.00
01303            -280.00     3120.00
01304            -260.00     3040.00
01305            -280.00     2880.00
01306            -260.00     2800.00
01307            -260.00     2720.00
01308            -240.00     2640.00
01309            -220.00     2560.00
01310            -220.00     2400.00
01311            -180.00     2320.00
01312            -200.00     2240.00
01313            -180.00     2160.00
01314            -180.00     2000.00
01315            -180.00     1920.00
01316            -160.00     1760.00
01317            -140.00     1680.00
01318            -160.00     1600.00
01319            -160.00     1440.00
01320            -140.00     1360.00
01321            -120.00     1280.00
01322            -100.00     1200.00
01323            -100.00     1120.00
01324            -100.00      960.00
01325            -100.00      880.00
01326            -100.00      800.00
01327            -100.00      720.00
01328             -80.00      480.00
01329             -80.00      400.00
01330             -60.00      400.00
01331             -60.00      240.00
01332             -40.00       80.00
01333             -60.00        0.00
01334             -20.00     -160.00
01335               0.00     -240.00
01336              60.00     -320.00
01337              60.00     -320.00
01338              20.00     -480.00
01339               0.00     -560.00
01340               0.00     -640.00
01341               0.00     -800.00
01342             160.00     -880.00
01343             700.00    -1120.00
01344             820.00    -1280.00
01345              60.00    -1360.00
01346           -1380.00    -1440.00
01347           -1600.00    -1200.00
01348             240.00    -1600.00
01349             960.00    -1760.00
01350            -260.00    -1440.00
01351              80.00    -2080.00
01352             720.00    -2240.00
01353             -60.00    -1520.00
01354             -80.00    -2240.00
01355              80.00    -2720.00
01356            -100.00    -2080.00
01357             380.00    -2160.00
01358             140.00    -2880.00
01359            -360.00    -2560.00
01360             180.00    -2400.00
01361              60.00    -2960.00
01362            -100.00    -3040.00
01363             420.00    -2880.00
01364              60.00    -3040.00
01365            -240.00    -3360.00
01366             320.00    -3360.00
01367             300.00    -3120.00
01368            -140.00    -3600.00
01369              80.00    -3760.00
01370             300.00    -3360.00
01371             120.00    -3760.00
01372             -20.00    -4000.00
01373             160.00    -3840.00
01374             220.00    -3760.00
01375             100.00    -4160.00
01376             160.00    -4240.00
01377             180.00    -4000.00
01378             120.00    -4320.00
01379             140.00    -4480.00
01380             260.00    -4320.00
01381             180.00    -4480.00
01382              60.00    -4640.00
01383             180.00    -4560.00
01384             260.00    -4640.00
01385             140.00    -4800.00
01386             220.00    -4800.00
01387             300.00    -4720.00
01388             180.00    -4960.00
01389             180.00    -5040.00
01390             260.00    -4960.00
01391             260.00    -5040.00
01392             220.00    -5120.00
01393             300.00    -5120.00
01394             280.00    -5120.00
01395             220.00    -5280.00
01396             300.00    -5360.00
01397             380.00    -5280.00
01398             300.00    -5360.00
01399             300.00    -5440.00
01400             380.00    -5360.00
01401             340.00    -5440.00
01402             320.00    -5600.00
01403             380.00    -5440.00
01404             400.00    -5440.00
01405             340.00    -5600.00
01406             400.00    -5680.00
01407             460.00    -5520.00
01408             420.00    -5600.00
01409             420.00    -5680.00
01410             540.00    -5600.00
01411             500.00    -5600.00
01412             480.00    -5680.00
01413             540.00    -5680.00
01414             560.00    -5680.00
01415             540.00    -5680.00
01416             580.00    -5680.00
01417             640.00    -5600.00
01418             640.00    -5680.00
01419             640.00    -5680.00
01420             700.00    -5680.00
01421             700.00    -5680.00
01422             700.00    -5680.00
01423             740.00    -5600.00
01424             800.00    -5600.00
01425             760.00    -5520.00
01426             780.00    -5600.00
01427             780.00    -5520.00
01428             800.00    -5520.00
01429             800.00    -5520.00
01430             860.00    -5440.00
01431             860.00    -5440.00
01432             820.00    -5440.00
01433             820.00    -5440.00
01434             860.00    -5360.00
01435             820.00    -5360.00
01436             840.00    -5280.00
01437             860.00    -5200.00
01438             860.00    -5120.00
01439             800.00    -5120.00
01440             800.00    -5120.00
01441             800.00    -5040.00
01442             800.00    -5040.00
01443             800.00    -4960.00
01444             800.00    -4880.00
01445             780.00    -4800.00
01446             740.00    -4720.00
01447             720.00    -4720.00
01448             660.00    -4640.00
01449             660.00    -4640.00
01450             660.00    -4480.00
01451             680.00    -4480.00
01452             640.00    -4480.00
01453             620.00    -4400.00
01454             580.00    -4320.00
01455             540.00    -4160.00
01456             540.00    -4160.00
01457             540.00    -4080.00
01458             540.00    -4000.00
01459             480.00    -3840.00
01460             460.00    -3840.00
01461             420.00    -3760.00
01462             420.00    -3680.00
01463             400.00    -3520.00
01464             400.00    -3440.00
01465             340.00    -3440.00
01466             360.00    -3360.00
01467             320.00    -3200.00
01468             320.00    -3120.00
01469             300.00    -3040.00
01470             300.00    -2960.00
01471             300.00    -2880.00
01472             260.00    -2720.00
01473             240.00    -2720.00
01474             240.00    -2560.00
01475             220.00    -2480.00
01476             220.00    -2400.00
01477             220.00    -2240.00
01478             220.00    -2160.00
01479             200.00    -2080.00
01480             180.00    -1920.00
01481             160.00    -1920.00
01482             160.00    -1760.00
01483             140.00    -1760.00
01484             140.00    -1520.00
01485             140.00    -1440.00
01486             140.00    -1440.00
01487             140.00    -1280.00
01488             140.00    -1120.00
01489             120.00    -1040.00
01490             100.00     -960.00
01491             120.00     -800.00
01492             100.00     -720.00
01493              80.00     -640.00
01494              80.00     -560.00
01495              80.00     -320.00
01496              60.00     -240.00
01497              80.00     -160.00
01498             100.00      -80.00
01499              80.00        0.00
01500              60.00       80.00
01501              60.00      240.00
01502              80.00      320.00
01503             140.00      480.00
01504             140.00      560.00
01505             140.00      640.00
01506              80.00      720.00
01507              60.00      800.00
01508              60.00      960.00
01509             240.00     1040.00
01510             900.00     1280.00
01511             880.00     1360.00
01512            -340.00     1440.00
01513           -2060.00     1120.00
01514           -1280.00     1600.00
01515            1120.00     2000.00
01516             640.00     1920.00
01517            -560.00     1760.00
01518             420.00     1680.00
01519             700.00     2240.00
01520            -660.00     2640.00
01521            -340.00     1840.00
01522             380.00     2240.00
01523              20.00     3040.00
01524             -20.00     2320.00
01525            -260.00     2240.00
01526            -120.00     3440.00
01527             180.00     2960.00
01528            -500.00     2400.00
01529               0.00     3360.00
01530             480.00     3280.00
01531            -580.00     3040.00
01532            -180.00     3440.00
01533             400.00     3360.00
01534            -380.00     3680.00
01535            -200.00     3520.00
01536              60.00     3520.00
01537            -120.00     4160.00
01538            -140.00     3680.00
01539            -260.00     3760.00
01540             -80.00     4480.00
01541             -60.00     4000.00
01542            -240.00     4000.00
01543             -20.00     4480.00
01544            -140.00     4320.00
01545            -240.00     4480.00
01546            -100.00     4400.00
01547            -160.00     4640.00
01548            -160.00     4720.00
01549            -240.00     4560.00
01550            -160.00     4960.00
01551            -160.00     4800.00
01552            -220.00     4800.00
01553            -100.00     5040.00
01554            -220.00     4960.00
01555            -320.00     5120.00
01556            -220.00     5120.00
01557            -240.00     5200.00
01558            -240.00     5200.00
01559            -220.00     5200.00
01560            -260.00     5440.00
01561            -320.00     5280.00
01562            -320.00     5280.00
01563            -220.00     5520.00
01564            -260.00     5520.00
01565            -340.00     5520.00
01566            -300.00     5600.00
01567            -340.00     5600.00
01568            -400.00     5600.00
01569            -380.00     5600.00
01570            -360.00     5760.00
01571            -380.00     5760.00
01572            -380.00     5680.00
01573            -380.00     5840.00
01574            -420.00     5760.00
01575            -500.00     5760.00
01576            -460.00     5840.00
01577            -460.00     5920.00
01578            -500.00     5840.00
01579            -540.00     5760.00
01580            -500.00     5920.00
01581            -560.00     5920.00
01582            -600.00     5840.00
01583            -580.00     5920.00
01584            -580.00     5920.00
01585            -640.00     5920.00
01586            -640.00     5840.00
01587            -660.00     5920.00
01588            -720.00     5760.00
01589            -740.00     5760.00
01590            -720.00     5840.00
01591            -740.00     5840.00
01592            -780.00     5760.00
01593            -780.00     5760.00
01594            -800.00     5760.00
01595            -820.00     5760.00
01596            -820.00     5680.00
01597            -800.00     5600.00
01598            -860.00     5600.00
01599            -860.00     5600.00
01600            -820.00     5600.00
01601            -860.00     5600.00
01602            -880.00     5520.00
01603            -880.00     5520.00
01604            -820.00     5440.00
01605            -820.00     5440.00
01606            -860.00     5440.00
01607            -860.00     5360.00
01608            -840.00     5280.00
01609            -820.00     5200.00
01610            -800.00     5120.00
01611            -780.00     5120.00
01612            -780.00     5040.00
01613            -780.00     5040.00
01614            -740.00     4960.00
01615            -720.00     4880.00
01616            -700.00     4800.00
01617            -680.00     4800.00
01618            -640.00     4640.00
01619            -640.00     4640.00
01620            -620.00     4560.00
01621            -620.00     4480.00
01622            -600.00     4400.00
01623            -540.00     4320.00
01624            -500.00     4240.00
01625            -500.00     4160.00
01626            -480.00     4000.00
01627            -480.00     4000.00
01628            -460.00     3920.00
01629            -420.00     3840.00
01630            -400.00     3760.00
01631            -400.00     3680.00
01632            -400.00     3600.00
01633            -360.00     3440.00
01634            -360.00     3440.00
01635            -340.00     3280.00
01636            -320.00     3200.00
01637            -280.00     3200.00
01638            -280.00     3040.00
01639            -280.00     2960.00
01640            -260.00     2800.00
01641            -260.00     2720.00
01642            -240.00     2640.00
01643            -220.00     2560.00
01644            -240.00     2400.00
01645            -220.00     2400.00
01646            -200.00     2240.00
01647            -180.00     2160.00
01648            -180.00     2080.00
01649            -180.00     2000.00
01650            -180.00     1920.00
01651            -160.00     1760.00
01652            -160.00     1600.00
01653            -160.00     1520.00
01654            -140.00     1440.00
01655            -140.00     1280.00
01656            -100.00     1280.00
01657            -100.00     1120.00
01658            -100.00     1040.00
01659            -120.00      960.00
01660            -100.00      800.00
01661            -100.00      720.00
01662            -100.00      640.00
01663            -100.00      480.00
01664             -80.00      400.00
01665             -60.00      320.00
01666             -60.00      160.00
01667             -80.00       80.00
01668             -60.00        0.00
01669             -20.00     -160.00
01670              40.00     -240.00
01671              60.00     -320.00
01672              20.00     -480.00
01673              20.00     -560.00
01674               0.00     -640.00
01675               0.00     -720.00
01676              60.00     -800.00
01677             400.00     -960.00
01678             860.00    -1200.00
01679             580.00    -1280.00
01680            -620.00    -1440.00
01681           -1820.00    -1280.00
01682            -800.00    -1280.00
01683             980.00    -1840.00
01684             320.00    -1600.00
01685            -260.00    -1600.00
01686             540.00    -2400.00
01687             400.00    -1840.00
01688            -160.00    -1760.00
01689              40.00    -2640.00
01690             -60.00    -2480.00
01691             160.00    -1920.00
01692             380.00    -2640.00
01693            -220.00    -2960.00
01694            -160.00    -2400.00
01695             240.00    -2720.00
01696            -100.00    -3040.00
01697             160.00    -2960.00
01698             380.00    -2880.00
01699            -260.00    -3200.00
01700              40.00    -3520.00
01701             420.00    -3200.00
01702              60.00    -3280.00
01703            -100.00    -3760.00
01704             220.00    -3600.00
01705             220.00    -3360.00
01706               0.00    -3920.00
01707              20.00    -3920.00
01708             220.00    -3760.00
01709             160.00    -4000.00
01710             100.00    -4320.00
01711             200.00    -4000.00
01712             160.00    -4160.00
01713             100.00    -4480.00
01714             200.00    -4400.00
01715             260.00    -4320.00
01716              80.00    -4640.00
01717              80.00    -4640.00
01718             280.00    -4480.00
01719             220.00    -4720.00
01720             160.00    -4880.00
01721             280.00    -4800.00
01722             260.00    -4800.00
01723             160.00    -5040.00
01724             220.00    -4960.00
01725             260.00    -4960.00
01726             220.00    -5120.00
01727             240.00    -5200.00
01728             300.00    -5120.00
01729             240.00    -5120.00
01730             220.00    -5280.00
01731             340.00    -5280.00
01732             340.00    -5280.00
01733             300.00    -5440.00
01734             320.00    -5360.00
01735             340.00    -5440.00
01736             300.00    -5440.00
01737             340.00    -5600.00
01738             420.00    -5440.00
01739             400.00    -5520.00
01740             380.00    -5600.00
01741             460.00    -5600.00
01742             420.00    -5520.00
01743             400.00    -5600.00
01744             480.00    -5680.00
01745             540.00    -5600.00
01746             500.00    -5680.00
01747             500.00    -5680.00
01748             560.00    -5680.00
01749             560.00    -5680.00
01750             540.00    -5680.00
01751             620.00    -5680.00
01752             640.00    -5600.00
01753             640.00    -5680.00
01754             660.00    -5680.00
01755             700.00    -5600.00
01756             700.00    -5520.00
01757             700.00    -5600.00
01758             780.00    -5600.00
01759             780.00    -5600.00
01760             760.00    -5600.00
01761             780.00    -5520.00
01762             800.00    -5520.00
01763             800.00    -5520.00
01764             800.00    -5440.00
01765             840.00    -5440.00
01766             860.00    -5440.00
01767             820.00    -5360.00
01768             860.00    -5360.00
01769             820.00    -5360.00
01770             820.00    -5280.00
01771             820.00    -5280.00
01772             860.00    -5200.00
01773             860.00    -5120.00
01774             820.00    -5120.00
01775             800.00    -5040.00
01776             780.00    -5040.00
01777             800.00    -5040.00
01778             800.00    -4960.00
01779             780.00    -4960.00
01780             760.00    -4800.00
01781             740.00    -4800.00
01782             700.00    -4720.00
01783             700.00    -4640.00
01784             660.00    -4560.00
01785             660.00    -4480.00
01786             640.00    -4480.00
01787             620.00    -4400.00
01788             580.00    -4320.00
01789             560.00    -4160.00
01790             540.00    -4160.00
01791             540.00    -4080.00
01792             540.00    -4000.00
01793             500.00    -3920.00
01794             480.00    -3840.00
01795             460.00    -3760.00
01796             420.00    -3680.00
01797             400.00    -3680.00
01798             400.00    -3520.00
01799             400.00    -3440.00
01800             380.00    -3360.00
01801             320.00    -3360.00
01802             320.00    -3120.00
01803             300.00    -3120.00
01804             300.00    -2960.00
01805             300.00    -2960.00
01806             300.00    -2800.00
01807             260.00    -2720.00
01808             260.00    -2640.00
01809             240.00    -2560.00
01810             220.00    -2400.00
01811             220.00    -2320.00
01812             220.00    -2240.00
01813             220.00    -2080.00
01814             200.00    -2000.00
01815             180.00    -1920.00
01816             160.00    -1840.00
01817             160.00    -1680.00
01818             160.00    -1600.00
01819             160.00    -1520.00
01820             140.00    -1440.00
01821             140.00    -1280.00
01822             100.00    -1200.00
01823             120.00    -1120.00
01824             140.00    -1040.00
01825             140.00     -880.00
01826             100.00     -720.00
01827              80.00     -640.00
01828              80.00     -560.00
01829              80.00     -400.00
01830              80.00     -320.00
01831              60.00     -240.00
01832              80.00      -80.00
01833              60.00        0.00
01834              60.00       80.00
01835              60.00      160.00
01836              60.00      320.00
01837             100.00      400.00
01838             140.00      480.00
01839             140.00      560.00
01840              80.00      720.00
01841              60.00      720.00
01842              20.00      800.00
01843              80.00      960.00
01844             560.00     1120.00
01845            1040.00     1360.00
01846             420.00     1440.00
01847           -1300.00     1360.00
01848           -2080.00     1280.00
01849            -100.00     1760.00
01850            1380.00     2000.00
01851            -240.00     1760.00
01852            -280.00     1760.00
01853             960.00     1840.00
01854            -100.00     2640.00
01855            -720.00     2320.00
01856             180.00     1760.00
01857             180.00     2800.00
01858              20.00     2880.00
01859            -140.00     2000.00
01860            -320.00     2880.00
01861             180.00     3360.00
01862            -160.00     2400.00
01863            -440.00     2880.00
01864             480.00     3520.00
01865             -20.00     3040.00
01866            -640.00     3200.00
01867             320.00     3520.00
01868              60.00     3520.00
01869            -420.00     3680.00
01870              60.00     3360.00
01871             -60.00     3920.00
01872            -140.00     4000.00
01873            -180.00     3520.00
01874            -220.00     4240.00
01875              20.00     4320.00
01876            -180.00     3840.00
01877            -140.00     4320.00
01878             -20.00     4400.00
01879            -260.00     4320.00
01880            -160.00     4480.00
01881            -100.00     4560.00
01882            -160.00     4800.00
01883            -200.00     4480.00
01884            -240.00     4800.00
01885            -140.00     4960.00
01886            -240.00     4640.00
01887            -160.00     4960.00
01888            -100.00     5040.00
01889            -300.00     4960.00
01890            -260.00     5120.00
01891            -220.00     5120.00
01892            -240.00     5280.00
01893            -240.00     5200.00
01894            -240.00     5280.00
01895            -300.00     5440.00
01896            -340.00     5280.00
01897            -260.00     5440.00
01898            -240.00     5600.00
01899            -320.00     5440.00
01900            -320.00     5600.00
01901            -300.00     5600.00
01902            -380.00     5600.00
01903            -400.00     5600.00
01904            -360.00     5760.00
01905            -380.00     5760.00
01906            -400.00     5760.00
01907            -380.00     5760.00
01908            -420.00     5840.00
01909            -480.00     5760.00
01910            -480.00     5760.00
01911            -420.00     5920.00
01912            -480.00     5920.00
01913            -540.00     5840.00
01914            -500.00     5840.00
01915            -540.00     5840.00
01916            -580.00     5840.00
01917            -580.00     5920.00
01918            -560.00     5920.00
01919            -640.00     5840.00
01920            -660.00     5840.00
01921            -640.00     5920.00
01922            -660.00     5840.00
01923            -740.00     5840.00
01924            -740.00     5840.00
01925            -720.00     5840.00
01926            -740.00     5840.00
01927            -800.00     5760.00
01928            -780.00     5840.00
01929            -800.00     5760.00
01930            -820.00     5760.00
01931            -800.00     5600.00
01932            -820.00     5600.00
01933            -840.00     5600.00
01934            -840.00     5600.00
01935            -820.00     5600.00
01936            -880.00     5600.00
01937            -860.00     5440.00
01938            -820.00     5440.00
01939            -820.00     5440.00
01940            -840.00     5360.00
01941            -820.00     5280.00
01942            -820.00     5280.00
01943            -820.00     5200.00
01944            -800.00     5200.00
01945            -780.00     5120.00
01946            -780.00     5040.00
01947            -780.00     4960.00
01948            -740.00     4960.00
01949            -740.00     4880.00
01950            -720.00     4800.00
01951            -700.00     4800.00
01952            -660.00     4720.00
01953            -640.00     4640.00
01954            -640.00     4560.00
01955            -620.00     4480.00
01956            -600.00     4400.00
01957            -560.00     4320.00
01958            -540.00     4240.00
01959            -500.00     4160.00
01960            -500.00     4160.00
01961            -480.00     4080.00
01962            -480.00     3920.00
01963            -460.00     3840.00
01964            -420.00     3840.00
01965            -400.00     3680.00
01966            -400.00     3600.00
01967            -380.00     3440.00
01968            -380.00     3440.00
01969            -340.00     3360.00
01970            -340.00     3280.00
01971            -320.00     3200.00
01972            -300.00     3120.00
01973            -300.00     2960.00
01974            -300.00     2880.00
01975            -260.00     2800.00
01976            -260.00     2720.00
01977            -240.00     2560.00
01978            -220.00     2560.00
01979            -220.00     2400.00
01980            -220.00     2320.00
01981            -200.00     2160.00
01982            -220.00     2080.00
01983            -180.00     2000.00
01984            -180.00     1920.00
01985            -160.00     1760.00
01986            -140.00     1680.00
01987            -160.00     1600.00
01988            -140.00     1520.00
01989            -160.00     1360.00
01990            -140.00     1280.00
01991            -100.00     1200.00
01992            -100.00     1040.00
01993            -100.00      960.00
01994            -100.00      800.00
01995            -100.00      800.00
01996            -100.00      640.00
01997             -80.00      480.00
01998             -80.00      480.00
01999             -40.00      320.00
02000             -40.00      240.00
02001             -20.00      160.00
02002             -60.00        0.00
02003             -40.00     -160.00
02004               0.00     -160.00
02005              60.00     -320.00
02006              60.00     -320.00
02007              20.00     -480.00
02008               0.00     -560.00
02009               0.00     -640.00
02010               0.00     -720.00
02011             160.00     -880.00
02012             680.00     -960.00
02013             840.00    -1280.00
02014             100.00    -1280.00
02015           -1340.00    -1440.00
02016           -1620.00    -1200.00
02017             160.00    -1520.00
02018             980.00    -1840.00
02019            -240.00    -1280.00
02020              40.00    -2080.00
02021             720.00    -2240.00
02022             -20.00    -1520.00
02023             -60.00    -2160.00
02024              80.00    -2720.00
02025            -100.00    -2080.00
02026             380.00    -2160.00
02027             160.00    -2880.00
02028            -380.00    -2720.00
02029             160.00    -2480.00
02030              80.00    -2960.00
02031            -100.00    -3040.00
02032             400.00    -2880.00
02033              60.00    -2880.00
02034            -260.00    -3360.00
02035             320.00    -3360.00
02036             300.00    -3040.00
02037            -140.00    -3600.00
02038              80.00    -3760.00
02039             300.00    -3360.00
02040             120.00    -3680.00
02041             -60.00    -4000.00
02042             140.00    -3840.00
02043             220.00    -3760.00
02044             100.00    -4160.00
02045             180.00    -4160.00
02046             220.00    -4080.00
02047             140.00    -4320.00
02048             140.00    -4480.00
02049             240.00    -4320.00
02050             180.00    -4480.00
02051              60.00    -4720.00
02052             180.00    -4480.00
02053             260.00    -4560.00
02054             140.00    -4800.00
02055             220.00    -4880.00
02056             320.00    -4720.00
02057             220.00    -4960.00
02058             180.00    -5040.00
02059             260.00    -4960.00
02060             260.00    -5040.00
02061             220.00    -5280.00
02062             240.00    -5120.00
02063             240.00    -5120.00
02064             180.00    -5280.00
02065             320.00    -5280.00
02066             400.00    -5280.00
02067             380.00    -5360.00
02068             320.00    -5360.00
02069             340.00    -5360.00
02070             320.00    -5360.00
02071             320.00    -5600.00
02072             380.00    -5520.00
02073             420.00    -5440.00
02074             400.00    -5520.00
02075             420.00    -5680.00
02076             480.00    -5600.00
02077             420.00    -5520.00
02078             420.00    -5680.00
02079             520.00    -5520.00
02080             520.00    -5600.00
02081             480.00    -5680.00
02082             540.00    -5680.00
02083             560.00    -5600.00
02084             540.00    -5680.00
02085             540.00    -5680.00
02086             640.00    -5600.00
02087             640.00    -5680.00
02088             660.00    -5680.00
02089             720.00    -5680.00
02090             700.00    -5680.00
02091             660.00    -5600.00
02092             700.00    -5520.00
02093             780.00    -5520.00
02094             800.00    -5520.00
02095             800.00    -5600.00
02096             800.00    -5520.00
02097             800.00    -5520.00
02098             780.00    -5520.00
02099             820.00    -5440.00
02100             860.00    -5440.00
02101             860.00    -5440.00
02102             860.00    -5360.00
02103             860.00    -5360.00
02104             800.00    -5360.00
02105             820.00    -5280.00
02106             860.00    -5200.00
02107             860.00    -5200.00
02108             820.00    -5120.00
02109             800.00    -5120.00
02110             800.00    -5040.00
02111             800.00    -5040.00
02112             800.00    -4960.00
02113             800.00    -4880.00
02114             780.00    -4800.00
02115             720.00    -4800.00
02116             720.00    -4720.00
02117             700.00    -4640.00
02118             680.00    -4560.00
02119             680.00    -4480.00
02120             640.00    -4480.00
02121             640.00    -4480.00
02122             620.00    -4320.00
02123             580.00    -4320.00
02124             540.00    -4160.00
02125             540.00    -4080.00
02126             540.00    -4080.00
02127             500.00    -3920.00
02128             480.00    -3840.00
02129             480.00    -3760.00
02130             440.00    -3760.00
02131             420.00    -3680.00
02132             400.00    -3600.00
02133             400.00    -3520.00
02134             380.00    -3360.00
02135             360.00    -3360.00
02136             320.00    -3280.00
02137             320.00    -3120.00
02138             300.00    -3040.00
02139             300.00    -2880.00
02140             320.00    -2880.00
02141             260.00    -2720.00
02142             260.00    -2720.00
02143             220.00    -2560.00
02144             220.00    -2480.00
02145             220.00    -2400.00
02146             220.00    -2320.00
02147             220.00    -2160.00
02148             180.00    -2080.00
02149             180.00    -1920.00
02150             160.00    -1840.00
02151             160.00    -1840.00
02152             180.00    -1600.00
02153             160.00    -1520.00
02154             160.00    -1440.00
02155             140.00    -1360.00
02156             140.00    -1200.00
02157             100.00    -1120.00
02158             140.00     -960.00
02159             100.00     -960.00
02160             100.00     -800.00
02161              80.00     -720.00
02162              80.00     -560.00
02163              80.00     -480.00
02164              80.00     -320.00
02165              80.00     -320.00
02166              60.00     -160.00
02167              80.00      -80.00
02168              40.00        0.00
02169              60.00      160.00
02170              60.00      240.00
02171              80.00      400.00
02172             140.00      480.00
02173             160.00      480.00
02174             100.00      640.00
02175              60.00      720.00
02176              60.00      800.00
02177              60.00      880.00
02178             220.00     1040.00
02179             880.00     1280.00
02180             880.00     1360.00
02181            -300.00     1440.00
02182           -2060.00     1200.00
02183           -1360.00     1520.00
02184            1040.00     1920.00
02185             720.00     1920.00
02186            -560.00     1760.00
02187             400.00     1680.00
02188             740.00     2240.00
02189            -660.00     2640.00
02190            -400.00     1920.00
02191             340.00     2240.00
02192              40.00     3120.00
02193             -20.00     2320.00
02194            -240.00     2160.00
02195            -140.00     3360.00
02196             180.00     2960.00
02197            -480.00     2400.00
02198             -20.00     3360.00
02199             500.00     3280.00
02200            -560.00     2960.00
02201            -220.00     3440.00
02202             400.00     3440.00
02203            -340.00     3680.00
02204            -240.00     3520.00
02205              80.00     3520.00
02206            -120.00     4160.00
02207            -100.00     3680.00
02208            -240.00     3680.00
02209             -60.00     4480.00
02210             -60.00     4000.00
02211            -220.00     4000.00
02212             -40.00     4480.00
02213            -160.00     4320.00
02214            -260.00     4400.00
02215            -120.00     4480.00
02216            -140.00     4720.00
02217            -160.00     4640.00
02218            -240.00     4560.00
02219            -160.00     4960.00
02220            -180.00     4800.00
02221            -240.00     4800.00
02222            -100.00     5120.00
02223            -220.00     4960.00
02224            -320.00     5040.00
02225            -240.00     5120.00
02226            -240.00     5200.00
02227            -240.00     5280.00
02228            -240.00     5200.00
02229            -260.00     5440.00
02230            -320.00     5280.00
02231            -320.00     5280.00
02232            -240.00     5520.00
02233            -300.00     5440.00
02234            -340.00     5520.00
02235            -320.00     5600.00
02236            -340.00     5600.00
02237            -420.00     5600.00
02238            -380.00     5600.00
02239            -340.00     5680.00
02240            -400.00     5760.00
02241            -400.00     5760.00
02242            -380.00     5840.00
02243            -460.00     5760.00
02244            -500.00     5760.00
02245            -440.00     5840.00
02246            -420.00     5840.00
02247            -500.00     5840.00
02248            -520.00     5840.00
02249            -500.00     5920.00
02250            -560.00     5840.00
02251            -620.00     5840.00
02252            -560.00     5840.00
02253            -580.00     5920.00
02254            -640.00     5840.00
02255            -640.00     5840.00
02256            -640.00     5840.00
02257            -720.00     5760.00
02258            -740.00     5760.00
02259            -720.00     5840.00
02260            -740.00     5840.00
02261            -740.00     5760.00
02262            -800.00     5760.00
02263            -780.00     5760.00
02264            -800.00     5760.00
02265            -820.00     5680.00
02266            -800.00     5600.00
02267            -820.00     5600.00
02268            -840.00     5600.00
02269            -820.00     5600.00
02270            -840.00     5520.00
02271            -880.00     5520.00
02272            -860.00     5440.00
02273            -820.00     5440.00
02274            -820.00     5360.00
02275            -820.00     5360.00
02276            -820.00     5280.00
02277            -820.00     5200.00
02278            -820.00     5200.00
02279            -780.00     5200.00
02280            -800.00     5120.00
02281            -780.00     4960.00
02282            -740.00     4960.00
02283            -740.00     4880.00
02284            -720.00     4880.00
02285            -700.00     4800.00
02286            -680.00     4720.00
02287            -640.00     4640.00
02288            -640.00     4560.00
02289            -640.00     4560.00
02290            -620.00     4480.00
02291            -580.00     4320.00
02292            -560.00     4320.00
02293            -500.00     4240.00
02294            -500.00     4160.00
02295            -500.00     4080.00
02296            -480.00     4000.00
02297            -480.00     3920.00
02298            -420.00     3840.00
02299            -420.00     3760.00
02300            -420.00     3680.00
02301            -400.00     3600.00
02302            -380.00     3520.00
02303            -340.00     3360.00
02304            -340.00     3280.00
02305            -340.00     3200.00
02306            -320.00     3200.00
02307            -300.00     3040.00
02308            -300.00     2960.00
02309            -300.00     2880.00
02310            -260.00     2800.00
02311            -260.00     2640.00
02312            -240.00     2560.00
02313            -220.00     2480.00
02314            -220.00     2400.00
02315            -180.00     2240.00
02316            -180.00     2160.00
02317            -220.00     2080.00
02318            -220.00     1920.00
02319            -180.00     1760.00
02320            -160.00     1760.00
02321            -160.00     1600.00
02322            -160.00     1520.00
02323            -120.00     1360.00
02324            -120.00     1360.00
02325            -100.00     1280.00
02326            -100.00     1120.00
02327            -100.00     1040.00
02328            -100.00      880.00
02329            -100.00      800.00
02330            -100.00      720.00
02331             -80.00      560.00
02332             -80.00      480.00
02333             -60.00      400.00
02334             -60.00      320.00
02335             -20.00      160.00
02336             -60.00        0.00
02337             -60.00        0.00
02338               0.00     -160.00
02339              60.00     -240.00
02340              60.00     -320.00
02341              20.00     -400.00
02342               0.00     -560.00
02343               0.00     -640.00
02344               0.00     -640.00
02345              20.00     -800.00
02346             380.00     -960.00
02347             880.00    -1200.00
02348             620.00    -1280.00
02349            -560.00    -1440.00
02350           -1780.00    -1280.00
02351            -900.00    -1280.00
02352             900.00    -1760.00
02353             380.00    -1600.00
02354            -260.00    -1520.00
02355             500.00    -2400.00
02356             420.00    -1920.00
02357            -160.00    -1600.00
02358              20.00    -2560.00
02359             -60.00    -2480.00
02360             120.00    -1920.00
02361             400.00    -2560.00
02362            -180.00    -2960.00
02363            -160.00    -2400.00
02364             220.00    -2720.00
02365            -140.00    -3040.00
02366             140.00    -3040.00
02367             380.00    -2880.00
02368            -240.00    -3120.00
02369               0.00    -3440.00
02370             440.00    -3200.00
02371              60.00    -3200.00
02372            -100.00    -3840.00
02373             200.00    -3600.00
02374             240.00    -3440.00
02375             -20.00    -3840.00
02376               0.00    -3920.00
02377             240.00    -3760.00
02378             180.00    -4000.00
02379             100.00    -4320.00
02380             180.00    -4080.00
02381             140.00    -4160.00
02382             100.00    -4480.00
02383             220.00    -4400.00
02384             260.00    -4320.00
02385             100.00    -4640.00
02386              80.00    -4640.00
02387             260.00    -4560.00
02388             220.00    -4720.00
02389             160.00    -4800.00
02390             300.00    -4800.00
02391             260.00    -4800.00
02392             160.00    -5040.00
02393             200.00    -4960.00
02394             300.00    -4960.00
02395             220.00    -5120.00
02396             220.00    -5120.00
02397             320.00    -5120.00
02398             280.00    -5200.00
02399             260.00    -5360.00
02400             340.00    -5280.00
02401             340.00    -5280.00
02402             300.00    -5440.00
02403             340.00    -5440.00
02404             380.00    -5440.00
02405             320.00    -5440.00
02406             300.00    -5440.00
02407             400.00    -5440.00
02408             480.00    -5600.00
02409             460.00    -5600.00
02410             440.00    -5600.00
02411             440.00    -5520.00
02412             400.00    -5600.00
02413             460.00    -5680.00
02414             520.00    -5520.00
02415             520.00    -5680.00
02416             540.00    -5680.00
02417             540.00    -5680.00
02418             540.00    -5600.00
02419             540.00    -5760.00
02420             640.00    -5680.00
02421             640.00    -5600.00
02422             640.00    -5680.00
02423             660.00    -5680.00
02424             700.00    -5600.00
02425             660.00    -5600.00
02426             720.00    -5680.00
02427             800.00    -5520.00
02428             780.00    -5600.00
02429             740.00    -5600.00
02430             780.00    -5600.00
02431             800.00    -5520.00
02432             800.00    -5520.00
02433             820.00    -5520.00
02434             860.00    -5440.00
02435             860.00    -5440.00
02436             820.00    -5440.00
02437             860.00    -5360.00
02438             800.00    -5360.00
02439             780.00    -5280.00
02440             820.00    -5280.00
02441             880.00    -5200.00
02442             860.00    -5200.00
02443             820.00    -5200.00
02444             800.00    -5040.00
02445             780.00    -5040.00
02446             780.00    -4960.00
02447             800.00    -4880.00
02448             800.00    -4880.00
02449             780.00    -4880.00
02450             740.00    -4800.00
02451             720.00    -4720.00
02452             660.00    -4640.00
02453             660.00    -4640.00
02454             660.00    -4480.00
02455             660.00    -4480.00
02456             640.00    -4480.00
02457             580.00    -4320.00
02458             540.00    -4160.00
02459             540.00    -4160.00
02460             540.00    -4080.00
02461             540.00    -4000.00
02462             500.00    -4000.00
02463             500.00    -3840.00
02464             460.00    -3840.00
02465             400.00    -3680.00
02466             400.00    -3600.00
02467             400.00    -3520.00
02468             380.00    -3440.00
02469             400.00    -3360.00
02470             380.00    -3200.00
02471             320.00    -3200.00
02472             300.00    -3120.00
02473             300.00    -2960.00
02474             300.00    -2880.00
02475             300.00    -2800.00
02476             260.00    -2720.00
02477             260.00    -2560.00
02478             220.00    -2480.00
02479             220.00    -2400.00
02480             220.00    -2400.00
02481             220.00    -2240.00
02482             220.00    -2080.00
02483             180.00    -2080.00
02484             180.00    -1920.00
02485             160.00    -1840.00
02486             160.00    -1760.00
02487             160.00    -1600.00
02488             160.00    -1520.00
02489             160.00    -1440.00
02490             140.00    -1280.00
02491             140.00    -1200.00
02492             100.00    -1120.00
02493             100.00     -960.00
02494             100.00     -880.00
02495              80.00     -720.00
02496              80.00     -720.00
02497              80.00     -560.00
02498              80.00     -400.00
02499              80.00     -320.00
02500              60.00     -240.00
02501              60.00     -160.00
02502              60.00        0.00
02503              60.00       80.00
02504              60.00      160.00
02505              80.00      320.00
02506             120.00      400.00
02507             140.00      480.00
02508             140.00      560.00
02509             100.00      720.00
02510              60.00      800.00
02511              40.00      800.00
02512              80.00      960.00
02513             540.00     1200.00
02514            1040.00     1360.00
02515             480.00     1440.00
02516           -1260.00     1360.00
02517           -2100.00     1200.00
02518            -220.00     1760.00
02519            1420.00     2000.00
02520            -160.00     1760.00
02521            -300.00     1760.00
02522             960.00     1840.00
02523             -40.00     2560.00
02524            -740.00     2320.00
02525             140.00     1760.00
02526             200.00     2720.00
02527              60.00     2960.00
02528            -100.00     2000.00
02529            -320.00     2720.00
02530             160.00     3520.00
02531            -120.00     2400.00
02532            -460.00     2880.00
02533             460.00     3520.00
02534              20.00     3040.00
02535            -640.00     3200.00
02536             300.00     3360.00
02537              80.00     3520.00
02538            -460.00     3680.00
02539              20.00     3360.00
02540             -20.00     3920.00
02541            -120.00     4080.00
02542            -160.00     3520.00
02543            -220.00     4160.00
02544               0.00     4320.00
02545            -160.00     3840.00
02546            -160.00     4320.00
02547             -40.00     4400.00
02548            -240.00     4320.00
02549            -180.00     4480.00
02550            -100.00     4480.00
02551            -120.00     4720.00
02552            -180.00     4560.00
02553            -240.00     4720.00
02554            -160.00     4960.00
02555            -240.00     4720.00
02556            -180.00     4960.00
02557            -100.00     5120.00
02558            -300.00     4960.00
02559            -260.00     5120.00
02560            -220.00     5200.00
02561            -260.00     5280.00
02562            -240.00     5200.00
02563            -240.00     5280.00
02564            -300.00     5440.00
02565            -340.00     5280.00
02566            -260.00     5440.00
02567            -260.00     5440.00
02568            -320.00     5520.00
02569            -320.00     5520.00
02570            -320.00     5600.00
02571            -380.00     5680.00
02572            -400.00     5600.00
02573            -340.00     5680.00
02574            -380.00     5760.00
02575            -400.00     5600.00
02576            -400.00     5760.00
02577            -400.00     5840.00
02578            -480.00     5760.00
02579            -480.00     5760.00
02580            -420.00     5840.00
02581            -480.00     5920.00
02582            -540.00     5760.00
02583            -500.00     5840.00
02584            -500.00     5920.00
02585            -580.00     5840.00
02586            -580.00     5920.00
02587            -580.00     5920.00
02588            -620.00     5840.00
02589            -640.00     5840.00
02590            -640.00     5840.00
02591            -660.00     5840.00
02592            -740.00     5840.00
02593            -740.00     5840.00
02594            -720.00     5840.00
02595            -740.00     5840.00
02596            -780.00     5760.00
02597            -760.00     5760.00
02598            -800.00     5760.00
02599            -820.00     5760.00
02600            -800.00     5680.00
02601            -820.00     5760.00
02602            -820.00     5680.00
02603            -820.00     5600.00
02604            -820.00     5600.00
02605            -860.00     5520.00
02606            -860.00     5440.00
02607            -820.00     5520.00
02608            -820.00     5360.00
02609            -820.00     5360.00
02610            -820.00     5360.00
02611            -820.00     5280.00
02612            -820.00     5200.00
02613            -800.00     5120.00
02614            -780.00     5120.00
02615            -780.00     5120.00
02616            -760.00     4960.00
02617            -740.00     4960.00
02618            -720.00     4880.00
02619            -720.00     4880.00
02620            -700.00     4720.00
02621            -660.00     4640.00
02622            -660.00     4720.00
02623            -640.00     4560.00
02624            -620.00     4480.00
02625            -620.00     4480.00
02626            -580.00     4320.00
02627            -540.00     4240.00
02628            -520.00     4240.00
02629            -500.00     4160.00
02630            -480.00     4000.00
02631            -480.00     3920.00
02632            -460.00     3920.00
02633            -420.00     3840.00
02634            -420.00     3680.00
02635            -400.00     3600.00
02636            -380.00     3520.00
02637            -340.00     3440.00
02638            -360.00     3360.00
02639            -340.00     3280.00
02640            -320.00     3200.00
02641            -300.00     3040.00
02642            -280.00     3040.00
02643            -300.00     2880.00
02644            -260.00     2720.00
02645            -260.00     2720.00
02646            -240.00     2640.00
02647            -240.00     2560.00
02648            -220.00     2400.00
02649            -180.00     2320.00
02650            -220.00     2240.00
02651            -220.00     2160.00
02652            -200.00     2080.00
02653            -160.00     1920.00
02654            -140.00     1760.00
02655            -120.00     1680.00
02656            -160.00     1600.00
02657            -160.00     1440.00
02658            -140.00     1360.00
02659            -100.00     1280.00
02660            -120.00     1200.00
02661            -100.00     1040.00
02662            -100.00      960.00
02663            -100.00      880.00
02664            -100.00      800.00
02665             -80.00      640.00
02666             -80.00      560.00
02667             -80.00      480.00
02668             -80.00      320.00
02669             -60.00      320.00
02670             -60.00      160.00
02671             -60.00        0.00
02672             -20.00      -80.00
02673              20.00     -160.00
02674              60.00     -320.00
02675              60.00     -320.00
02676              20.00     -480.00
02677              20.00     -560.00
02678               0.00     -560.00
02679               0.00     -800.00
02680             140.00     -800.00
02681             640.00     -960.00
02682             840.00    -1280.00
02683             120.00    -1280.00
02684           -1300.00    -1440.00
02685           -1660.00    -1200.00
02686             100.00    -1440.00
02687            1020.00    -1840.00
02688            -220.00    -1440.00
02689               0.00    -2000.00
02690             720.00    -2240.00
02691             -20.00    -1520.00
02692            -100.00    -2080.00
02693              60.00    -2720.00
02694            -100.00    -2080.00
02695             360.00    -2160.00
02696             180.00    -2880.00
02697            -380.00    -2720.00
02698             140.00    -2480.00
02699              80.00    -2960.00
02700            -100.00    -2960.00
02701             380.00    -2960.00
02702              60.00    -3040.00
02703            -260.00    -3360.00
02704             300.00    -3360.00
02705             320.00    -3120.00
02706            -120.00    -3600.00
02707              60.00    -3760.00
02708             240.00    -3440.00
02709              80.00    -3680.00
02710             -20.00    -4080.00
02711             160.00    -3840.00
02712             220.00    -3760.00
02713             120.00    -4160.00
02714             140.00    -4240.00
02715             180.00    -4000.00
02716              80.00    -4320.00
02717             100.00    -4480.00
02718             260.00    -4320.00
02719             220.00    -4400.00
02720              80.00    -4640.00
02721             180.00    -4480.00
02722             280.00    -4640.00
02723             160.00    -4800.00
02724             220.00    -4800.00
02725             300.00    -4800.00
02726             220.00    -4800.00
02727             180.00    -5040.00
02728             260.00    -4960.00
02729             300.00    -5040.00
02730             260.00    -5200.00
02731             300.00    -5120.00
02732             280.00    -5120.00
02733             220.00    -5280.00
02734             300.00    -5280.00
02735             380.00    -5280.00
02736             320.00    -5360.00
02737             300.00    -5440.00
02738             340.00    -5360.00
02739             320.00    -5360.00
02740             320.00    -5520.00
02741             400.00    -5440.00
02742             460.00    -5520.00
02743             380.00    -5600.00
02744             420.00    -5600.00
02745             480.00    -5440.00
02746             400.00    -5600.00
02747             420.00    -5680.00
02748             540.00    -5600.00
02749             540.00    -5600.00
02750             480.00    -5760.00
02751             540.00    -5680.00
02752             560.00    -5600.00
02753             540.00    -5760.00
02754             560.00    -5680.00
02755             640.00    -5680.00
02756             640.00    -5680.00
02757             640.00    -5760.00
02758             700.00    -5680.00
02759             700.00    -5520.00
02760             660.00    -5600.00
02761             720.00    -5680.00
02762             780.00    -5520.00
02763             780.00    -5600.00
02764             800.00    -5520.00
02765             800.00    -5520.00
02766             800.00    -5520.00
02767             800.00    -5520.00
02768             820.00    -5440.00
02769             860.00    -5440.00
02770             820.00    -5440.00
02771             860.00    -5440.00
02772             820.00    -5360.00
02773             820.00    -5280.00
02774             820.00    -5280.00
02775             860.00    -5200.00
02776             860.00    -5280.00
02777             820.00    -5200.00
02778             820.00    -5040.00
02779             800.00    -5120.00
02780             800.00    -5040.00
02781             800.00    -4960.00
02782             800.00    -4880.00
02783             780.00    -4800.00
02784             740.00    -4800.00
02785             720.00    -4800.00
02786             720.00    -4640.00
02787             700.00    -4640.00
02788             660.00    -4560.00
02789             660.00    -4480.00
02790             640.00    -4400.00
02791             620.00    -4400.00
02792             580.00    -4160.00
02793             560.00    -4160.00
02794             540.00    -4080.00
02795             540.00    -4000.00
02796             540.00    -4000.00
02797             480.00    -3840.00
02798             480.00    -3840.00
02799             440.00    -3760.00
02800             420.00    -3680.00
02801             400.00    -3600.00
02802             400.00    -3520.00
02803             380.00    -3360.00
02804             340.00    -3360.00
02805             340.00    -3200.00
02806             320.00    -3120.00
02807             300.00    -3040.00
02808             320.00    -2880.00
02809             300.00    -2880.00
02810             260.00    -2800.00
02811             260.00    -2720.00
02812             240.00    -2560.00
02813             220.00    -2480.00
02814             220.00    -2400.00
02815             220.00    -2240.00
02816             220.00    -2080.00
02817             180.00    -2080.00
02818             180.00    -1920.00
02819             160.00    -1840.00
02820             160.00    -1760.00
02821             140.00    -1760.00
02822             160.00    -1520.00
02823             140.00    -1440.00
02824             160.00    -1360.00
02825             120.00    -1280.00
02826             120.00    -1120.00
02827             100.00    -1040.00
02828             100.00     -960.00
02829             100.00     -800.00
02830             100.00     -800.00
02831              80.00     -560.00
02832              80.00     -480.00
02833              80.00     -400.00
02834              80.00     -240.00
02835              60.00     -160.00
02836              60.00        0.00
02837              60.00       80.00
02838              60.00       80.00
02839              60.00      240.00
02840             100.00      320.00
02841             140.00      480.00
02842             140.00      560.00
02843             100.00      640.00
02844              80.00      720.00
02845              60.00      800.00
02846              20.00      960.00
02847             220.00     1040.00
02848             860.00     1280.00
02849             900.00     1360.00
02850            -220.00     1440.00
02851           -2020.00     1280.00
02852           -1440.00     1440.00
02853             960.00     1920.00
02854             800.00     1920.00
02855            -560.00     1760.00
02856             320.00     1680.00
02857             780.00     2240.00
02858            -620.00     2640.00
02859            -420.00     1920.00
02860             380.00     2160.00
02861              60.00     3120.00
02862               0.00     2400.00
02863            -220.00     2160.00
02864            -160.00     3360.00
02865             220.00     3040.00
02866            -460.00     2400.00
02867             -60.00     3360.00
02868             500.00     3360.00
02869            -500.00     2960.00
02870            -240.00     3440.00
02871             400.00     3440.00
02872            -320.00     3680.00
02873            -240.00     3600.00
02874              80.00     3520.00
02875            -100.00     4160.00
02876            -100.00     3760.00
02877            -220.00     3680.00
02878             -80.00     4480.00
02879             -20.00     4000.00
02880            -240.00     4000.00
02881             -40.00     4480.00
02882            -160.00     4320.00
02883            -260.00     4480.00
02884            -140.00     4480.00
02885            -140.00     4640.00
02886            -160.00     4560.00
02887            -240.00     4560.00
02888            -160.00     4960.00
02889            -180.00     4800.00
02890            -260.00     4800.00
02891            -100.00     5040.00
02892            -180.00     4960.00
02893            -320.00     5040.00
02894            -220.00     5120.00
02895            -240.00     5200.00
02896            -240.00     5280.00
02897            -240.00     5200.00
02898            -260.00     5360.00
02899            -320.00     5360.00
02900            -320.00     5360.00
02901            -240.00     5520.00
02902            -260.00     5440.00
02903            -340.00     5520.00
02904            -320.00     5520.00
02905            -340.00     5600.00
02906            -400.00     5600.00
02907            -360.00     5600.00
02908            -380.00     5760.00
02909            -400.00     5760.00
02910            -400.00     5760.00
02911            -380.00     5840.00
02912            -420.00     5840.00
02913            -500.00     5760.00
02914            -460.00     5840.00
02915            -420.00     5840.00
02916            -520.00     5840.00
02917            -540.00     5840.00
02918            -500.00     5920.00
02919            -560.00     5920.00
02920            -580.00     5840.00
02921            -540.00     5920.00
02922            -580.00     5920.00
02923            -640.00     5840.00
02924            -640.00     5920.00
02925            -640.00     5920.00
02926            -720.00     5760.00
02927            -740.00     5840.00
02928            -720.00     5840.00
02929            -740.00     5920.00
02930            -760.00     5760.00
02931            -780.00     5760.00
02932            -780.00     5760.00
02933            -800.00     5760.00
02934            -820.00     5760.00
02935            -800.00     5680.00
02936            -820.00     5680.00
02937            -820.00     5600.00
02938            -820.00     5600.00
02939            -820.00     5600.00
02940            -880.00     5440.00
02941            -860.00     5440.00
02942            -820.00     5440.00
02943            -820.00     5440.00
02944            -820.00     5360.00
02945            -840.00     5280.00
02946            -820.00     5280.00
02947            -820.00     5200.00
02948            -800.00     5120.00
02949            -800.00     5120.00
02950            -780.00     5040.00
02951            -740.00     4960.00
02952            -740.00     4960.00
02953            -740.00     4880.00
02954            -720.00     4800.00
02955            -700.00     4720.00
02956            -660.00     4640.00
02957            -640.00     4560.00
02958            -640.00     4560.00
02959            -620.00     4480.00
02960            -580.00     4400.00
02961            -560.00     4320.00
02962            -520.00     4240.00
02963            -500.00     4160.00
02964            -500.00     4000.00
02965            -480.00     4000.00
02966            -480.00     3920.00
02967            -460.00     3840.00
02968            -420.00     3840.00
02969            -420.00     3680.00
02970            -400.00     3600.00
02971            -360.00     3520.00
02972            -380.00     3360.00
02973            -340.00     3280.00
02974            -320.00     3200.00
02975            -320.00     3200.00
02976            -300.00     3040.00
02977            -260.00     2960.00
02978            -280.00     2880.00
02979            -260.00     2800.00
02980            -260.00     2720.00
02981            -240.00     2560.00
02982            -220.00     2480.00
02983            -180.00     2320.00
02984            -160.00     2240.00
02985            -180.00     2160.00
02986            -200.00     2080.00
02987            -180.00     1920.00
02988            -160.00     1920.00
02989            -160.00     1760.00
02990            -160.00     1680.00
02991            -160.00     1600.00
02992            -140.00     1440.00
02993            -140.00     1360.00
02994            -100.00     1280.00
02995            -100.00     1120.00
02996            -100.00     1040.00
02997            -140.00      880.00
02998            -100.00      800.00
02999            -100.00      720.00
03000             -80.00      640.00
03001             -80.00      480.00
03002             -80.00      400.00
03003             -40.00      320.00
03004             -20.00      160.00
03005             -60.00       80.00
03006             -60.00      -80.00
03007             -20.00     -160.00
03008              20.00     -240.00
03009              60.00     -320.00
03010              60.00     -480.00
03011              20.00     -560.00
03012             -20.00     -640.00
03013             -20.00     -640.00
03014              40.00     -800.00
03015             380.00     -880.00
03016             820.00    -1200.00
03017             640.00    -1360.00
03018            -500.00    -1440.00
03019           -1820.00    -1280.00
03020            -960.00    -1280.00
03021             900.00    -1760.00
03022             380.00    -1600.00
03023            -320.00    -1520.00
03024             420.00    -2400.00
03025             460.00    -1840.00
03026            -140.00    -1600.00
03027              40.00    -2560.00
03028             -20.00    -2560.00
03029              80.00    -1840.00
03030             380.00    -2560.00
03031            -160.00    -2960.00
03032            -220.00    -2400.00
03033             240.00    -2640.00
03034            -100.00    -3040.00
03035             100.00    -3040.00
03036             400.00    -2880.00
03037            -200.00    -3120.00
03038               0.00    -3440.00
03039             420.00    -3200.00
03040              80.00    -3200.00
03041            -120.00    -3840.00
03042             160.00    -3600.00
03043             240.00    -3440.00
03044               0.00    -3840.00
03045              20.00    -4000.00
03046             220.00    -3760.00
03047             220.00    -3920.00
03048             100.00    -4320.00
03049             180.00    -4080.00
03050             160.00    -4080.00
03051              80.00    -4480.00
03052             180.00    -4400.00
03053             240.00    -4320.00
03054             100.00    -4640.00
03055             100.00    -4640.00
03056             300.00    -4480.00
03057             220.00    -4640.00
03058             140.00    -4880.00
03059             240.00    -4800.00
03060             240.00    -4800.00
03061             160.00    -5040.00
03062             240.00    -5040.00
03063             320.00    -4880.00
03064             240.00    -5120.00
03065             260.00    -5120.00
03066             300.00    -5120.00
03067             260.00    -5120.00
03068             240.00    -5280.00
03069             320.00    -5280.00
03070             380.00    -5280.00
03071             300.00    -5360.00
03072             320.00    -5440.00
03073             380.00    -5360.00
03074             320.00    -5440.00
03075             340.00    -5440.00
03076             420.00    -5440.00
03077             420.00    -5520.00
03078             400.00    -5600.00
03079             420.00    -5600.00
03080             440.00    -5520.00
03081             400.00    -5680.00
03082             480.00    -5680.00
03083             540.00    -5520.00
03084             480.00    -5600.00
03085             500.00    -5680.00
03086             560.00    -5680.00
03087             560.00    -5680.00
03088             540.00    -5760.00
03089             580.00    -5680.00
03090             640.00    -5600.00
03091             620.00    -5680.00
03092             640.00    -5760.00
03093             720.00    -5520.00
03094             680.00    -5680.00
03095             700.00    -5600.00
03096             740.00    -5600.00
03097             800.00    -5520.00
03098             780.00    -5520.00
03099             780.00    -5520.00
03100             800.00    -5440.00
03101             800.00    -5520.00
03102             800.00    -5520.00
03103             860.00    -5440.00
03104             840.00    -5440.00
03105             820.00    -5440.00
03106             860.00    -5360.00
03107             840.00    -5360.00
03108             800.00    -5360.00
03109             820.00    -5280.00
03110             880.00    -5200.00
03111             840.00    -5120.00
03112             820.00    -5120.00
03113             820.00    -5040.00
03114             800.00    -5040.00
03115             780.00    -4960.00
03116             800.00    -4960.00
03117             800.00    -4880.00
03118             780.00    -4800.00
03119             740.00    -4720.00
03120             740.00    -4720.00
03121             700.00    -4640.00
03122             660.00    -4640.00
03123             700.00    -4480.00
03124             660.00    -4400.00
03125             640.00    -4400.00
03126             620.00    -4320.00
03127             560.00    -4160.00
03128             540.00    -4160.00
03129             560.00    -4080.00
03130             540.00    -4000.00
03131             520.00    -4000.00
03132             480.00    -3840.00
03133             460.00    -3760.00
03134             420.00    -3680.00
03135             420.00    -3680.00
03136             400.00    -3520.00
03137             380.00    -3440.00
03138             380.00    -3440.00
03139             340.00    -3280.00
03140             340.00    -3200.00
03141             320.00    -3040.00
03142             300.00    -2960.00
03143             300.00    -2880.00
03144             300.00    -2800.00
03145             240.00    -2720.00
03146             240.00    -2640.00
03147             240.00    -2480.00
03148             180.00    -2480.00
03149             220.00    -2400.00
03150             220.00    -2240.00
03151             200.00    -2080.00
03152             180.00    -2000.00
03153             160.00    -1920.00
03154             160.00    -1840.00
03155             140.00    -1760.00
03156             140.00    -1600.00
03157             160.00    -1440.00
03158             160.00    -1360.00
03159             140.00    -1280.00
03160             100.00    -1200.00
03161             120.00    -1120.00
03162             100.00     -960.00
03163             100.00     -880.00
03164             100.00     -800.00
03165             100.00     -720.00
03166              60.00     -560.00
03167              80.00     -400.00
03168              60.00     -320.00
03169              60.00     -240.00
03170              60.00     -160.00
03171              80.00        0.00
03172              60.00       80.00
03173              60.00      160.00
03174              80.00      320.00
03175             120.00      400.00
03176             140.00      480.00
03177             140.00      560.00
03178             100.00      640.00
03179              60.00      800.00
03180              40.00      880.00
03181              80.00      960.00
03182             500.00     1120.00
03183            1040.00     1360.00
03184             540.00     1440.00
03185           -1140.00     1360.00
03186           -2100.00     1200.00
03187            -300.00     1760.00
03188            1440.00     2000.00
03189            -100.00     1760.00
03190            -360.00     1760.00
03191             940.00     1760.00
03192              20.00     2560.00
03193            -740.00     2400.00
03194             100.00     1760.00
03195             220.00     2720.00
03196              20.00     2960.00
03197             -80.00     2000.00
03198            -320.00     2720.00
03199             160.00     3520.00
03200             -80.00     2560.00
03201            -480.00     2720.00
03202             420.00     3600.00
03203              60.00     3040.00
03204            -660.00     3200.00
03205             260.00     3440.00
03206             120.00     3520.00
03207            -460.00     3680.00
03208               0.00     3360.00
03209             -20.00     3840.00
03210            -120.00     4080.00
03211            -160.00     3520.00
03212            -220.00     4160.00
03213              20.00     4320.00
03214            -160.00     3840.00
03215            -160.00     4320.00
03216             -40.00     4400.00
03217            -240.00     4320.00
03218            -180.00     4480.00
03219            -100.00     4560.00
03220            -160.00     4800.00
03221            -220.00     4560.00
03222            -240.00     4800.00
03223            -160.00     4960.00
03224            -240.00     4720.00
03225            -180.00     4960.00
03226            -100.00     5040.00
03227            -300.00     5040.00
03228            -260.00     5120.00
03229            -220.00     5120.00
03230            -240.00     5280.00
03231            -240.00     5200.00
03232            -240.00     5280.00
03233            -300.00     5440.00
03234            -340.00     5280.00
03235            -260.00     5440.00
03236            -260.00     5520.00
03237            -320.00     5520.00
03238            -340.00     5520.00
03239            -320.00     5600.00
03240            -360.00     5680.00
03241            -400.00     5600.00
03242            -360.00     5760.00
03243            -340.00     5760.00
03244            -400.00     5760.00
03245            -380.00     5760.00
03246            -400.00     5840.00
03247            -480.00     5760.00
03248            -480.00     5760.00
03249            -420.00     5840.00
03250            -460.00     5840.00
03251            -540.00     5840.00
03252            -500.00     5840.00
03253            -500.00     5920.00
03254            -580.00     5840.00
03255            -580.00     5840.00
03256            -560.00     5840.00
03257            -620.00     5840.00
03258            -660.00     5840.00
03259            -640.00     5840.00
03260            -660.00     5840.00
03261            -740.00     5760.00
03262            -720.00     5840.00
03263            -700.00     5840.00
03264            -740.00     5840.00
03265            -780.00     5760.00
03266            -780.00     5760.00
03267            -800.00     5760.00
03268            -820.00     5680.00
03269            -800.00     5680.00
03270            -800.00     5680.00
03271            -820.00     5600.00
03272            -820.00     5600.00
03273            -820.00     5600.00
03274            -880.00     5520.00
03275            -880.00     5440.00
03276            -840.00     5520.00
03277            -840.00     5440.00
03278            -840.00     5360.00
03279            -820.00     5280.00
03280            -860.00     5200.00
03281            -860.00     5200.00
03282            -800.00     5200.00
03283            -800.00     5120.00
03284            -780.00     5120.00
03285            -760.00     5040.00
03286            -740.00     4960.00
03287            -740.00     4880.00
03288            -720.00     4800.00
03289            -700.00     4800.00
03290            -660.00     4640.00
03291            -660.00     4720.00
03292            -640.00     4480.00
03293            -620.00     4480.00
03294            -620.00     4400.00
03295            -580.00     4320.00
03296            -540.00     4240.00
03297            -500.00     4160.00
03298            -500.00     4160.00
03299            -480.00     4000.00
03300            -480.00     3920.00
03301            -460.00     3840.00
03302            -420.00     3840.00
03303            -400.00     3680.00
03304            -380.00     3680.00
03305            -380.00     3600.00
03306            -340.00     3440.00
03307            -340.00     3360.00
03308            -340.00     3200.00
03309            -320.00     3200.00
03310            -300.00     3120.00
03311            -260.00     3040.00
03312            -300.00     2880.00
03313            -260.00     2800.00
03314            -260.00     2720.00
03315            -240.00     2640.00
03316            -240.00     2560.00
03317            -220.00     2400.00
03318            -200.00     2320.00
03319            -180.00     2240.00
03320            -160.00     2160.00
03321            -160.00     2000.00
03322            -180.00     1920.00
03323            -180.00     1840.00
03324            -160.00     1760.00
03325            -160.00     1600.00
03326            -140.00     1440.00
03327            -100.00     1440.00
03328            -100.00     1280.00
03329            -100.00     1200.00
03330            -100.00     1120.00
03331            -120.00      960.00
03332            -100.00      880.00
03333            -100.00      800.00
03334             -80.00      640.00
03335             -80.00      560.00
03336             -80.00      480.00
03337             -60.00      320.00
03338             -60.00      240.00
03339             -60.00      160.00
03340             -60.00        0.00
03341             -20.00     -160.00
03342              20.00     -160.00
03343              80.00     -320.00
03344              60.00     -320.00
03345               0.00     -560.00
03346               0.00     -560.00
03347             -20.00     -640.00
03348               0.00     -720.00
03349             160.00     -880.00
03350             640.00     -960.00
03351             860.00    -1280.00
03352             160.00    -1360.00
03353           -1260.00    -1440.00
03354           -1720.00    -1200.00
03355               0.00    -1440.00
03356            1040.00    -1840.00
03357            -180.00    -1440.00
03358             -20.00    -2000.00
03359             700.00    -2240.00
03360               0.00    -1520.00
03361            -100.00    -2080.00
03362              80.00    -2720.00
03363            -100.00    -2080.00
03364             320.00    -2080.00
03365             220.00    -2880.00
03366            -380.00    -2720.00
03367             100.00    -2480.00
03368              60.00    -2960.00
03369            -140.00    -3040.00
03370             400.00    -2880.00
03371             140.00    -2960.00
03372            -260.00    -3360.00
03373             260.00    -3440.00
03374             320.00    -3040.00
03375            -120.00    -3520.00
03376              60.00    -3840.00
03377             300.00    -3440.00
03378             140.00    -3600.00
03379             -40.00    -4000.00
03380             120.00    -3840.00
03381             240.00    -3760.00
03382             140.00    -4240.00
03383             140.00    -4240.00
03384             180.00    -4000.00
03385             120.00    -4320.00
03386             100.00    -4480.00
03387             280.00    -4320.00
03388             240.00    -4480.00
03389              60.00    -4640.00
03390             160.00    -4560.00
03391             260.00    -4640.00
03392             140.00    -4800.00
03393             240.00    -4880.00
03394             320.00    -4720.00
03395             220.00    -4880.00
03396             180.00    -5040.00
03397             260.00    -4960.00
03398             260.00    -5040.00
03399             220.00    -5200.00
03400             300.00    -5120.00
03401             300.00    -5120.00
03402             220.00    -5280.00
03403             300.00    -5280.00
03404             380.00    -5280.00
03405             320.00    -5360.00
03406             300.00    -5440.00
03407             340.00    -5360.00
03408             320.00    -5440.00
03409             300.00    -5520.00
03410             380.00    -5440.00
03411             420.00    -5440.00
03412             380.00    -5600.00
03413             400.00    -5600.00
03414             460.00    -5520.00
03415             400.00    -5600.00
03416             420.00    -5680.00
03417             500.00    -5600.00
03418             540.00    -5600.00
03419             500.00    -5760.00
03420             540.00    -5680.00
03421             560.00    -5680.00
03422             540.00    -5680.00
03423             540.00    -5760.00
03424             640.00    -5600.00
03425             640.00    -5680.00
03426             640.00    -5680.00
03427             700.00    -5600.00
03428             700.00    -5600.00
03429             660.00    -5680.00
03430             700.00    -5600.00
03431             780.00    -5520.00
03432             780.00    -5520.00
03433             800.00    -5520.00
03434             820.00    -5520.00
03435             800.00    -5440.00
03436             800.00    -5520.00
03437             800.00    -5440.00
03438             860.00    -5360.00
03439             820.00    -5440.00
03440             860.00    -5360.00
03441             860.00    -5360.00
03442             820.00    -5280.00
03443             820.00    -5280.00
03444             860.00    -5280.00
03445             860.00    -5200.00
03446             860.00    -5120.00
03447             840.00    -5120.00
03448             820.00    -5040.00
03449             800.00    -5040.00
03450             800.00    -4960.00
03451             800.00    -4880.00
03452             780.00    -4800.00
03453             760.00    -4800.00
03454             720.00    -4800.00
03455             720.00    -4640.00
03456             700.00    -4640.00
03457             680.00    -4480.00
03458             680.00    -4480.00
03459             640.00    -4480.00
03460             620.00    -4400.00
03461             580.00    -4320.00
03462             560.00    -4160.00
03463             560.00    -4160.00
03464             540.00    -4080.00
03465             500.00    -4000.00
03466             480.00    -3840.00
03467             460.00    -3760.00
03468             420.00    -3680.00
03469             420.00    -3680.00
03470             400.00    -3520.00
03471             400.00    -3440.00
03472             380.00    -3440.00
03473             340.00    -3280.00
03474             320.00    -3280.00
03475             320.00    -3200.00
03476             300.00    -3040.00
03477             300.00    -2960.00
03478             280.00    -2880.00
03479             260.00    -2800.00
03480             260.00    -2720.00
03481             240.00    -2560.00
03482             220.00    -2480.00
03483             220.00    -2400.00
03484             220.00    -2240.00
03485             220.00    -2160.00
03486             180.00    -2080.00
03487             180.00    -2080.00
03488             160.00    -1920.00
03489             140.00    -1760.00
03490             160.00    -1680.00
03491             160.00    -1600.00
03492             160.00    -1520.00
03493             140.00    -1360.00
03494             140.00    -1280.00
03495             100.00    -1120.00
03496             100.00    -1120.00
03497             100.00     -960.00
03498             100.00     -800.00
03499             100.00     -720.00
03500              80.00     -640.00
03501              80.00     -480.00
03502              80.00     -400.00
03503              80.00     -320.00
03504              80.00     -160.00
03505              60.00      -80.00
03506              80.00        0.00
03507              60.00      160.00
03508              60.00      160.00
03509              80.00      320.00
03510             140.00      480.00
03511             160.00      560.00
03512             120.00      640.00
03513              80.00      720.00
03514              60.00      800.00
03515              60.00      960.00
03516             220.00     1040.00
03517             840.00     1280.00
03518             940.00     1360.00
03519            -140.00     1440.00
03520           -1980.00     1280.00
03521           -1520.00     1440.00
03522             880.00     1920.00
03523             880.00     1920.00
03524            -540.00     1760.00
03525             280.00     1680.00
03526             820.00     2160.00
03527            -580.00     2640.00
03528            -460.00     1920.00
03529             380.00     2160.00
03530              60.00     3120.00
03531               0.00     2400.00
03532            -220.00     2160.00
03533            -180.00     3360.00
03534             220.00     3040.00
03535            -420.00     2400.00
03536            -100.00     3280.00
03537             540.00     3360.00
03538            -480.00     3040.00
03539            -300.00     3360.00
03540             420.00     3360.00
03541            -300.00     3680.00
03542            -300.00     3600.00
03543              80.00     3520.00
03544            -120.00     4160.00
03545            -100.00     3840.00
03546            -240.00     3680.00
03547             -80.00     4480.00
03548             -20.00     4000.00
03549            -240.00     4000.00
03550             -40.00     4400.00
03551            -140.00     4320.00
03552            -260.00     4480.00
03553            -140.00     4480.00
03554            -140.00     4640.00
03555            -160.00     4720.00
03556            -240.00     4560.00
03557            -200.00     4960.00
03558            -180.00     4800.00
03559            -260.00     4800.00
03560            -100.00     5040.00
03561            -160.00     4960.00
03562            -320.00     5040.00
03563            -220.00     5120.00
03564            -240.00     5200.00
03565            -240.00     5280.00
03566            -220.00     5200.00
03567            -260.00     5440.00
03568            -320.00     5360.00
03569            -320.00     5280.00
03570            -240.00     5520.00
03571            -260.00     5520.00
03572            -340.00     5520.00
03573            -300.00     5600.00
03574            -320.00     5680.00
03575            -400.00     5680.00
03576            -360.00     5600.00
03577            -340.00     5760.00
03578            -380.00     5760.00
03579            -400.00     5680.00
03580            -380.00     5840.00
03581            -420.00     5840.00
03582            -500.00     5760.00
03583            -460.00     5840.00
03584            -420.00     5840.00
03585            -500.00     5760.00
03586            -500.00     5840.00
03587            -500.00     5840.00
03588            -560.00     5920.00
03589            -600.00     5840.00
03590            -560.00     5920.00
03591            -580.00     5920.00
03592            -640.00     5840.00
03593            -640.00     5920.00
03594            -640.00     5920.00
03595            -700.00     5840.00
03596            -740.00     5840.00
03597            -720.00     5760.00
03598            -740.00     5840.00
03599            -760.00     5760.00
03600            -780.00     5760.00
03601            -800.00     5760.00
03602            -820.00     5680.00
03603            -820.00     5760.00
03604            -800.00     5760.00
03605            -820.00     5600.00
03606            -840.00     5600.00
03607            -820.00     5600.00
03608            -860.00     5600.00
03609            -880.00     5600.00
03610            -860.00     5440.00
03611            -820.00     5520.00
03612            -820.00     5440.00
03613            -820.00     5360.00
03614            -820.00     5280.00
03615            -820.00     5280.00
03616            -820.00     5200.00
03617            -800.00     5200.00
03618            -780.00     5120.00
03619            -780.00     4960.00
03620            -780.00     4960.00
03621            -740.00     4960.00
03622            -740.00     4880.00
03623            -720.00     4800.00
03624            -700.00     4720.00
03625            -660.00     4720.00
03626            -640.00     4560.00
03627            -640.00     4560.00
03628            -640.00     4480.00
03629            -620.00     4320.00
03630            -560.00     4320.00
03631            -520.00     4240.00
03632            -500.00     4160.00
03633            -500.00     4080.00
03634            -480.00     4000.00
03635            -480.00     3920.00
03636            -420.00     3840.00
03637            -420.00     3760.00
03638            -400.00     3680.00
03639            -380.00     3600.00
03640            -380.00     3520.00
03641            -340.00     3440.00
03642            -340.00     3280.00
03643            -340.00     3280.00
03644            -300.00     3200.00
03645            -260.00     3120.00
03646            -260.00     2960.00
03647            -260.00     2880.00
03648            -260.00     2720.00
03649            -260.00     2640.00
03650            -220.00     2560.00
03651            -220.00     2560.00
03652            -220.00     2400.00
03653            -180.00     2320.00
03654            -180.00     2240.00
03655            -180.00     2080.00
03656            -180.00     2000.00
03657            -160.00     1920.00
03658            -160.00     1760.00
03659            -160.00     1680.00
03660            -140.00     1600.00
03661            -140.00     1440.00
03662            -140.00     1360.00
03663            -100.00     1280.00
03664            -100.00     1120.00
03665            -100.00     1040.00
03666            -100.00      960.00
03667            -100.00      800.00
03668            -100.00      720.00
03669            -100.00      640.00
03670             -80.00      480.00
03671             -80.00      400.00
03672             -80.00      320.00
03673             -40.00      160.00
03674             -60.00       80.00
03675             -60.00        0.00
03676             -20.00     -160.00
03677              20.00     -240.00
03678              60.00     -320.00
03679              20.00     -320.00
03680               0.00     -560.00
03681               0.00     -560.00
03682             -20.00     -800.00
03683              20.00     -800.00
03684             320.00     -960.00
03685             820.00    -1200.00
03686             640.00    -1280.00
03687            -480.00    -1440.00
03688           -1780.00    -1280.00
03689           -1040.00    -1200.00
03690             860.00    -1760.00
03691             480.00    -1600.00
03692            -320.00    -1520.00
03693             420.00    -2320.00
03694             500.00    -1920.00
03695            -160.00    -1600.00
03696               0.00    -2480.00
03697               0.00    -2560.00
03698              60.00    -1920.00
03699             400.00    -2560.00
03700            -140.00    -2960.00
03701            -220.00    -2400.00
03702             220.00    -2640.00
03703             -80.00    -3040.00
03704              80.00    -2960.00
03705             400.00    -2880.00
03706            -180.00    -3120.00
03707             -40.00    -3440.00
03708             420.00    -3200.00
03709             100.00    -3120.00
03710            -120.00    -3760.00
03711             220.00    -3600.00
03712             280.00    -3360.00
03713               0.00    -3840.00
03714               0.00    -4000.00
03715             220.00    -3760.00
03716             180.00    -4000.00
03717             100.00    -4240.00
03718             220.00    -4080.00
03719             160.00    -4000.00
03720             100.00    -4480.00
03721             200.00    -4400.00
03722             260.00    -4320.00
03723             140.00    -4640.00
03724              80.00    -4640.00
03725             240.00    -4480.00
03726             220.00    -4720.00
03727             140.00    -4880.00
03728             260.00    -4800.00
03729             280.00    -4800.00
03730             160.00    -4960.00
03731             220.00    -5040.00
03732             300.00    -4880.00
03733             240.00    -5120.00
03734             240.00    -5200.00
03735             300.00    -5120.00
03736             240.00    -5200.00
03737             220.00    -5360.00
03738             320.00    -5280.00
03739             340.00    -5280.00
03740             300.00    -5440.00
03741             320.00    -5440.00
03742             340.00    -5360.00
03743             320.00    -5440.00
03744             320.00    -5440.00
03745             400.00    -5440.00
03746             400.00    -5440.00
03747             380.00    -5600.00
03748             420.00    -5600.00
03749             460.00    -5520.00
03750             380.00    -5600.00
03751             460.00    -5680.00
03752             520.00    -5600.00
03753             500.00    -5600.00
03754             480.00    -5680.00
03755             540.00    -5680.00
03756             560.00    -5600.00
03757             520.00    -5680.00
03758             620.00    -5680.00
03759             640.00    -5680.00
03760             640.00    -5680.00
03761             640.00    -5680.00
03762             720.00    -5680.00
03763             700.00    -5600.00
03764             700.00    -5680.00
03765             740.00    -5600.00
03766             780.00    -5520.00
03767             780.00    -5600.00
03768             780.00    -5520.00
03769             800.00    -5440.00
03770             800.00    -5600.00
03771             800.00    -5520.00
03772             860.00    -5440.00
03773             860.00    -5440.00
03774             860.00    -5440.00
03775             860.00    -5280.00
03776             860.00    -5360.00
03777             800.00    -5280.00
03778             840.00    -5280.00
03779             860.00    -5120.00
03780             860.00    -5120.00
03781             820.00    -5120.00
03782             820.00    -5120.00
03783             800.00    -5040.00
03784             800.00    -5040.00
03785             800.00    -4960.00
03786             800.00    -4880.00
03787             760.00    -4800.00
03788             720.00    -4720.00
03789             720.00    -4720.00
03790             700.00    -4640.00
03791             700.00    -4560.00
03792             700.00    -4480.00
03793             660.00    -4400.00
03794             620.00    -4400.00
03795             580.00    -4400.00
03796             560.00    -4240.00
03797             540.00    -4160.00
03798             540.00    -4080.00
03799             540.00    -4000.00
03800             500.00    -3920.00
03801             480.00    -3840.00
03802             460.00    -3760.00
03803             420.00    -3680.00
03804             400.00    -3680.00
03805             400.00    -3520.00
03806             380.00    -3440.00
03807             340.00    -3360.00
03808             340.00    -3360.00
03809             320.00    -3200.00
03810             300.00    -3120.00
03811             300.00    -2960.00
03812             300.00    -2880.00
03813             280.00    -2800.00
03814             260.00    -2720.00
03815             240.00    -2640.00
03816             220.00    -2560.00
03817             220.00    -2400.00
03818             220.00    -2320.00
03819             220.00    -2240.00
03820             200.00    -2080.00
03821             180.00    -2080.00
03822             180.00    -1920.00
03823             160.00    -1840.00
03824             160.00    -1680.00
03825             160.00    -1600.00
03826             160.00    -1520.00
03827             140.00    -1440.00
03828             140.00    -1280.00
03829             100.00    -1200.00
03830             120.00    -1120.00
03831             100.00    -1040.00
03832             100.00     -880.00
03833             100.00     -800.00
03834             100.00     -720.00
03835              80.00     -560.00
03836              80.00     -400.00
03837              60.00     -320.00
03838              80.00     -240.00
03839              80.00      -80.00
03840              80.00        0.00
03841              60.00       80.00
03842              60.00      160.00
03843              60.00      320.00
03844             100.00      320.00
03845             140.00      480.00
03846             140.00      560.00
03847              80.00      640.00
03848              80.00      800.00
03849              60.00      800.00
03850              80.00      960.00
03851             480.00     1120.00
03852            1040.00     1360.00
03853             540.00     1440.00
03854           -1060.00     1440.00
03855           -2140.00     1280.00
03856            -400.00     1680.00
03857            1440.00     2000.00
03858             -40.00     1840.00
03859            -380.00     1760.00
03860             900.00     1760.00
03861             100.00     2560.00
03862            -740.00     2400.00
03863              80.00     1760.00
03864             220.00     2720.00
03865              20.00     3040.00
03866            -100.00     2080.00
03867            -320.00     2640.00
03868             100.00     3520.00
03869             -60.00     2560.00
03870            -480.00     2800.00
03871             380.00     3600.00
03872             100.00     3040.00
03873            -700.00     3200.00
03874             220.00     3440.00
03875             140.00     3520.00
03876            -460.00     3680.00
03877               0.00     3360.00
03878             -20.00     3840.00
03879            -140.00     4080.00
03880            -160.00     3520.00
03881            -240.00     4160.00
03882               0.00     4320.00
03883            -160.00     3840.00
03884            -160.00     4240.00
03885             -20.00     4400.00
03886            -260.00     4320.00
03887            -180.00     4480.00
03888            -120.00     4480.00
03889            -140.00     4720.00
03890            -180.00     4560.00
03891            -240.00     4720.00
03892            -140.00     4960.00
03893            -240.00     4800.00
03894            -200.00     4960.00
03895            -100.00     5120.00
03896            -260.00     4960.00
03897            -260.00     5040.00
03898            -220.00     5120.00
03899            -240.00     5280.00
03900            -240.00     5200.00
03901            -260.00     5280.00
03902            -300.00     5440.00
03903            -320.00     5280.00
03904            -260.00     5440.00
03905            -240.00     5520.00
03906            -320.00     5440.00
03907            -340.00     5520.00
03908            -300.00     5600.00
03909            -340.00     5600.00
03910            -380.00     5600.00
03911            -360.00     5600.00
03912            -340.00     5760.00
03913            -400.00     5680.00
03914            -400.00     5760.00
03915            -400.00     5840.00
03916            -460.00     5760.00
03917            -480.00     5760.00
03918            -420.00     5920.00
03919            -460.00     5840.00
03920            -520.00     5840.00
03921            -500.00     5840.00
03922            -500.00     5920.00
03923            -580.00     5840.00
03924            -580.00     5840.00
03925            -560.00     5920.00
03926            -620.00     5920.00
03927            -660.00     5840.00
03928            -640.00     5920.00
03929            -660.00     5840.00
03930            -740.00     5840.00
03931            -720.00     5840.00
03932            -720.00     5840.00
03933            -760.00     5760.00
03934            -780.00     5760.00
03935            -800.00     5760.00
03936            -820.00     5760.00
03937            -820.00     5760.00
03938            -800.00     5760.00
03939            -800.00     5680.00
03940            -820.00     5600.00
03941            -820.00     5600.00
03942            -860.00     5600.00
03943            -900.00     5600.00
03944            -880.00     5440.00
03945            -860.00     5520.00
03946            -820.00     5440.00
03947            -860.00     5440.00
03948            -820.00     5280.00
03949            -820.00     5280.00
03950            -820.00     5280.00
03951            -800.00     5120.00
03952            -800.00     5200.00
03953            -800.00     5120.00
03954            -780.00     4960.00
03955            -740.00     4960.00
03956            -740.00     4880.00
03957            -720.00     4800.00
03958            -700.00     4800.00
03959            -680.00     4720.00
03960            -660.00     4720.00
03961            -640.00     4560.00
03962            -620.00     4480.00
03963            -620.00     4480.00
03964            -580.00     4320.00
03965            -540.00     4320.00
03966            -500.00     4240.00
03967            -500.00     4160.00
03968            -480.00     4080.00
03969            -460.00     4000.00
03970            -460.00     3920.00
03971            -420.00     3840.00
03972            -400.00     3680.00
03973            -400.00     3600.00
03974            -380.00     3600.00
03975            -360.00     3520.00
03976            -340.00     3360.00
03977            -320.00     3280.00
03978            -320.00     3200.00
03979            -280.00     3200.00
03980            -300.00     3040.00
03981            -280.00     2960.00
03982            -260.00     2880.00
03983            -260.00     2720.00
03984            -220.00     2640.00
03985            -220.00     2560.00
03986            -220.00     2400.00
03987            -220.00     2320.00
03988            -200.00     2240.00
03989            -180.00     2160.00
03990            -180.00     2080.00
03991            -180.00     1920.00
03992            -160.00     1840.00
03993            -160.00     1680.00
03994            -160.00     1600.00
03995            -160.00     1520.00
03996            -140.00     1360.00
03997            -120.00     1280.00
03998            -100.00     1200.00
03999            -100.00     1120.00
04000            -100.00      960.00
04001            -100.00      800.00
04002            -100.00      800.00
04003            -100.00      640.00
04004            -100.00      640.00
04005             -80.00      400.00
04006             -60.00      320.00
04007             -60.00      240.00
04008             -60.00      160.00
04009             -60.00        0.00
04010             -20.00      -80.00
04011              20.00     -160.00
04012              60.00     -240.00
04013              60.00     -320.00
04014               0.00     -560.00
04015             -20.00     -560.00
04016             -80.00     -640.00
04017             -60.00     -800.00
04018             160.00     -880.00
04019             700.00     -960.00
04020             980.00    -1280.00
04021             300.00    -1360.00
04022           -1180.00    -1440.00
04023           -1820.00    -1280.00
04024            -220.00    -1440.00
04025             960.00    -1840.00
04026            -160.00    -1440.00
04027               0.00    -1920.00
04028             780.00    -2400.00
04029             120.00    -1520.00
04030             -80.00    -2000.00
04031             100.00    -2720.00
04032            -120.00    -2160.00
04033             300.00    -2000.00
04034             180.00    -2880.00
04035            -400.00    -2720.00
04036              80.00    -2400.00
04037             140.00    -2880.00
04038            -100.00    -3040.00
04039             380.00    -2880.00
04040             160.00    -2880.00
04041            -260.00    -3360.00
04042             300.00    -3440.00
04043             360.00    -3120.00
04044            -140.00    -3520.00
04045               0.00    -3760.00
04046             220.00    -3440.00
04047             140.00    -3520.00
04048             -60.00    -4000.00
04049             160.00    -3840.00
04050             260.00    -3760.00
04051             160.00    -4080.00
04052             160.00    -4240.00
04053             180.00    -4000.00
04054              80.00    -4320.00
04055              80.00    -4480.00
04056             220.00    -4320.00
04057             200.00    -4400.00
04058              60.00    -4640.00
04059             220.00    -4560.00
04060             320.00    -4640.00
04061             160.00    -4800.00
04062             180.00    -4880.00
04063             300.00    -4720.00
04064             180.00    -4880.00
04065             160.00    -5040.00
04066             260.00    -4960.00
04067             260.00    -4960.00
04068             220.00    -5200.00
04069             300.00    -5120.00
04070             320.00    -5120.00
04071             240.00    -5280.00
04072             260.00    -5280.00
04073             360.00    -5280.00
04074             320.00    -5360.00
04075             300.00    -5440.00
04076             340.00    -5360.00
04077             320.00    -5440.00
04078             300.00    -5600.00
04079             360.00    -5520.00
04080             420.00    -5440.00
04081             400.00    -5600.00
04082             440.00    -5600.00
04083             480.00    -5440.00
04084             420.00    -5600.00
04085             420.00    -5680.00
04086             500.00    -5600.00
04087             480.00    -5600.00
04088             460.00    -5680.00
04089             500.00    -5680.00
04090             580.00    -5680.00
04091             560.00    -5680.00
04092             580.00    -5760.00
04093             640.00    -5680.00
04094             640.00    -5600.00
04095             620.00    -5760.00
04096             700.00    -5680.00
04097             700.00    -5520.00
04098             680.00    -5600.00
04099             720.00    -5600.00
04100             780.00    -5520.00
04101             780.00    -5600.00
04102             780.00    -5600.00
04103             800.00    -5520.00
04104             800.00    -5520.00
04105             800.00    -5520.00
04106             820.00    -5440.00
04107             860.00    -5440.00
04108             820.00    -5440.00
04109             820.00    -5440.00
04110             840.00    -5360.00
04111             840.00    -5280.00
04112             820.00    -5280.00
04113             880.00    -5200.00
04114             880.00    -5200.00
04115             820.00    -5120.00
04116             820.00    -5120.00
04117             800.00    -5040.00
04118             800.00    -5040.00
04119             800.00    -5040.00
04120             800.00    -4880.00
04121             780.00    -4880.00
04122             740.00    -4800.00
04123             720.00    -4720.00
04124             700.00    -4720.00
04125             700.00    -4640.00
04126             700.00    -4480.00
04127             660.00    -4480.00
04128             640.00    -4400.00
04129             620.00    -4400.00
04130             560.00    -4240.00
04131             540.00    -4240.00
04132             540.00    -4160.00
04133             540.00    -4000.00
04134             500.00    -3920.00
04135             480.00    -3920.00
04136             480.00    -3840.00
04137             460.00    -3760.00
04138             420.00    -3680.00
04139             400.00    -3600.00
04140             400.00    -3520.00
04141             360.00    -3360.00
04142             340.00    -3360.00
04143             340.00    -3200.00
04144             320.00    -3120.00
04145             300.00    -3040.00
04146             320.00    -2960.00
04147             300.00    -2880.00
04148             280.00    -2800.00
04149             240.00    -2720.00
04150             240.00    -2560.00
04151             220.00    -2480.00
04152             220.00    -2400.00
04153             220.00    -2320.00
04154             220.00    -2160.00
04155             180.00    -2160.00
04156             200.00    -2000.00
04157             180.00    -1840.00
04158             160.00    -1760.00
04159             160.00    -1600.00
04160             160.00    -1600.00
04161             160.00    -1520.00
04162             140.00    -1360.00
04163             120.00    -1280.00
04164             100.00    -1120.00
04165             140.00    -1040.00
04166             140.00     -960.00
04167             100.00     -800.00
04168             100.00     -800.00
04169              80.00     -640.00
04170              80.00     -480.00
04171              80.00     -400.00
04172              80.00     -240.00
04173              80.00     -240.00
04174              80.00      -80.00
04175              60.00       80.00
04176              60.00      160.00
04177              60.00      320.00
04178              80.00      320.00
04179             140.00      400.00
04180             160.00      480.00
04181             140.00      640.00
04182              80.00      640.00
04183              60.00      800.00
04184              60.00      960.00
04185             180.00     1040.00
04186             820.00     1280.00
04187             960.00     1360.00
04188             -80.00     1440.00
04189           -1920.00     1280.00
04190           -1580.00     1440.00
04191             800.00     1920.00
04192             960.00     1920.00
04193            -560.00     1760.00
04194             220.00     1680.00
04195             880.00     2160.00
04196            -560.00     2640.00
04197            -480.00     2000.00
04198             380.00     2160.00
04199              60.00     3120.00
04200               0.00     2400.00
04201            -220.00     2080.00
04202            -220.00     3280.00
04203             220.00     3120.00
04204            -420.00     2320.00
04205            -160.00     3280.00
04206             540.00     3360.00
04207            -460.00     2960.00
04208            -340.00     3360.00
04209             420.00     3440.00
04210            -260.00     3680.00
04211            -300.00     3520.00
04212              80.00     3520.00
04213            -100.00     4160.00
04214            -100.00     3760.00
04215            -240.00     3600.00
04216            -100.00     4480.00
04217             -20.00     4000.00
04218            -240.00     4000.00
04219             -60.00     4480.00
04220            -140.00     4320.00
04221            -260.00     4400.00
04222            -160.00     4480.00
04223            -140.00     4720.00
04224            -160.00     4640.00
04225            -240.00     4560.00
04226            -180.00     4960.00
04227            -160.00     4800.00
04228            -260.00     4800.00
04229            -120.00     5120.00
04230            -160.00     4960.00
04231            -320.00     5040.00
04232            -220.00     5120.00
04233            -240.00     5200.00
04234            -240.00     5280.00
04235            -240.00     5200.00
04236            -260.00     5440.00
04237            -320.00     5360.00
04238            -320.00     5360.00
04239            -240.00     5520.00
04240            -260.00     5520.00
04241            -340.00     5520.00
04242            -320.00     5600.00
04243            -320.00     5600.00
04244            -380.00     5680.00
04245            -380.00     5600.00
04246            -340.00     5760.00
04247            -400.00     5760.00
04248            -380.00     5680.00
04249            -360.00     5840.00
04250            -420.00     5840.00
04251            -500.00     5760.00
04252            -460.00     5840.00
04253            -420.00     5920.00
04254            -500.00     5760.00
04255            -540.00     5840.00
04256            -500.00     5920.00
04257            -560.00     5920.00
04258            -600.00     5840.00
04259            -580.00     5840.00
04260            -580.00     5920.00
04261            -640.00     5840.00
04262            -640.00     5920.00
04263            -660.00     5920.00
04264            -720.00     5840.00
04265            -740.00     5840.00
04266            -740.00     5840.00
04267            -720.00     5840.00
04268            -740.00     5840.00
04269            -760.00     5840.00
04270            -800.00     5760.00
04271            -860.00     5680.00
04272            -820.00     5760.00
04273            -800.00     5680.00
04274            -820.00     5600.00
04275            -820.00     5600.00
04276            -880.00     5600.00
04277            -880.00     5600.00
04278            -860.00     5520.00
04279            -820.00     5440.00
04280            -820.00     5440.00
04281            -880.00     5360.00
04282            -880.00     5360.00
04283            -820.00     5280.00
04284            -820.00     5280.00
04285            -800.00     5200.00
04286            -760.00     5200.00
04287            -780.00     5120.00
04288            -800.00     4960.00
04289            -780.00     4960.00
04290            -720.00     4960.00
04291            -740.00     4880.00
04292            -720.00     4800.00
04293            -660.00     4720.00
04294            -660.00     4720.00
04295            -660.00     4640.00
04296            -620.00     4560.00
04297            -580.00     4480.00
04298            -580.00     4320.00
04299            -560.00     4320.00
04300            -540.00     4240.00
04301            -500.00     4240.00
04302            -500.00     4080.00
04303            -480.00     4000.00
04304            -420.00     3920.00
04305            -420.00     3920.00
04306            -400.00     3680.00
04307            -400.00     3680.00
04308            -380.00     3600.00
04309            -400.00     3520.00
04310            -380.00     3440.00
04311            -340.00     3280.00
04312            -320.00     3280.00
04313            -260.00     3200.00
04314            -260.00     3040.00
04315            -280.00     2960.00
04316            -260.00     2880.00
04317            -260.00     2720.00
04318            -260.00     2720.00
04319            -240.00     2560.00
04320            -180.00     2480.00
04321            -220.00     2400.00
04322            -220.00     2320.00
04323            -180.00     2240.00
04324            -220.00     2080.00
04325            -180.00     2000.00
04326            -160.00     1840.00
04327            -160.00     1760.00
04328            -160.00     1680.00
04329            -160.00     1600.00
04330            -160.00     1440.00
04331            -140.00     1360.00
04332            -100.00     1280.00
04333            -100.00     1120.00
04334            -100.00     1040.00
04335            -100.00      960.00
04336            -140.00      800.00
04337            -100.00      720.00
04338            -100.00      640.00
04339            -100.00      480.00
04340             -60.00      400.00
04341             -60.00      320.00
04342             -60.00      160.00
04343             -80.00       80.00
04344             -40.00        0.00
04345             -20.00     -160.00
04346              60.00     -240.00
04347              80.00     -320.00
04348              60.00     -480.00
04349              20.00     -560.00
04350               0.00     -640.00
04351             -20.00     -800.00
04352              40.00     -800.00
04353             320.00     -880.00
04354             820.00    -1120.00
04355             700.00    -1360.00
04356            -400.00    -1360.00
04357           -1740.00    -1360.00
04358           -1100.00    -1200.00
04359             800.00    -1760.00
04360             540.00    -1600.00
04361            -320.00    -1440.00
04362             380.00    -2320.00
04363             540.00    -1920.00
04364            -160.00    -1600.00
04365               0.00    -2480.00
04366               0.00    -2560.00
04367              60.00    -1920.00
04368             400.00    -2480.00
04369            -100.00    -2880.00
04370            -240.00    -2480.00
04371             240.00    -2560.00
04372             -80.00    -3040.00
04373              80.00    -2960.00
04374             400.00    -2960.00
04375            -160.00    -3040.00
04376             -60.00    -3360.00
04377             420.00    -3200.00
04378             140.00    -3200.00
04379            -140.00    -3760.00
04380             180.00    -3680.00
04381             260.00    -3360.00
04382              20.00    -3840.00
04383               0.00    -4000.00
04384             220.00    -3760.00
04385             200.00    -3920.00
04386              80.00    -4240.00
04387             180.00    -4080.00
04388             160.00    -4080.00
04389              80.00    -4480.00
04390             180.00    -4400.00
04391             260.00    -4320.00
04392             120.00    -4560.00
04393              80.00    -4640.00
04394             240.00    -4560.00
04395             240.00    -4640.00
04396             140.00    -4800.00
04397             260.00    -4800.00
04398             280.00    -4800.00
04399             160.00    -5040.00
04400             200.00    -5040.00
04401             300.00    -4880.00
04402             240.00    -5120.00
04403             240.00    -5200.00
04404             300.00    -5040.00
04405             260.00    -5200.00
04406             220.00    -5360.00
04407             340.00    -5280.00
04408             340.00    -5280.00
04409             300.00    -5440.00
04410             320.00    -5360.00
04411             360.00    -5360.00
04412             320.00    -5520.00
04413             320.00    -5600.00
04414             400.00    -5520.00
04415             400.00    -5520.00
04416             380.00    -5600.00
04417             440.00    -5600.00
04418             460.00    -5520.00
04419             400.00    -5600.00
04420             460.00    -5680.00
04421             540.00    -5600.00
04422             480.00    -5680.00
04423             480.00    -5680.00
04424             560.00    -5680.00
04425             560.00    -5680.00
04426             540.00    -5760.00
04427             620.00    -5680.00
04428             640.00    -5680.00
04429             640.00    -5680.00
04430             660.00    -5760.00
04431             700.00    -5600.00
04432             700.00    -5680.00
04433             700.00    -5680.00
04434             740.00    -5520.00
04435             800.00    -5520.00
04436             780.00    -5600.00
04437             780.00    -5520.00
04438             800.00    -5520.00
04439             800.00    -5520.00
04440             800.00    -5520.00
04441             860.00    -5440.00
04442             860.00    -5440.00
04443             820.00    -5440.00
04444             840.00    -5440.00
04445             860.00    -5280.00
04446             820.00    -5280.00
04447             820.00    -5280.00
04448             860.00    -5200.00
04449             860.00    -5200.00
04450             820.00    -5200.00
04451             800.00    -5120.00
04452             800.00    -5040.00
04453             780.00    -5040.00
04454             780.00    -4960.00
04455             800.00    -4880.00
04456             740.00    -4880.00
04457             720.00    -4720.00
04458             720.00    -4720.00
04459             700.00    -4640.00
04460             680.00    -4560.00
04461             700.00    -4480.00
04462             640.00    -4480.00
04463             620.00    -4400.00
04464             580.00    -4320.00
04465             560.00    -4320.00
04466             560.00    -4160.00
04467             540.00    -4080.00
04468             540.00    -4000.00
04469             500.00    -4000.00
04470             480.00    -3920.00
04471             460.00    -3840.00
04472             420.00    -3760.00
04473             420.00    -3680.00
04474             400.00    -3520.00
04475             380.00    -3440.00
04476             360.00    -3360.00
04477             340.00    -3360.00
04478             320.00    -3200.00
04479             300.00    -3040.00
04480             300.00    -2960.00
04481             300.00    -2960.00
04482             300.00    -2800.00
04483             260.00    -2720.00
04484             220.00    -2560.00
04485             220.00    -2560.00
04486             220.00    -2480.00
04487             220.00    -2320.00
04488             220.00    -2240.00
04489             220.00    -2160.00
04490             220.00    -2080.00
04491             180.00    -2000.00
04492             160.00    -1840.00
04493             160.00    -1760.00
04494             160.00    -1600.00
04495             140.00    -1440.00
04496             160.00    -1440.00
04497             160.00    -1360.00
04498             140.00    -1200.00
04499             100.00    -1120.00
04500              80.00     -960.00
04501             140.00     -880.00
04502             140.00     -800.00
04503             100.00     -640.00
04504              80.00     -560.00
04505              80.00     -480.00
04506              80.00     -320.00
04507              80.00     -240.00
04508              80.00      -80.00
04509              60.00        0.00
04510              80.00       80.00
04511              60.00      160.00
04512              80.00      320.00
04513             140.00      400.00
04514             140.00      480.00
04515             140.00      640.00
04516             100.00      640.00
04517              60.00      720.00
04518              40.00      880.00
04519              60.00      960.00
04520             460.00     1120.00
04521            1040.00     1360.00
04522             620.00     1440.00
04523            -980.00     1360.00
04524           -2160.00     1280.00
04525            -500.00     1680.00
04526            1440.00     2000.00
04527               0.00     1760.00
04528            -420.00     1760.00
04529             860.00     1760.00
04530             160.00     2480.00
04531            -740.00     2480.00
04532              40.00     1760.00
04533             240.00     2640.00
04534              20.00     3040.00
04535             -80.00     2000.00
04536            -320.00     2640.00
04537             100.00     3520.00
04538             -20.00     2560.00
04539            -500.00     2720.00
04540             360.00     3600.00
04541             160.00     3040.00
04542            -700.00     3200.00
04543             180.00     3520.00
04544             180.00     3520.00
04545            -460.00     3760.00
04546             -20.00     3360.00
04547             -20.00     3840.00
04548            -140.00     4160.00
04549            -140.00     3520.00
04550            -220.00     4080.00
04551              20.00     4320.00
04552            -140.00     3840.00
04553            -160.00     4240.00
04554             -20.00     4400.00
04555            -240.00     4320.00
04556            -220.00     4480.00
04557            -100.00     4480.00
04558            -160.00     4720.00
04559            -180.00     4560.00
04560            -220.00     4720.00
04561            -140.00     4960.00
04562            -220.00     4720.00
04563            -200.00     4960.00
04564            -100.00     5120.00
04565            -260.00     4960.00
04566            -300.00     5120.00
04567            -220.00     5120.00
04568            -240.00     5280.00
04569            -220.00     5200.00
04570            -220.00     5280.00
04571            -260.00     5440.00
04572            -320.00     5280.00
04573            -300.00     5440.00
04574            -240.00     5600.00
04575            -320.00     5520.00
04576            -320.00     5520.00
04577            -300.00     5600.00
04578            -360.00     5680.00
04579            -420.00     5600.00
04580            -400.00     5760.00
04581            -380.00     5760.00
04582            -380.00     5760.00
04583            -380.00     5760.00
04584            -380.00     5840.00
04585            -480.00     5760.00
04586            -500.00     5840.00
04587            -420.00     5920.00
04588            -460.00     5840.00
04589            -540.00     5760.00
04590            -540.00     5840.00
04591            -520.00     5920.00
04592            -580.00     5840.00
04593            -580.00     5840.00
04594            -560.00     5920.00
04595            -620.00     5840.00
04596            -660.00     5840.00
04597            -640.00     5920.00
04598            -660.00     5920.00
04599            -740.00     5840.00
04600            -740.00     5760.00
04601            -720.00     5840.00
04602            -740.00     5840.00
04603            -780.00     5760.00
04604            -780.00     5760.00
04605            -800.00     5760.00
04606            -860.00     5760.00
04607            -820.00     5760.00
04608            -820.00     5760.00
04609            -820.00     5600.00
04610            -820.00     5600.00
04611            -860.00     5600.00
04612            -880.00     5520.00
04613            -880.00     5520.00
04614            -840.00     5440.00
04615            -800.00     5440.00
04616            -860.00     5440.00
04617            -860.00     5280.00
04618            -820.00     5280.00
04619            -800.00     5200.00
04620            -820.00     5200.00
04621            -800.00     5120.00
04622            -780.00     5120.00
04623            -740.00     5040.00
04624            -740.00     4960.00
04625            -720.00     4880.00
04626            -720.00     4880.00
04627            -740.00     4800.00
04628            -700.00     4720.00
04629            -660.00     4720.00
04630            -620.00     4560.00
04631            -620.00     4560.00
04632            -620.00     4480.00
04633            -560.00     4400.00
04634            -560.00     4320.00
04635            -540.00     4240.00
04636            -520.00     4160.00
04637            -480.00     4080.00
04638            -460.00     4000.00
04639            -460.00     3840.00
04640            -440.00     3840.00
04641            -400.00     3680.00
04642            -400.00     3680.00
04643            -380.00     3520.00
04644            -380.00     3520.00
04645            -340.00     3360.00
04646            -340.00     3280.00
04647            -320.00     3200.00
04648            -280.00     3120.00
04649            -260.00     3040.00
04650            -300.00     2880.00
04651            -300.00     2800.00
04652            -260.00     2720.00
04653            -240.00     2640.00
04654            -220.00     2560.00
04655            -220.00     2480.00
04656            -200.00     2320.00
04657            -200.00     2240.00
04658            -180.00     2160.00
04659            -180.00     2000.00
04660            -180.00     1920.00
04661            -160.00     1760.00
04662            -160.00     1760.00
04663            -160.00     1600.00
04664            -140.00     1520.00
04665            -140.00     1440.00
04666            -140.00     1360.00
04667            -100.00     1200.00
04668            -100.00     1120.00
04669            -100.00      960.00
04670            -100.00      800.00
04671            -100.00      800.00
04672            -100.00      640.00
04673            -100.00      640.00
04674             -80.00      480.00
04675             -80.00      320.00
04676             -20.00      240.00
04677             -60.00      160.00
04678             -20.00       80.00
04679             -60.00      -80.00
04680               0.00     -240.00
04681              60.00     -240.00
04682              60.00     -320.00
04683              40.00     -480.00
04684               0.00     -560.00
04685               0.00     -640.00
04686             -20.00     -800.00
04687             100.00     -880.00
04688             600.00     -960.00
04689             880.00    -1280.00
04690             260.00    -1280.00
04691           -1120.00    -1440.00
04692           -1760.00    -1200.00
04693            -140.00    -1440.00
04694            1080.00    -1920.00
04695            -120.00    -1440.00
04696             -80.00    -1840.00
04697             720.00    -2320.00
04698              80.00    -1600.00
04699            -100.00    -1920.00
04700              80.00    -2720.00
04701            -100.00    -2160.00
04702             320.00    -2080.00
04703             240.00    -2880.00
04704            -340.00    -2720.00
04705              80.00    -2400.00
04706             120.00    -2880.00
04707            -160.00    -3040.00
04708             340.00    -2960.00
04709             160.00    -2960.00
04710            -260.00    -3360.00
04711             260.00    -3440.00
04712             360.00    -3120.00
04713            -100.00    -3520.00
04714               0.00    -3840.00
04715             260.00    -3440.00
04716             140.00    -3520.00
04717             -60.00    -4080.00
04718             140.00    -3840.00
04719             220.00    -3760.00
04720             140.00    -4160.00
04721             140.00    -4240.00
04722             200.00    -4000.00
04723             100.00    -4240.00
04724             100.00    -4480.00
04725             240.00    -4320.00
04726             220.00    -4480.00
04727              60.00    -4720.00
04728             160.00    -4640.00
04729             300.00    -4480.00
04730             160.00    -4800.00
04731             180.00    -4800.00
04732             300.00    -4800.00
04733             220.00    -4880.00
04734             160.00    -5040.00
04735             240.00    -4960.00
04736             300.00    -4960.00
04737             220.00    -5200.00
04738             260.00    -5120.00
04739             300.00    -5120.00
04740             220.00    -5280.00
04741             300.00    -5360.00
04742             380.00    -5280.00
04743             340.00    -5280.00
04744             300.00    -5440.00
04745             340.00    -5360.00
04746             340.00    -5440.00
04747             300.00    -5600.00
04748             380.00    -5520.00
04749             420.00    -5440.00
04750             400.00    -5520.00
04751             420.00    -5600.00
04752             460.00    -5600.00
04753             420.00    -5600.00
04754             420.00    -5680.00
04755             500.00    -5680.00
04756             540.00    -5600.00
04757             500.00    -5680.00
04758             540.00    -5760.00
04759             560.00    -5680.00
04760             540.00    -5680.00
04761             560.00    -5680.00
04762             640.00    -5680.00
04763             640.00    -5680.00
04764             640.00    -5760.00
04765             700.00    -5680.00
04766             700.00    -5600.00
04767             680.00    -5600.00
04768             700.00    -5520.00
04769             780.00    -5600.00
04770             780.00    -5600.00
04771             780.00    -5520.00
04772             800.00    -5520.00
04773             800.00    -5520.00
04774             800.00    -5520.00
04775             820.00    -5440.00
04776             860.00    -5440.00
04777             820.00    -5440.00
04778             840.00    -5360.00
04779             820.00    -5280.00
04780             820.00    -5280.00
04781             820.00    -5280.00
04782             860.00    -5280.00
04783             860.00    -5200.00
04784             820.00    -5120.00
04785             800.00    -5120.00
04786             800.00    -5040.00
04787             800.00    -4960.00
04788             800.00    -5040.00
04789             800.00    -4960.00
04790             780.00    -4800.00
04791             720.00    -4800.00
04792             720.00    -4720.00
04793             720.00    -4640.00
04794             680.00    -4640.00
04795             700.00    -4480.00
04796             660.00    -4480.00
04797             620.00    -4480.00
04798             600.00    -4400.00
04799             580.00    -4320.00
04800             560.00    -4240.00
04801             540.00    -4160.00
04802             540.00    -4080.00
04803             500.00    -4000.00
04804             480.00    -3920.00
04805             460.00    -3840.00
04806             460.00    -3680.00
04807             420.00    -3680.00
04808             400.00    -3520.00
04809             400.00    -3520.00
04810             380.00    -3440.00
04811             360.00    -3360.00
04812             340.00    -3200.00
04813             300.00    -3120.00
04814             320.00    -3040.00
04815             300.00    -2880.00
04816             300.00    -2880.00
04817             280.00    -2800.00
04818             240.00    -2640.00
04819             240.00    -2640.00
04820             220.00    -2480.00
04821             220.00    -2400.00
04822             220.00    -2320.00
04823             220.00    -2160.00
04824             180.00    -2080.00
04825             180.00    -2000.00
04826             180.00    -1920.00
04827             160.00    -1840.00
04828             160.00    -1680.00
04829             160.00    -1520.00
04830             160.00    -1520.00
04831             140.00    -1440.00
04832             140.00    -1280.00
04833             120.00    -1120.00
04834             140.00    -1040.00
04835             120.00     -960.00
04836             100.00     -800.00
04837             100.00     -640.00
04838              80.00     -640.00
04839              80.00     -560.00
04840              60.00     -400.00
04841              60.00     -320.00
04842              60.00     -240.00
04843              80.00      -80.00
04844              80.00        0.00
04845              60.00       80.00
04846              60.00      320.00
04847              80.00      320.00
04848             120.00      480.00
04849             140.00      480.00
04850             120.00      640.00
04851              60.00      640.00
04852              60.00      800.00
04853              60.00      960.00
04854             180.00     1040.00
04855             800.00     1280.00
04856             960.00     1440.00
04857             -20.00     1440.00
04858           -1900.00     1280.00
04859           -1660.00     1440.00
04860             740.00     1920.00
04861            1000.00     2000.00
04862            -520.00     1760.00
04863             160.00     1680.00
04864             880.00     2080.00
04865            -540.00     2720.00
04866            -500.00     2000.00
04867             380.00     2080.00
04868              80.00     3040.00
04869              20.00     2560.00
04870            -200.00     2080.00
04871            -240.00     3200.00
04872             220.00     3200.00
04873            -400.00     2320.00
04874            -200.00     3280.00
04875             540.00     3360.00
04876            -420.00     2960.00
04877            -380.00     3360.00
04878             460.00     3440.00
04879            -240.00     3600.00
04880            -300.00     3600.00
04881              80.00     3440.00
04882            -120.00     4160.00
04883            -120.00     3840.00
04884            -220.00     3600.00
04885            -100.00     4480.00
04886               0.00     4000.00
04887            -240.00     3920.00
04888             -60.00     4400.00
04889            -100.00     4320.00
04890            -260.00     4480.00
04891            -140.00     4400.00
04892            -140.00     4560.00
04893            -160.00     4720.00
04894            -240.00     4480.00
04895            -200.00     4960.00
04896            -160.00     4880.00
04897            -260.00     4800.00
04898            -100.00     5120.00
04899            -160.00     4960.00
04900            -300.00     5040.00
04901            -240.00     5120.00
04902            -240.00     5200.00
04903            -240.00     5280.00
04904            -240.00     5200.00
04905            -260.00     5440.00
04906            -320.00     5360.00
04907            -320.00     5280.00
04908            -240.00     5520.00
04909            -280.00     5520.00
04910            -340.00     5520.00
04911            -320.00     5520.00
04912            -340.00     5600.00
04913            -400.00     5600.00
04914            -380.00     5600.00
04915            -360.00     5760.00
04916            -380.00     5760.00
04917            -400.00     5760.00
04918            -360.00     5840.00
04919            -420.00     5840.00
04920            -500.00     5760.00
04921            -460.00     5840.00
04922            -420.00     5920.00
04923            -500.00     5840.00
04924            -520.00     5840.00
04925            -500.00     5840.00
04926            -560.00     5920.00
04927            -620.00     5840.00
04928            -580.00     5920.00
04929            -580.00     5920.00
04930            -640.00     5840.00
04931            -640.00     5920.00
04932            -640.00     5840.00
04933            -700.00     5840.00
04934            -740.00     5760.00
04935            -720.00     5840.00
04936            -720.00     5840.00
04937            -740.00     5760.00
04938            -780.00     5760.00
04939            -780.00     5760.00
04940            -820.00     5760.00
04941            -820.00     5760.00
04942            -800.00     5760.00
04943            -820.00     5600.00
04944            -820.00     5680.00
04945            -800.00     5600.00
04946            -820.00     5600.00
04947            -880.00     5520.00
04948            -860.00     5520.00
04949            -840.00     5440.00
04950            -820.00     5440.00
04951            -840.00     5440.00
04952            -820.00     5280.00
04953            -820.00     5280.00
04954            -800.00     5200.00
04955            -780.00     5120.00
04956            -780.00     5120.00
04957            -780.00     5040.00
04958            -760.00     4960.00
04959            -740.00     4960.00
04960            -740.00     4880.00
04961            -720.00     4880.00
04962            -680.00     4800.00
04963            -640.00     4640.00
04964            -660.00     4640.00
04965            -620.00     4560.00
04966            -620.00     4480.00
04967            -580.00     4480.00
04968            -560.00     4320.00
04969            -520.00     4320.00
04970            -540.00     4160.00
04971            -500.00     4000.00
04972            -480.00     4000.00
04973            -480.00     3920.00
04974            -460.00     3840.00
04975            -420.00     3840.00
04976            -400.00     3760.00
04977            -380.00     3600.00
04978            -340.00     3520.00
04979            -340.00     3440.00
04980            -340.00     3280.00
04981            -360.00     3200.00
04982            -320.00     3200.00
04983            -300.00     3040.00
04984            -320.00     2960.00
04985            -260.00     2880.00
04986            -260.00     2800.00
04987            -260.00     2720.00
04988            -220.00     2560.00
04989            -200.00     2480.00
04990            -220.00     2400.00
04991            -220.00     2320.00
04992            -180.00     2240.00
04993            -200.00     2080.00
04994            -180.00     1920.00
04995            -180.00     1920.00
04996            -160.00     1760.00
04997            -140.00     1680.00
04998            -140.00     1600.00
04999            -140.00     1440.00
05000            -140.00     1360.00
