Unit:(mV)
                     CH1         CH2
Frequency              ? 298.941 kHz
00001             320.00    -1400.00
00002            1000.00    -1800.00
00003             920.00    -2200.00
00004            -120.00    -2400.00
00005           -1120.00    -2600.00
00006           -1480.00    -2600.00
00007           -1120.00    -2200.00
00008             440.00    -3000.00
00009             440.00    -3000.00
00010             200.00    -3000.00
00011             640.00    -3800.00
00012             120.00    -3400.00
00013              40.00    -3600.00
00014             120.00    -4200.00
00015            -160.00    -4000.00
00016             280.00    -4600.00
00017             200.00    -4600.00
00018            -200.00    -4800.00
00019             -40.00    -5000.00
00020             -40.00    -4600.00
00021             120.00    -5200.00
00022             120.00    -5400.00
00023             160.00    -5400.00
00024              40.00    -5800.00
00025              40.00    -5600.00
00026             280.00    -6200.00
00027             120.00    -6000.00
00028              80.00    -6400.00
00029             120.00    -6600.00
00030             160.00    -6200.00
00031             120.00    -6800.00
00032              40.00    -6800.00
00033             160.00    -7000.00
00034             240.00    -7000.00
00035             160.00    -7200.00
00036             160.00    -7400.00
00037             200.00    -7200.00
00038             200.00    -7800.00
00039             200.00    -7800.00
00040             200.00    -7800.00
00041             200.00    -8200.00
00042             160.00    -8200.00
00043             280.00    -8200.00
00044             320.00    -8200.00
00045             280.00    -8400.00
00046             320.00    -8600.00
00047             320.00    -8600.00
00048             280.00    -8600.00
00049             280.00    -8600.00
00050             320.00    -8800.00
00051             360.00    -9000.00
00052             360.00    -9000.00
00053             360.00    -9200.00
00054             360.00    -9200.00
00055             360.00    -9200.00
00056             440.00    -9400.00
00057             520.00    -9400.00
00058             480.00    -9400.00
00059             440.00    -9400.00
00060             480.00    -9400.00
00061             520.00    -9600.00
00062             480.00    -9800.00
00063             600.00    -9600.00
00064             640.00    -9800.00
00065             640.00    -9800.00
00066             640.00    -9800.00
00067             680.00    -9800.00
00068             680.00    -9800.00
00069             760.00    -9800.00
00070             800.00   -10000.00
00071             840.00   -10000.00
00072             840.00   -10000.00
00073             880.00   -10000.00
00074             960.00    -9800.00
00075             960.00    -9800.00
00076            1080.00   -10000.00
00077            1120.00    -9800.00
00078            1160.00   -10000.00
00079            1240.00   -10000.00
00080            1280.00    -9800.00
00081            1320.00    -9800.00
00082            1400.00   -10000.00
00083            1440.00    -9800.00
00084            1480.00    -9800.00
00085            1520.00    -9800.00
00086            1560.00    -9800.00
00087            1560.00    -9800.00
00088            1560.00    -9800.00
00089            1600.00    -9800.00
00090            1600.00    -9600.00
00091            1600.00    -9400.00
00092            1600.00    -9400.00
00093            1560.00    -9400.00
00094            1560.00    -9400.00
00095            1480.00    -9400.00
00096            1440.00    -9200.00
00097            1400.00    -9200.00
00098            1360.00    -9000.00
00099            1280.00    -9000.00
00100            1240.00    -8800.00
00101            1120.00    -8800.00
00102            1080.00    -8600.00
00103            1000.00    -8800.00
00104             960.00    -8400.00
00105             920.00    -8400.00
00106             800.00    -8400.00
00107             760.00    -8200.00
00108             760.00    -8200.00
00109             680.00    -8000.00
00110             640.00    -7800.00
00111             640.00    -7800.00
00112             600.00    -7600.00
00113             520.00    -7600.00
00114             480.00    -7400.00
00115             440.00    -7200.00
00116             440.00    -7200.00
00117             440.00    -7000.00
00118             440.00    -7000.00
00119             360.00    -6800.00
00120             320.00    -6600.00
00121             320.00    -6400.00
00122             320.00    -6200.00
00123             320.00    -6200.00
00124             280.00    -6000.00
00125             280.00    -5800.00
00126             280.00    -5800.00
00127             280.00    -5600.00
00128             200.00    -5400.00
00129             240.00    -5200.00
00130             200.00    -5200.00
00131             200.00    -5000.00
00132             200.00    -4800.00
00133             160.00    -4600.00
00134             160.00    -4400.00
00135             120.00    -4400.00
00136             160.00    -4200.00
00137             160.00    -3800.00
00138             160.00    -3800.00
00139             120.00    -3600.00
00140             160.00    -3400.00
00141             120.00    -3200.00
00142             120.00    -3000.00
00143             120.00    -2800.00
00144             120.00    -2600.00
00145             120.00    -2600.00
00146             120.00    -2400.00
00147              40.00    -2200.00
00148             120.00    -2000.00
00149             120.00    -1800.00
00150              40.00    -1600.00
00151              80.00    -1400.00
00152              40.00    -1200.00
00153              40.00    -1000.00
00154              40.00     -800.00
00155              40.00     -600.00
00156              40.00     -400.00
00157              40.00     -200.00
00158               0.00     -200.00
00159              40.00      200.00
00160               0.00      200.00
00161             120.00      600.00
00162             200.00      600.00
00163             200.00      600.00
00164             160.00     1000.00
00165             120.00     1200.00
00166              40.00     1200.00
00167             120.00     1400.00
00168             600.00     1800.00
00169            1280.00     2000.00
00170             800.00     2000.00
00171            -640.00     2200.00
00172           -1760.00     2200.00
00173           -1880.00     2600.00
00174               0.00     3200.00
00175             920.00     2800.00
00176             120.00     3200.00
00177             600.00     3400.00
00178             360.00     3200.00
00179            -320.00     4200.00
00180               0.00     3600.00
00181            -280.00     3800.00
00182             280.00     4600.00
00183             200.00     3800.00
00184            -480.00     4600.00
00185              40.00     5000.00
00186            -160.00     4600.00
00187            -200.00     5200.00
00188              80.00     5000.00
00189               0.00     5600.00
00190               0.00     5600.00
00191            -200.00     5400.00
00192               0.00     6200.00
00193             -40.00     5800.00
00194            -200.00     6200.00
00195             -40.00     6200.00
00196            -120.00     6400.00
00197            -120.00     6800.00
00198            -200.00     6600.00
00199            -160.00     7200.00
00200            -120.00     6800.00
00201            -160.00     7000.00
00202            -120.00     7400.00
00203            -200.00     7400.00
00204            -200.00     7600.00
00205            -280.00     7600.00
00206            -160.00     7800.00
00207            -200.00     7800.00
00208            -240.00     8200.00
00209            -280.00     8200.00
00210            -280.00     8200.00
00211            -200.00     8400.00
00212            -200.00     8400.00
00213            -200.00     8400.00
00214            -320.00     8600.00
00215            -320.00     8600.00
00216            -320.00     9000.00
00217            -320.00     8800.00
00218            -320.00     9200.00
00219            -320.00     9000.00
00220            -440.00     9200.00
00221            -440.00     9200.00
00222            -360.00     9400.00
00223            -440.00     9400.00
00224            -440.00     9400.00
00225            -480.00     9400.00
00226            -480.00     9600.00
00227            -520.00     9400.00
00228            -520.00     9600.00
00229            -520.00     9800.00
00230            -520.00     9800.00
00231            -600.00     9800.00
00232            -600.00    10000.00
00233            -640.00     9800.00
00234            -680.00     9800.00
00235            -680.00    10000.00
00236            -760.00    10000.00
00237            -760.00    10000.00
00238            -800.00    10000.00
00239            -840.00    10000.00
00240            -920.00    10200.00
00241            -960.00    10000.00
00242           -1000.00    10000.00
00243           -1000.00    10000.00
00244           -1080.00    10000.00
00245           -1160.00    10000.00
00246           -1240.00    10200.00
00247           -1280.00    10000.00
00248           -1400.00    10000.00
00249           -1400.00    10000.00
00250           -1440.00    10000.00
00251           -1480.00     9800.00
00252           -1480.00     9800.00
00253           -1560.00     9800.00
00254           -1600.00     9800.00
00255           -1600.00     9800.00
00256           -1600.00     9800.00
00257           -1600.00     9800.00
00258           -1600.00     9800.00
00259           -1600.00     9600.00
00260           -1560.00     9400.00
00261           -1560.00     9400.00
00262           -1560.00     9400.00
00263           -1480.00     9400.00
00264           -1400.00     9400.00
00265           -1360.00     9200.00
00266           -1320.00     9000.00
00267           -1280.00     9000.00
00268           -1160.00     9000.00
00269           -1120.00     8600.00
00270           -1080.00     8600.00
00271            -960.00     8600.00
00272            -920.00     8400.00
00273            -840.00     8200.00
00274            -840.00     8400.00
00275            -800.00     8200.00
00276            -720.00     8200.00
00277            -680.00     8000.00
00278            -640.00     7800.00
00279            -600.00     7600.00
00280            -600.00     7600.00
00281            -520.00     7600.00
00282            -520.00     7400.00
00283            -480.00     7400.00
00284            -440.00     7000.00
00285            -440.00     6800.00
00286            -440.00     6800.00
00287            -360.00     6600.00
00288            -360.00     6600.00
00289            -320.00     6400.00
00290            -320.00     6200.00
00291            -320.00     6000.00
00292            -280.00     6000.00
00293            -320.00     5800.00
00294            -280.00     5600.00
00295            -280.00     5600.00
00296            -200.00     5400.00
00297            -240.00     5200.00
00298            -200.00     5000.00
00299            -200.00     5000.00
00300            -200.00     4600.00
00301            -200.00     4400.00
00302            -200.00     4400.00
00303            -160.00     4200.00
00304            -160.00     4000.00
00305            -160.00     3800.00
00306            -120.00     3600.00
00307            -160.00     3400.00
00308            -160.00     3400.00
00309            -160.00     3200.00
00310            -120.00     3000.00
00311            -120.00     2800.00
00312            -120.00     2600.00
00313            -120.00     2400.00
00314            -160.00     2200.00
00315            -120.00     2000.00
00316            -120.00     1800.00
00317             -40.00     1600.00
00318             -80.00     1600.00
00319             -80.00     1200.00
00320            -120.00     1200.00
00321             -80.00     1000.00
00322             -80.00      600.00
00323             -40.00      600.00
00324             -40.00      400.00
00325             -40.00      200.00
00326             -40.00      200.00
00327             -40.00     -200.00
00328               0.00     -400.00
00329             120.00     -600.00
00330             120.00     -600.00
00331              40.00     -600.00
00332               0.00    -1200.00
00333               0.00    -1200.00
00334               0.00    -1400.00
00335             120.00    -1400.00
00336             640.00    -1800.00
00337            1080.00    -2200.00
00338             480.00    -2200.00
00339            -640.00    -2600.00
00340           -1320.00    -2600.00
00341           -1480.00    -2600.00
00342            -320.00    -2600.00
00343             680.00    -3400.00
00344             160.00    -3000.00
00345             480.00    -3400.00
00346             480.00    -3800.00
00347             -40.00    -3400.00
00348             200.00    -4200.00
00349             -40.00    -4200.00
00350               0.00    -4200.00
00351             360.00    -4400.00
00352             -40.00    -4400.00
00353            -120.00    -5000.00
00354             -40.00    -4800.00
00355               0.00    -5000.00
00356             120.00    -5400.00
00357             120.00    -5200.00
00358             120.00    -5800.00
00359               0.00    -5600.00
00360             160.00    -5800.00
00361             200.00    -6200.00
00362              80.00    -6000.00
00363             160.00    -6600.00
00364             160.00    -6200.00
00365             160.00    -6600.00
00366              40.00    -6800.00
00367             120.00    -6800.00
00368             200.00    -7000.00
00369             200.00    -7000.00
00370             160.00    -7400.00
00371             200.00    -7200.00
00372             200.00    -7400.00
00373             200.00    -7800.00
00374             280.00    -7800.00
00375             200.00    -7800.00
00376             200.00    -7800.00
00377             200.00    -8200.00
00378             280.00    -8400.00
00379             280.00    -8400.00
00380             280.00    -8600.00
00381             320.00    -8600.00
00382             280.00    -8600.00
00383             280.00    -8800.00
00384             320.00    -8600.00
00385             360.00    -9000.00
00386             360.00    -9000.00
00387             320.00    -9000.00
00388             360.00    -9000.00
00389             360.00    -9200.00
00390             360.00    -9200.00
00391             440.00    -9400.00
00392             440.00    -9200.00
00393             440.00    -9600.00
00394             480.00    -9400.00
00395             480.00    -9600.00
00396             480.00    -9600.00
00397             520.00    -9600.00
00398             600.00    -9800.00
00399             640.00    -9800.00
00400             640.00    -9800.00
00401             640.00    -9800.00
00402             640.00    -9800.00
00403             680.00    -9800.00
00404             760.00    -9800.00
00405             800.00   -10000.00
00406             840.00   -10000.00
00407             840.00   -10000.00
00408             920.00   -10000.00
00409             960.00   -10000.00
00410            1000.00   -10000.00
00411            1080.00   -10000.00
00412            1160.00   -10000.00
00413            1160.00   -10000.00
00414            1240.00   -10000.00
00415            1280.00    -9800.00
00416            1280.00   -10000.00
00417            1400.00    -9800.00
00418            1480.00   -10000.00
00419            1560.00    -9800.00
00420            1560.00    -9800.00
00421            1520.00    -9800.00
00422            1560.00    -9600.00
00423            1600.00    -9600.00
00424            1600.00    -9800.00
00425            1600.00    -9400.00
00426            1600.00    -9400.00
00427            1560.00    -9400.00
00428            1560.00    -9400.00
00429            1480.00    -9400.00
00430            1480.00    -9200.00
00431            1440.00    -9200.00
00432            1400.00    -9200.00
00433            1280.00    -9000.00
00434            1240.00    -9000.00
00435            1160.00    -9000.00
00436            1120.00    -8600.00
00437            1080.00    -8600.00
00438            1000.00    -8400.00
00439             960.00    -8600.00
00440             840.00    -8400.00
00441             800.00    -8400.00
00442             760.00    -8200.00
00443             680.00    -7800.00
00444             680.00    -7800.00
00445             640.00    -7800.00
00446             600.00    -7800.00
00447             520.00    -7600.00
00448             520.00    -7200.00
00449             480.00    -7200.00
00450             480.00    -7200.00
00451             440.00    -7000.00
00452             440.00    -7000.00
00453             440.00    -6800.00
00454             360.00    -6600.00
00455             360.00    -6600.00
00456             320.00    -6600.00
00457             320.00    -6200.00
00458             320.00    -6200.00
00459             280.00    -6000.00
00460             280.00    -5800.00
00461             280.00    -5600.00
00462             280.00    -5400.00
00463             240.00    -5400.00
00464             240.00    -5200.00
00465             200.00    -5000.00
00466             200.00    -5000.00
00467             160.00    -4600.00
00468             160.00    -4600.00
00469             160.00    -4400.00
00470             160.00    -4200.00
00471             160.00    -4200.00
00472             160.00    -3800.00
00473             160.00    -3600.00
00474             120.00    -3600.00
00475             120.00    -3400.00
00476             120.00    -3200.00
00477             120.00    -3000.00
00478             120.00    -2800.00
00479             120.00    -2600.00
00480             120.00    -2400.00
00481             120.00    -2200.00
00482             120.00    -2000.00
00483              80.00    -2000.00
00484             120.00    -1800.00
00485             120.00    -1400.00
00486              40.00    -1400.00
00487              40.00    -1200.00
00488              40.00     -800.00
00489              40.00     -600.00
00490              40.00     -600.00
00491              40.00     -400.00
00492              40.00     -200.00
00493              40.00        0.00
00494              80.00      200.00
00495              40.00      400.00
00496             160.00      400.00
00497             200.00      600.00
00498             160.00     1000.00
00499             120.00     1000.00
00500              40.00     1200.00
00501              80.00     1400.00
00502             280.00     1600.00
00503            1000.00     2000.00
00504            1240.00     2000.00
00505             160.00     2200.00
00506           -1240.00     2200.00
00507           -2040.00     2400.00
00508           -1120.00     2800.00
00509             840.00     3000.00
00510             440.00     2600.00
00511             240.00     3400.00
00512             680.00     3000.00
00513            -120.00     3800.00
00514            -160.00     4200.00
00515            -120.00     3400.00
00516            -120.00     4600.00
00517             480.00     4400.00
00518            -200.00     4200.00
00519            -280.00     5000.00
00520              40.00     4600.00
00521            -320.00     5000.00
00522               0.00     5200.00
00523               0.00     5000.00
00524               0.00     6000.00
00525            -160.00     5400.00
00526            -200.00     5800.00
00527              80.00     6000.00
00528            -200.00     5800.00
00529            -120.00     6200.00
00530            -120.00     6000.00
00531            -160.00     6600.00
00532            -160.00     6600.00
00533            -240.00     6600.00
00534             -80.00     7000.00
00535            -160.00     6800.00
00536            -120.00     7000.00
00537            -160.00     7200.00
00538            -200.00     7600.00
00539            -240.00     7600.00
00540            -200.00     7800.00
00541            -160.00     7800.00
00542            -240.00     7800.00
00543            -280.00     8200.00
00544            -280.00     8200.00
00545            -280.00     8400.00
00546            -280.00     8200.00
00547            -200.00     8400.00
00548            -280.00     8600.00
00549            -360.00     8600.00
00550            -320.00     8800.00
00551            -320.00     8800.00
00552            -320.00     9000.00
00553            -320.00     9000.00
00554            -440.00     9200.00
00555            -440.00     9200.00
00556            -360.00     9200.00
00557            -360.00     9400.00
00558            -440.00     9400.00
00559            -440.00     9400.00
00560            -480.00     9400.00
00561            -520.00     9600.00
00562            -560.00     9800.00
00563            -520.00     9800.00
00564            -520.00     9800.00
00565            -600.00    10000.00
00566            -600.00     9800.00
00567            -640.00     9800.00
00568            -680.00    10000.00
00569            -680.00     9800.00
00570            -720.00    10000.00
00571            -760.00    10000.00
00572            -800.00    10000.00
00573            -840.00    10200.00
00574            -840.00    10000.00
00575            -960.00    10000.00
00576            -960.00    10000.00
00577           -1000.00    10000.00
00578           -1080.00    10000.00
00579           -1120.00    10200.00
00580           -1160.00    10000.00
00581           -1240.00    10000.00
00582           -1320.00    10000.00
00583           -1360.00    10000.00
00584           -1400.00    10000.00
00585           -1440.00    10000.00
00586           -1480.00     9800.00
00587           -1560.00    10000.00
00588           -1560.00     9800.00
00589           -1600.00     9800.00
00590           -1600.00     9800.00
00591           -1600.00     9800.00
00592           -1600.00     9800.00
00593           -1640.00     9800.00
00594           -1600.00     9400.00
00595           -1600.00     9400.00
00596           -1600.00     9400.00
00597           -1480.00     9200.00
00598           -1440.00     9200.00
00599           -1400.00     9000.00
00600           -1320.00     9000.00
00601           -1280.00     9200.00
00602           -1240.00     9000.00
00603           -1160.00     8800.00
00604           -1080.00     8600.00
00605           -1000.00     8600.00
00606            -960.00     8600.00
00607            -920.00     8400.00
00608            -840.00     8400.00
00609            -800.00     8200.00
00610            -760.00     8200.00
00611            -680.00     8000.00
00612            -640.00     7800.00
00613            -600.00     7800.00
00614            -600.00     7800.00
00615            -560.00     7400.00
00616            -520.00     7400.00
00617            -480.00     7200.00
00618            -440.00     7200.00
00619            -440.00     7000.00
00620            -440.00     7000.00
00621            -440.00     6800.00
00622            -400.00     6600.00
00623            -360.00     6400.00
00624            -320.00     6200.00
00625            -320.00     6200.00
00626            -320.00     6000.00
00627            -280.00     6000.00
00628            -280.00     5800.00
00629            -280.00     5600.00
00630            -200.00     5400.00
00631            -240.00     5200.00
00632            -200.00     5200.00
00633            -200.00     5000.00
00634            -200.00     4800.00
00635            -200.00     4600.00
00636            -200.00     4400.00
00637            -160.00     4200.00
00638            -160.00     4200.00
00639            -160.00     3800.00
00640            -160.00     3800.00
00641            -160.00     3600.00
00642            -120.00     3400.00
00643            -160.00     3200.00
00644            -120.00     3200.00
00645            -160.00     3000.00
00646            -120.00     2800.00
00647            -160.00     2600.00
00648            -120.00     2400.00
00649            -120.00     2200.00
00650             -80.00     2000.00
00651            -120.00     1800.00
00652            -120.00     1600.00
00653             -40.00     1400.00
00654            -120.00     1200.00
00655             -40.00     1000.00
00656            -120.00     1000.00
00657             -80.00      600.00
00658             -80.00      400.00
00659             -40.00      400.00
00660             -40.00        0.00
00661             -40.00     -200.00
00662               0.00     -200.00
00663              40.00     -400.00
00664             120.00     -600.00
00665             120.00     -600.00
00666              40.00    -1000.00
00667               0.00    -1000.00
00668             -40.00    -1200.00
00669              40.00    -1400.00
00670             320.00    -1400.00
00671             960.00    -2000.00
00672             960.00    -2200.00
00673            -120.00    -2200.00
00674           -1080.00    -2600.00
00675           -1480.00    -2600.00
00676           -1120.00    -2400.00
00677             440.00    -3000.00
00678             480.00    -3400.00
00679             200.00    -3000.00
00680             600.00    -3800.00
00681             120.00    -3400.00
00682              40.00    -3600.00
00683             120.00    -4200.00
00684            -160.00    -3800.00
00685             320.00    -4600.00
00686             200.00    -4600.00
00687            -160.00    -4600.00
00688             -40.00    -5000.00
00689             -40.00    -4800.00
00690             120.00    -5200.00
00691             120.00    -5400.00
00692             160.00    -5400.00
00693              40.00    -5800.00
00694              40.00    -5600.00
00695             200.00    -5800.00
00696             120.00    -6000.00
00697             120.00    -6200.00
00698             160.00    -6600.00
00699             160.00    -6200.00
00700             160.00    -6800.00
00701              80.00    -6800.00
00702             160.00    -6800.00
00703             280.00    -7000.00
00704             160.00    -7200.00
00705             160.00    -7400.00
00706             200.00    -7200.00
00707             200.00    -7600.00
00708             200.00    -7800.00
00709             280.00    -7800.00
00710             200.00    -8200.00
00711             160.00    -8200.00
00712             240.00    -8200.00
00713             320.00    -8200.00
00714             280.00    -8400.00
00715             320.00    -8600.00
00716             320.00    -8600.00
00717             280.00    -8600.00
00718             280.00    -8800.00
00719             320.00    -8800.00
00720             360.00    -9000.00
00721             360.00    -9000.00
00722             320.00    -9000.00
00723             320.00    -9200.00
00724             360.00    -9200.00
00725             440.00    -9200.00
00726             480.00    -9400.00
00727             480.00    -9400.00
00728             440.00    -9400.00
00729             440.00    -9600.00
00730             480.00    -9600.00
00731             480.00    -9800.00
00732             520.00    -9800.00
00733             600.00    -9800.00
00734             600.00    -9800.00
00735             640.00    -9800.00
00736             640.00    -9800.00
00737             680.00    -9800.00
00738             760.00   -10000.00
00739             800.00   -10000.00
00740             800.00   -10200.00
00741             840.00   -10000.00
00742             840.00   -10000.00
00743             960.00   -10000.00
00744            1000.00   -10000.00
00745            1080.00    -9800.00
00746            1120.00   -10000.00
00747            1160.00   -10000.00
00748            1240.00   -10000.00
00749            1240.00   -10000.00
00750            1320.00   -10000.00
00751            1400.00    -9800.00
00752            1440.00    -9800.00
00753            1480.00    -9800.00
00754            1560.00    -9800.00
00755            1560.00    -9600.00
00756            1600.00    -9800.00
00757            1600.00    -9600.00
00758            1600.00    -9800.00
00759            1600.00    -9600.00
00760            1600.00    -9400.00
00761            1600.00    -9400.00
00762            1560.00    -9400.00
00763            1480.00    -9400.00
00764            1480.00    -9200.00
00765            1480.00    -9200.00
00766            1400.00    -9200.00
00767            1320.00    -9000.00
00768            1280.00    -9000.00
00769            1200.00    -8800.00
00770            1160.00    -8800.00
00771            1120.00    -8800.00
00772            1000.00    -8600.00
00773             960.00    -8600.00
00774             920.00    -8600.00
00775             840.00    -8400.00
00776             760.00    -8200.00
00777             760.00    -8200.00
00778             680.00    -7800.00
00779             680.00    -7800.00
00780             640.00    -7800.00
00781             600.00    -7600.00
00782             520.00    -7400.00
00783             480.00    -7200.00
00784             480.00    -7000.00
00785             440.00    -7000.00
00786             440.00    -7000.00
00787             400.00    -6800.00
00788             360.00    -6600.00
00789             360.00    -6800.00
00790             320.00    -6400.00
00791             320.00    -6200.00
00792             320.00    -6200.00
00793             280.00    -6000.00
00794             280.00    -6000.00
00795             280.00    -5800.00
00796             280.00    -5400.00
00797             200.00    -5400.00
00798             240.00    -5200.00
00799             280.00    -5000.00
00800             160.00    -5000.00
00801             160.00    -4600.00
00802             160.00    -4600.00
00803             160.00    -4600.00
00804             160.00    -4400.00
00805             160.00    -4200.00
00806             160.00    -3800.00
00807             160.00    -3800.00
00808             160.00    -3400.00
00809             120.00    -3400.00
00810             120.00    -3200.00
00811             120.00    -3000.00
00812             120.00    -2800.00
00813             120.00    -2800.00
00814             160.00    -2600.00
00815             120.00    -2400.00
00816             120.00    -2200.00
00817             120.00    -2000.00
00818             120.00    -1800.00
00819             120.00    -1600.00
00820             120.00    -1400.00
00821              80.00    -1200.00
00822              40.00    -1000.00
00823              40.00     -800.00
00824              40.00     -600.00
00825              80.00     -400.00
00826              40.00     -200.00
00827             120.00        0.00
00828              40.00      200.00
00829              40.00      200.00
00830             120.00      400.00
00831             160.00      600.00
00832             160.00      800.00
00833             160.00     1000.00
00834             120.00     1200.00
00835             120.00     1200.00
00836             160.00     1400.00
00837             520.00     1800.00
00838            1320.00     2000.00
00839             800.00     2200.00
00840            -560.00     2000.00
00841           -1720.00     2200.00
00842           -1920.00     2600.00
00843               0.00     3000.00
00844             960.00     3000.00
00845             120.00     3200.00
00846             600.00     3200.00
00847             360.00     3400.00
00848            -320.00     4400.00
00849             -40.00     3600.00
00850            -280.00     3800.00
00851             200.00     4600.00
00852             280.00     4000.00
00853            -440.00     4600.00
00854              40.00     5000.00
00855            -120.00     4600.00
00856            -200.00     5400.00
00857              80.00     4800.00
00858            -120.00     5400.00
00859            -120.00     5600.00
00860            -360.00     5400.00
00861             -40.00     6200.00
00862             -40.00     5800.00
00863            -160.00     6200.00
00864              40.00     6200.00
00865             -40.00     6200.00
00866             -40.00     6800.00
00867            -280.00     6400.00
00868            -200.00     7000.00
00869            -200.00     6800.00
00870            -200.00     7000.00
00871            -200.00     7400.00
00872            -200.00     7400.00
00873            -160.00     7600.00
00874            -200.00     7600.00
00875             -40.00     7800.00
00876            -200.00     7800.00
00877            -200.00     8000.00
00878            -320.00     8200.00
00879            -320.00     8200.00
00880            -320.00     8400.00
00881            -320.00     8400.00
00882            -200.00     8600.00
00883            -280.00     8400.00
00884            -280.00     8600.00
00885            -200.00     8800.00
00886            -240.00     8800.00
00887            -320.00     9000.00
00888            -360.00     9000.00
00889            -480.00     9200.00
00890            -480.00     9400.00
00891            -480.00     9200.00
00892            -440.00     9400.00
00893            -440.00     9400.00
00894            -400.00     9600.00
00895            -360.00     9800.00
00896            -440.00     9600.00
00897            -520.00     9800.00
00898            -520.00     9800.00
00899            -600.00    10000.00
00900            -640.00     9800.00
00901            -640.00    10000.00
00902            -640.00     9800.00
00903            -680.00     9800.00
00904            -640.00    10000.00
00905            -680.00    10000.00
00906            -760.00    10000.00
00907            -800.00    10000.00
00908            -840.00    10000.00
00909            -960.00    10000.00
00910            -960.00    10000.00
00911           -1000.00    10000.00
00912           -1000.00    10000.00
00913           -1080.00    10000.00
00914           -1120.00    10200.00
00915           -1160.00    10000.00
00916           -1280.00    10000.00
00917           -1320.00    10000.00
00918           -1440.00    10000.00
00919           -1480.00     9800.00
00920           -1480.00     9800.00
00921           -1560.00     9800.00
00922           -1560.00    10000.00
00923           -1560.00     9800.00
00924           -1600.00     9800.00
00925           -1600.00     9800.00
00926           -1600.00     9600.00
00927           -1600.00     9400.00
00928           -1600.00     9400.00
00929           -1600.00     9600.00
00930           -1600.00     9400.00
00931           -1560.00     9400.00
00932           -1480.00     9400.00
00933           -1400.00     9200.00
00934           -1320.00     9200.00
00935           -1280.00     9000.00
00936           -1280.00     9000.00
00937           -1160.00     8800.00
00938           -1120.00     9000.00
00939           -1080.00     8600.00
00940           -1000.00     8600.00
00941            -960.00     8600.00
00942            -920.00     8400.00
00943            -840.00     8400.00
00944            -760.00     8200.00
00945            -680.00     8200.00
00946            -640.00     8000.00
00947            -640.00     7800.00
00948            -600.00     7800.00
00949            -600.00     7600.00
00950            -520.00     7600.00
00951            -520.00     7400.00
00952            -440.00     7200.00
00953            -440.00     7000.00
00954            -440.00     7000.00
00955            -440.00     6800.00
00956            -360.00     6600.00
00957            -360.00     6600.00
00958            -320.00     6600.00
00959            -320.00     6200.00
00960            -320.00     6200.00
00961            -280.00     5800.00
00962            -280.00     5800.00
00963            -280.00     5800.00
00964            -280.00     5400.00
00965            -200.00     5400.00
00966            -200.00     5200.00
00967            -200.00     5000.00
00968            -200.00     5000.00
00969            -200.00     4800.00
00970            -200.00     4600.00
00971            -200.00     4400.00
00972            -160.00     4000.00
00973            -160.00     4200.00
00974            -160.00     3800.00
00975            -160.00     3800.00
00976            -160.00     3600.00
00977            -120.00     3400.00
00978            -160.00     3200.00
00979            -160.00     3000.00
00980            -120.00     2800.00
00981            -120.00     2800.00
00982            -160.00     2400.00
00983            -120.00     2200.00
00984            -120.00     2000.00
00985            -120.00     1800.00
00986            -120.00     1800.00
00987             -80.00     1600.00
00988            -120.00     1200.00
00989            -120.00     1200.00
00990            -120.00     1000.00
00991             -80.00      800.00
00992             -40.00      600.00
00993             -40.00      600.00
00994             -40.00        0.00
00995             -40.00      200.00
00996             -40.00     -200.00
00997               0.00     -200.00
00998             120.00     -600.00
00999             120.00     -600.00
01000              40.00    -1000.00
01001               0.00    -1000.00
01002               0.00    -1200.00
01003               0.00    -1400.00
01004             120.00    -1400.00
01005             640.00    -1800.00
01006            1120.00    -2200.00
01007             520.00    -2200.00
01008            -640.00    -2600.00
01009           -1320.00    -2800.00
01010           -1560.00    -2400.00
01011            -360.00    -2600.00
01012             680.00    -3200.00
01013             200.00    -3000.00
01014             440.00    -3400.00
01015             520.00    -3800.00
01016               0.00    -3200.00
01017             200.00    -4000.00
01018             -40.00    -4200.00
01019               0.00    -4200.00
01020             440.00    -4600.00
01021             -40.00    -4400.00
01022            -120.00    -5000.00
01023             -40.00    -4800.00
01024              40.00    -5000.00
01025             120.00    -5400.00
01026             160.00    -5200.00
01027             200.00    -5600.00
01028               0.00    -5800.00
01029             200.00    -5800.00
01030             240.00    -6200.00
01031              80.00    -6000.00
01032             160.00    -6600.00
01033             160.00    -6200.00
01034             160.00    -6600.00
01035             120.00    -6800.00
01036             120.00    -6800.00
01037             280.00    -7200.00
01038             160.00    -7000.00
01039             160.00    -7400.00
01040             200.00    -7400.00
01041             200.00    -7600.00
01042             200.00    -7800.00
01043             240.00    -7800.00
01044             200.00    -7800.00
01045             160.00    -8000.00
01046             160.00    -8200.00
01047             280.00    -8200.00
01048             280.00    -8400.00
01049             280.00    -8600.00
01050             320.00    -8600.00
01051             280.00    -8600.00
01052             280.00    -8800.00
01053             320.00    -9000.00
01054             360.00    -9000.00
01055             360.00    -9000.00
01056             360.00    -9000.00
01057             320.00    -9200.00
01058             360.00    -9200.00
01059             440.00    -9400.00
01060             440.00    -9400.00
01061             480.00    -9400.00
01062             440.00    -9400.00
01063             440.00    -9600.00
01064             480.00    -9800.00
01065             480.00    -9800.00
01066             520.00    -9800.00
01067             600.00    -9800.00
01068             640.00    -9800.00
01069             640.00    -9800.00
01070             640.00    -9800.00
01071             640.00    -9800.00
01072             680.00   -10000.00
01073             760.00    -9800.00
01074             800.00    -9800.00
01075             840.00   -10000.00
01076             840.00   -10000.00
01077             920.00   -10000.00
01078             960.00   -10000.00
01079            1000.00   -10000.00
01080            1080.00    -9800.00
01081            1160.00    -9800.00
01082            1240.00   -10000.00
01083            1240.00   -10000.00
01084            1280.00    -9800.00
01085            1320.00   -10000.00
01086            1400.00    -9800.00
01087            1560.00   -10000.00
01088            1560.00    -9800.00
01089            1560.00    -9800.00
01090            1560.00    -9800.00
01091            1600.00    -9800.00
01092            1560.00    -9600.00
01093            1600.00    -9400.00
01094            1640.00    -9400.00
01095            1600.00    -9400.00
01096            1560.00    -9400.00
01097            1560.00    -9400.00
01098            1480.00    -9200.00
01099            1480.00    -9200.00
01100            1440.00    -9200.00
01101            1400.00    -9200.00
01102            1320.00    -9000.00
01103            1240.00    -9000.00
01104            1160.00    -9000.00
01105            1120.00    -8600.00
01106            1080.00    -8800.00
01107            1000.00    -8600.00
01108             960.00    -8400.00
01109             920.00    -8400.00
01110             760.00    -8400.00
01111             760.00    -8200.00
01112             680.00    -8200.00
01113             640.00    -7800.00
01114             640.00    -7800.00
01115             600.00    -7800.00
01116             520.00    -7600.00
01117             480.00    -7400.00
01118             480.00    -7200.00
01119             440.00    -7000.00
01120             440.00    -7000.00
01121             400.00    -7000.00
01122             360.00    -6800.00
01123             360.00    -6600.00
01124             320.00    -6600.00
01125             320.00    -6400.00
01126             280.00    -6200.00
01127             280.00    -6000.00
01128             280.00    -6000.00
01129             280.00    -5800.00
01130             240.00    -5600.00
01131             200.00    -5400.00
01132             200.00    -5400.00
01133             240.00    -5400.00
01134             200.00    -5200.00
01135             160.00    -5000.00
01136             160.00    -4600.00
01137             160.00    -4400.00
01138             160.00    -4200.00
01139             160.00    -4200.00
01140             160.00    -4000.00
01141             160.00    -3800.00
01142             120.00    -3600.00
01143             120.00    -3400.00
01144             120.00    -3400.00
01145             120.00    -3000.00
01146             120.00    -3000.00
01147             120.00    -2600.00
01148             120.00    -2600.00
01149             120.00    -2400.00
01150             120.00    -2200.00
01151              40.00    -2000.00
01152             120.00    -2000.00
01153             120.00    -1800.00
01154             120.00    -1400.00
01155             120.00    -1200.00
01156              40.00    -1000.00
01157              40.00     -800.00
01158              80.00     -800.00
01159              40.00     -600.00
01160              40.00     -400.00
01161              40.00     -200.00
01162              80.00        0.00
01163             120.00      200.00
01164              40.00      400.00
01165             120.00      600.00
01166             160.00      600.00
01167             160.00     1000.00
01168             160.00     1000.00
01169             120.00     1200.00
01170              40.00     1400.00
01171             200.00     1400.00
01172             960.00     2000.00
01173            1280.00     2000.00
01174             200.00     2200.00
01175           -1160.00     2200.00
01176           -2080.00     2200.00
01177           -1160.00     3000.00
01178             800.00     3000.00
01179             480.00     2600.00
01180             200.00     3400.00
01181             640.00     3200.00
01182            -120.00     3600.00
01183            -160.00     4200.00
01184            -160.00     3400.00
01185            -160.00     4600.00
01186             440.00     4200.00
01187            -200.00     4000.00
01188            -280.00     5000.00
01189              40.00     4600.00
01190            -320.00     5200.00
01191             -40.00     5200.00
01192               0.00     5000.00
01193               0.00     6000.00
01194            -120.00     5400.00
01195            -200.00     5800.00
01196              40.00     6000.00
01197            -200.00     5800.00
01198            -120.00     6600.00
01199             -80.00     6200.00
01200            -160.00     6600.00
01201            -200.00     6600.00
01202            -280.00     6600.00
01203             -80.00     7400.00
01204            -120.00     6800.00
01205            -120.00     7200.00
01206            -200.00     7400.00
01207            -200.00     7600.00
01208            -240.00     7600.00
01209            -200.00     7800.00
01210            -160.00     7800.00
01211            -200.00     7800.00
01212            -280.00     8200.00
01213            -320.00     8200.00
01214            -280.00     8200.00
01215            -200.00     8400.00
01216            -200.00     8600.00
01217            -280.00     8600.00
01218            -320.00     8600.00
01219            -320.00     8800.00
01220            -320.00     9000.00
01221            -320.00     9000.00
01222            -320.00     8800.00
01223            -360.00     9200.00
01224            -440.00     9400.00
01225            -400.00     9200.00
01226            -360.00     9400.00
01227            -360.00     9400.00
01228            -440.00     9400.00
01229            -480.00     9600.00
01230            -480.00     9600.00
01231            -520.00     9800.00
01232            -520.00     9800.00
01233            -520.00     9800.00
01234            -520.00     9800.00
01235            -600.00     9800.00
01236            -640.00    10000.00
01237            -680.00    10000.00
01238            -680.00    10000.00
01239            -720.00    10000.00
01240            -760.00    10000.00
01241            -800.00    10000.00
01242            -840.00    10000.00
01243            -880.00    10200.00
01244            -960.00    10000.00
01245            -960.00    10000.00
01246           -1000.00    10000.00
01247           -1080.00    10000.00
01248           -1120.00    10000.00
01249           -1160.00    10000.00
01250           -1280.00    10000.00
01251           -1320.00    10000.00
01252           -1400.00    10000.00
01253           -1400.00    10000.00
01254           -1440.00    10000.00
01255           -1480.00     9800.00
01256           -1560.00     9800.00
01257           -1600.00     9800.00
01258           -1600.00     9800.00
01259           -1600.00     9800.00
01260           -1600.00     9800.00
01261           -1600.00     9800.00
01262           -1600.00     9800.00
01263           -1600.00     9400.00
01264           -1600.00     9400.00
01265           -1560.00     9400.00
01266           -1480.00     9200.00
01267           -1440.00     9400.00
01268           -1400.00     9200.00
01269           -1320.00     9200.00
01270           -1320.00     9200.00
01271           -1240.00     9000.00
01272           -1160.00     8600.00
01273           -1080.00     8800.00
01274           -1000.00     8600.00
01275            -960.00     8600.00
01276            -920.00     8600.00
01277            -840.00     8400.00
01278            -800.00     8200.00
01279            -760.00     8200.00
01280            -680.00     8000.00
01281            -640.00     7800.00
01282            -640.00     7800.00
01283            -600.00     7600.00
01284            -600.00     7600.00
01285            -520.00     7400.00
01286            -480.00     7200.00
01287            -440.00     7200.00
01288            -400.00     7000.00
01289            -440.00     7000.00
01290            -360.00     6800.00
01291            -360.00     6600.00
01292            -320.00     6600.00
01293            -320.00     6400.00
01294            -320.00     6200.00
01295            -320.00     6000.00
01296            -280.00     6000.00
01297            -280.00     5800.00
01298            -280.00     5600.00
01299            -280.00     5400.00
01300            -200.00     5200.00
01301            -200.00     5200.00
01302            -200.00     5000.00
01303            -200.00     4800.00
01304            -200.00     4600.00
01305            -200.00     4400.00
01306            -200.00     4400.00
01307            -200.00     4200.00
01308            -200.00     4000.00
01309            -200.00     3800.00
01310            -200.00     3600.00
01311            -200.00     3400.00
01312            -160.00     3400.00
01313            -120.00     3000.00
01314            -160.00     2800.00
01315            -160.00     2800.00
01316            -160.00     2600.00
01317            -160.00     2200.00
01318            -120.00     2200.00
01319            -120.00     2000.00
01320            -120.00     1800.00
01321            -120.00     1400.00
01322            -120.00     1400.00
01323            -120.00     1200.00
01324            -120.00     1000.00
01325             -40.00      800.00
01326            -120.00      600.00
01327             -40.00      400.00
01328             -80.00      200.00
01329             -40.00      200.00
01330             -40.00     -200.00
01331             -40.00     -200.00
01332              40.00     -600.00
01333             120.00     -600.00
01334             120.00     -800.00
01335              40.00    -1000.00
01336               0.00    -1200.00
01337               0.00    -1200.00
01338              40.00    -1400.00
01339             320.00    -1600.00
01340            1000.00    -1800.00
01341             960.00    -2200.00
01342             -40.00    -2400.00
01343           -1080.00    -2600.00
01344           -1520.00    -2600.00
01345           -1160.00    -2600.00
01346             360.00    -3000.00
01347             520.00    -3400.00
01348             200.00    -3000.00
01349             640.00    -3800.00
01350             160.00    -3400.00
01351              40.00    -3400.00
01352             160.00    -4400.00
01353            -120.00    -3800.00
01354             320.00    -4600.00
01355             200.00    -4400.00
01356            -160.00    -4600.00
01357             -40.00    -5000.00
01358             -40.00    -4600.00
01359             120.00    -5200.00
01360             120.00    -5400.00
01361             160.00    -5400.00
01362             120.00    -5600.00
01363              40.00    -5600.00
01364             280.00    -6000.00
01365             160.00    -6000.00
01366             120.00    -6200.00
01367             160.00    -6400.00
01368             160.00    -6400.00
01369             120.00    -6800.00
01370              40.00    -6800.00
01371             200.00    -7000.00
01372             280.00    -7000.00
01373             160.00    -7000.00
01374             160.00    -7400.00
01375             200.00    -7400.00
01376             200.00    -7600.00
01377             200.00    -7800.00
01378             240.00    -7800.00
01379             200.00    -8000.00
01380             160.00    -8000.00
01381             200.00    -8200.00
01382             280.00    -8200.00
01383             280.00    -8600.00
01384             320.00    -8600.00
01385             320.00    -8600.00
01386             280.00    -8800.00
01387             280.00    -8800.00
01388             320.00    -9000.00
01389             320.00    -9000.00
01390             320.00    -9000.00
01391             320.00    -9000.00
01392             360.00    -9200.00
01393             360.00    -9200.00
01394             440.00    -9400.00
01395             440.00    -9400.00
01396             440.00    -9400.00
01397             440.00    -9400.00
01398             440.00    -9400.00
01399             480.00    -9400.00
01400             480.00    -9800.00
01401             520.00    -9800.00
01402             600.00    -9800.00
01403             640.00    -9800.00
01404             640.00    -9800.00
01405             640.00    -9800.00
01406             680.00    -9800.00
01407             760.00    -9800.00
01408             800.00    -9800.00
01409             800.00    -9800.00
01410             800.00   -10000.00
01411             920.00   -10000.00
01412             960.00   -10000.00
01413            1000.00   -10000.00
01414            1080.00   -10000.00
01415            1120.00    -9800.00
01416            1160.00    -9800.00
01417            1240.00   -10000.00
01418            1280.00   -10000.00
01419            1320.00    -9800.00
01420            1400.00    -9800.00
01421            1440.00    -9800.00
01422            1560.00    -9800.00
01423            1560.00    -9800.00
01424            1560.00    -9800.00
01425            1560.00    -9800.00
01426            1600.00    -9600.00
01427            1600.00    -9600.00
01428            1600.00    -9600.00
01429            1600.00    -9600.00
01430            1560.00    -9400.00
01431            1600.00    -9400.00
01432            1560.00    -9400.00
01433            1480.00    -9200.00
01434            1440.00    -9200.00
01435            1400.00    -9200.00
01436            1320.00    -9000.00
01437            1280.00    -9000.00
01438            1240.00    -9000.00
01439            1120.00    -9000.00
01440            1080.00    -8800.00
01441            1000.00    -8600.00
01442             960.00    -8600.00
01443             920.00    -8400.00
01444             800.00    -8400.00
01445             760.00    -8200.00
01446             680.00    -8200.00
01447             680.00    -8000.00
01448             640.00    -7800.00
01449             640.00    -7800.00
01450             560.00    -7600.00
01451             520.00    -7400.00
01452             480.00    -7200.00
01453             480.00    -7200.00
01454             440.00    -7000.00
01455             440.00    -7000.00
01456             400.00    -7000.00
01457             360.00    -6800.00
01458             320.00    -6800.00
01459             320.00    -6600.00
01460             320.00    -6400.00
01461             320.00    -6200.00
01462             280.00    -6000.00
01463             280.00    -5800.00
01464             280.00    -6000.00
01465             240.00    -5600.00
01466             200.00    -5400.00
01467             200.00    -5200.00
01468             200.00    -5200.00
01469             200.00    -5000.00
01470             160.00    -4800.00
01471             160.00    -4600.00
01472             160.00    -4400.00
01473             160.00    -4400.00
01474             160.00    -4200.00
01475             160.00    -3800.00
01476             160.00    -3800.00
01477             120.00    -3600.00
01478             120.00    -3400.00
01479             120.00    -3400.00
01480             120.00    -3000.00
01481             160.00    -2800.00
01482             120.00    -2600.00
01483             120.00    -2600.00
01484             120.00    -2400.00
01485             120.00    -2200.00
01486              40.00    -2000.00
01487             120.00    -1800.00
01488             120.00    -1600.00
01489             120.00    -1400.00
01490              80.00    -1400.00
01491              40.00    -1000.00
01492              40.00     -800.00
01493              40.00     -600.00
01494              80.00     -400.00
01495              40.00     -400.00
01496              80.00     -200.00
01497              40.00        0.00
01498              40.00      400.00
01499             120.00      400.00
01500             160.00      600.00
01501             200.00      800.00
01502             160.00     1000.00
01503             120.00     1000.00
01504             120.00     1200.00
01505             120.00     1400.00
01506             520.00     1800.00
01507            1280.00     2000.00
01508             920.00     2000.00
01509            -560.00     2200.00
01510           -1720.00     2200.00
01511           -1960.00     2600.00
01512            -120.00     3400.00
01513             920.00     2800.00
01514             120.00     3000.00
01515             560.00     3200.00
01516             360.00     3200.00
01517            -320.00     4200.00
01518               0.00     3600.00
01519            -280.00     3600.00
01520             200.00     4600.00
01521             280.00     3800.00
01522            -480.00     4400.00
01523               0.00     5000.00
01524            -200.00     4600.00
01525            -240.00     5200.00
01526              40.00     5000.00
01527             -40.00     5400.00
01528             -40.00     5600.00
01529            -240.00     5400.00
01530               0.00     6200.00
01531             -40.00     5800.00
01532            -240.00     6000.00
01533             -40.00     6200.00
01534            -160.00     6200.00
01535            -120.00     6600.00
01536            -200.00     6600.00
01537            -160.00     7000.00
01538             -80.00     6800.00
01539            -160.00     7000.00
01540            -160.00     7000.00
01541            -160.00     7400.00
01542            -200.00     7800.00
01543            -200.00     7600.00
01544            -160.00     7800.00
01545            -200.00     7800.00
01546            -280.00     8200.00
01547            -280.00     8200.00
01548            -280.00     8200.00
01549            -200.00     8400.00
01550            -200.00     8400.00
01551            -200.00     8600.00
01552            -320.00     8600.00
01553            -320.00     8600.00
01554            -320.00     9000.00
01555            -320.00     8800.00
01556            -320.00     9000.00
01557            -320.00     9200.00
01558            -360.00     9200.00
01559            -400.00     9200.00
01560            -360.00     9400.00
01561            -400.00     9400.00
01562            -440.00     9400.00
01563            -480.00     9400.00
01564            -480.00     9600.00
01565            -520.00     9400.00
01566            -560.00     9800.00
01567            -520.00     9800.00
01568            -520.00     9800.00
01569            -600.00    10000.00
01570            -640.00     9800.00
01571            -680.00     9800.00
01572            -680.00     9800.00
01573            -680.00    10000.00
01574            -680.00    10000.00
01575            -760.00    10000.00
01576            -840.00     9800.00
01577            -840.00     9800.00
01578            -920.00    10000.00
01579            -960.00    10000.00
01580            -960.00     9800.00
01581           -1000.00    10000.00
01582           -1120.00    10000.00
01583           -1160.00    10000.00
01584           -1200.00    10000.00
01585           -1280.00    10000.00
01586           -1400.00    10000.00
01587           -1400.00     9800.00
01588           -1440.00    10000.00
01589           -1480.00     9800.00
01590           -1560.00     9800.00
01591           -1560.00     9800.00
01592           -1600.00     9800.00
01593           -1600.00     9800.00
01594           -1600.00     9800.00
01595           -1600.00     9600.00
01596           -1600.00     9600.00
01597           -1600.00     9400.00
01598           -1600.00     9400.00
01599           -1560.00     9400.00
01600           -1520.00     9400.00
01601           -1480.00     9400.00
01602           -1440.00     9200.00
01603           -1360.00     9200.00
01604           -1280.00     9000.00
01605           -1280.00     9000.00
01606           -1160.00     9000.00
01607           -1120.00     8800.00
01608           -1080.00     8600.00
01609            -960.00     8600.00
01610            -920.00     8400.00
01611            -840.00     8600.00
01612            -800.00     8200.00
01613            -800.00     8200.00
01614            -760.00     8200.00
01615            -680.00     8000.00
01616            -640.00     7800.00
01617            -600.00     7800.00
01618            -600.00     7600.00
01619            -520.00     7600.00
01620            -480.00     7400.00
01621            -440.00     7200.00
01622            -440.00     7000.00
01623            -440.00     7000.00
01624            -400.00     6800.00
01625            -360.00     6600.00
01626            -360.00     6600.00
01627            -360.00     6600.00
01628            -320.00     6200.00
01629            -320.00     6000.00
01630            -280.00     6000.00
01631            -320.00     5800.00
01632            -280.00     5600.00
01633            -280.00     5600.00
01634            -240.00     5200.00
01635            -200.00     5200.00
01636            -240.00     5000.00
01637            -200.00     5000.00
01638            -200.00     4600.00
01639            -200.00     4400.00
01640            -200.00     4400.00
01641            -200.00     4200.00
01642            -200.00     4200.00
01643            -160.00     3800.00
01644            -200.00     3600.00
01645            -200.00     3400.00
01646            -160.00     3400.00
01647            -160.00     3400.00
01648            -160.00     3000.00
01649            -120.00     2800.00
01650            -160.00     2600.00
01651            -120.00     2400.00
01652            -120.00     2200.00
01653            -120.00     2000.00
01654            -120.00     1800.00
01655            -120.00     1800.00
01656             -80.00     1400.00
01657            -120.00     1200.00
01658            -120.00     1200.00
01659            -120.00     1000.00
01660            -120.00      800.00
01661            -120.00      600.00
01662            -120.00      400.00
01663             -40.00      200.00
01664             -80.00        0.00
01665             -40.00     -200.00
01666               0.00     -200.00
01667              80.00     -400.00
01668             120.00     -600.00
01669              40.00     -600.00
01670               0.00    -1000.00
01671               0.00    -1000.00
01672               0.00    -1200.00
01673             120.00    -1400.00
01674             600.00    -1600.00
01675            1080.00    -2200.00
01676             520.00    -2400.00
01677            -600.00    -2600.00
01678           -1280.00    -2600.00
01679           -1480.00    -2400.00
01680            -480.00    -2600.00
01681             720.00    -3400.00
01682             200.00    -3000.00
01683             440.00    -3400.00
01684             520.00    -3800.00
01685             -40.00    -3000.00
01686             200.00    -4000.00
01687             -40.00    -4200.00
01688               0.00    -4200.00
01689             360.00    -4600.00
01690               0.00    -4400.00
01691            -160.00    -5000.00
01692             -40.00    -5000.00
01693               0.00    -4800.00
01694             160.00    -5400.00
01695             120.00    -5200.00
01696             160.00    -5600.00
01697              40.00    -5600.00
01698             160.00    -5800.00
01699             200.00    -6000.00
01700              40.00    -6000.00
01701             120.00    -6600.00
01702             120.00    -6200.00
01703             160.00    -6600.00
01704             120.00    -6800.00
01705              40.00    -6800.00
01706             200.00    -7000.00
01707             200.00    -7000.00
01708             160.00    -7400.00
01709             200.00    -7200.00
01710             200.00    -7600.00
01711             160.00    -7800.00
01712             240.00    -7800.00
01713             200.00    -8000.00
01714             160.00    -8200.00
01715             200.00    -8200.00
01716             280.00    -8200.00
01717             280.00    -8400.00
01718             280.00    -8600.00
01719             280.00    -8400.00
01720             280.00    -8600.00
01721             280.00    -8800.00
01722             320.00    -8800.00
01723             320.00    -9000.00
01724             320.00    -9000.00
01725             320.00    -9000.00
01726             360.00    -9200.00
01727             360.00    -9200.00
01728             400.00    -9400.00
01729             440.00    -9400.00
01730             480.00    -9400.00
01731             440.00    -9400.00
01732             440.00    -9400.00
01733             480.00    -9600.00
01734             520.00    -9800.00
01735             520.00    -9800.00
01736             560.00    -9800.00
01737             600.00    -9800.00
01738             640.00    -9800.00
01739             640.00    -9800.00
01740             640.00    -9800.00
01741             760.00   -10000.00
01742             760.00   -10000.00
01743             800.00    -9800.00
01744             800.00   -10000.00
01745             840.00   -10000.00
01746             920.00    -9800.00
01747             960.00   -10000.00
01748            1000.00    -9800.00
01749            1080.00   -10000.00
01750            1160.00   -10000.00
01751            1240.00   -10000.00
01752            1240.00   -10000.00
01753            1280.00    -9800.00
01754            1360.00   -10000.00
01755            1400.00    -9800.00
01756            1480.00    -9800.00
01757            1560.00    -9800.00
01758            1560.00    -9800.00
01759            1560.00    -9800.00
01760            1600.00    -9600.00
01761            1600.00    -9800.00
01762            1600.00    -9600.00
01763            1600.00    -9400.00
01764            1600.00    -9400.00
01765            1560.00    -9400.00
01766            1560.00    -9400.00
01767            1480.00    -9400.00
01768            1440.00    -9200.00
01769            1440.00    -9200.00
01770            1400.00    -9200.00
01771            1320.00    -9000.00
01772            1240.00    -9000.00
01773            1120.00    -9000.00
01774            1120.00    -8800.00
01775            1080.00    -8600.00
01776            1000.00    -8600.00
01777             960.00    -8600.00
01778             840.00    -8400.00
01779             800.00    -8200.00
01780             760.00    -8200.00
01781             680.00    -8200.00
01782             680.00    -8000.00
01783             640.00    -7800.00
01784             600.00    -7600.00
01785             560.00    -7600.00
01786             480.00    -7600.00
01787             440.00    -7200.00
01788             440.00    -7200.00
01789             440.00    -7000.00
01790             440.00    -7000.00
01791             360.00    -6800.00
01792             360.00    -6600.00
01793             320.00    -6600.00
01794             320.00    -6600.00
01795             320.00    -6200.00
01796             320.00    -6200.00
01797             320.00    -6000.00
01798             280.00    -5800.00
01799             280.00    -5800.00
01800             240.00    -5400.00
01801             240.00    -5400.00
01802             200.00    -5200.00
01803             240.00    -5000.00
01804             200.00    -5000.00
01805             200.00    -4600.00
01806             160.00    -4400.00
01807             160.00    -4400.00
01808             200.00    -4200.00
01809             160.00    -3800.00
01810             160.00    -3800.00
01811             160.00    -3600.00
01812             120.00    -3600.00
01813             120.00    -3400.00
01814             160.00    -3000.00
01815             160.00    -3000.00
01816             120.00    -2800.00
01817             120.00    -2600.00
01818             120.00    -2600.00
01819             120.00    -2200.00
01820             120.00    -2000.00
01821             120.00    -2000.00
01822              80.00    -1800.00
01823             120.00    -1400.00
01824              80.00    -1200.00
01825              80.00    -1200.00
01826              40.00    -1000.00
01827              40.00     -800.00
01828              40.00     -600.00
01829              40.00     -400.00
01830               0.00     -200.00
01831              40.00        0.00
01832              40.00      200.00
01833              40.00      200.00
01834             120.00      400.00
01835             200.00      600.00
01836             200.00      800.00
01837             160.00     1000.00
01838              40.00     1200.00
01839             120.00     1400.00
01840             160.00     1400.00
01841             960.00     2000.00
01842            1280.00     2200.00
01843             240.00     2200.00
01844           -1160.00     2200.00
01845           -2080.00     2200.00
01846           -1280.00     3000.00
01847             760.00     3200.00
01848             480.00     2800.00
01849             160.00     3400.00
01850             680.00     3000.00
01851            -120.00     3600.00
01852            -160.00     4200.00
01853            -120.00     3400.00
01854            -200.00     4400.00
01855             440.00     4200.00
01856            -200.00     4000.00
01857            -320.00     5000.00
01858              40.00     4600.00
01859            -320.00     5000.00
01860             -40.00     5200.00
01861               0.00     5000.00
01862               0.00     5800.00
01863            -120.00     5200.00
01864            -200.00     5800.00
01865              40.00     6200.00
01866            -200.00     5800.00
01867            -160.00     6400.00
01868            -120.00     6200.00
01869            -160.00     6600.00
01870            -160.00     6600.00
01871            -200.00     6600.00
01872            -120.00     7400.00
01873            -120.00     6800.00
01874            -120.00     7400.00
01875            -120.00     7200.00
01876            -200.00     7600.00
01877            -200.00     7600.00
01878            -200.00     7600.00
01879            -160.00     7800.00
01880            -280.00     7800.00
01881            -200.00     8200.00
01882            -280.00     8200.00
01883            -240.00     8400.00
01884            -200.00     8400.00
01885            -200.00     8400.00
01886            -280.00     8600.00
01887            -320.00     8600.00
01888            -320.00     9000.00
01889            -320.00     9000.00
01890            -320.00     9000.00
01891            -320.00     9000.00
01892            -360.00     9200.00
01893            -440.00     9200.00
01894            -360.00     9200.00
01895            -360.00     9400.00
01896            -360.00     9400.00
01897            -480.00     9400.00
01898            -480.00     9600.00
01899            -520.00     9600.00
01900            -520.00     9600.00
01901            -600.00     9800.00
01902            -520.00     9800.00
01903            -600.00     9800.00
01904            -600.00     9800.00
01905            -640.00    10000.00
01906            -680.00     9800.00
01907            -720.00    10000.00
01908            -720.00    10000.00
01909            -760.00     9800.00
01910            -800.00    10000.00
01911            -840.00    10000.00
01912            -920.00    10000.00
01913            -960.00    10000.00
01914            -960.00    10000.00
01915           -1000.00    10000.00
01916           -1080.00    10000.00
01917           -1160.00    10000.00
01918           -1160.00    10000.00
01919           -1280.00    10000.00
01920           -1320.00    10000.00
01921           -1400.00    10000.00
01922           -1440.00     9800.00
01923           -1440.00     9800.00
01924           -1480.00     9800.00
01925           -1560.00     9800.00
01926           -1600.00     9800.00
01927           -1600.00     9800.00
01928           -1600.00     9800.00
01929           -1600.00     9600.00
01930           -1600.00     9800.00
01931           -1600.00     9400.00
01932           -1600.00     9400.00
01933           -1600.00     9400.00
01934           -1560.00     9400.00
01935           -1480.00     9200.00
01936           -1480.00     9200.00
01937           -1400.00     9200.00
01938           -1320.00     9200.00
01939           -1280.00     9000.00
01940           -1240.00     9000.00
01941           -1120.00     9000.00
01942           -1040.00     8600.00
01943           -1000.00     8600.00
01944            -960.00     8400.00
01945            -920.00     8600.00
01946            -840.00     8400.00
01947            -800.00     8400.00
01948            -760.00     8000.00
01949            -680.00     8200.00
01950            -680.00     7800.00
01951            -600.00     7800.00
01952            -600.00     7600.00
01953            -520.00     7600.00
01954            -520.00     7400.00
01955            -480.00     7400.00
01956            -480.00     7200.00
01957            -480.00     7000.00
01958            -440.00     6800.00
01959            -360.00     6800.00
01960            -360.00     6600.00
01961            -360.00     6400.00
01962            -320.00     6200.00
01963            -320.00     6200.00
01964            -320.00     6000.00
01965            -320.00     6000.00
01966            -280.00     5800.00
01967            -280.00     5600.00
01968            -240.00     5400.00
01969            -200.00     5200.00
01970            -200.00     5000.00
01971            -200.00     5000.00
01972            -200.00     5000.00
01973            -200.00     4600.00
01974            -200.00     4400.00
01975            -200.00     4400.00
01976            -200.00     4200.00
01977            -200.00     3800.00
01978            -160.00     3800.00
01979            -200.00     3600.00
01980            -200.00     3400.00
01981            -160.00     3400.00
01982            -160.00     3000.00
01983            -160.00     2800.00
01984            -120.00     2800.00
01985            -160.00     2400.00
01986            -160.00     2200.00
01987            -160.00     2200.00
01988            -120.00     1800.00
01989             -40.00     1800.00
01990             -80.00     1600.00
01991            -120.00     1400.00
01992             -40.00     1200.00
01993            -120.00     1000.00
01994             -80.00     1000.00
01995            -120.00      600.00
01996             -40.00      600.00
01997             -40.00      200.00
01998             -40.00      200.00
01999             -40.00      200.00
02000               0.00     -200.00
02001              40.00     -400.00
02002             120.00     -600.00
02003             120.00     -800.00
02004              40.00    -1000.00
02005               0.00    -1200.00
02006               0.00    -1000.00
02007               0.00    -1400.00
02008             320.00    -1400.00
02009             920.00    -2000.00
02010            1000.00    -2200.00
02011               0.00    -2200.00
02012           -1000.00    -2600.00
02013           -1480.00    -2600.00
02014           -1200.00    -2400.00
02015             360.00    -3000.00
02016             520.00    -3200.00
02017             160.00    -3000.00
02018             600.00    -3800.00
02019             200.00    -3600.00
02020               0.00    -3600.00
02021             160.00    -4200.00
02022            -160.00    -3800.00
02023             280.00    -4400.00
02024             280.00    -4400.00
02025            -160.00    -4600.00
02026             -40.00    -5000.00
02027             -40.00    -4600.00
02028             120.00    -5400.00
02029             120.00    -5400.00
02030             160.00    -5400.00
02031             120.00    -5800.00
02032               0.00    -5600.00
02033             200.00    -6200.00
02034             160.00    -6000.00
02035              40.00    -6200.00
02036             120.00    -6600.00
02037             160.00    -6200.00
02038             120.00    -6800.00
02039              40.00    -6800.00
02040             120.00    -6800.00
02041             240.00    -7000.00
02042             160.00    -7200.00
02043             200.00    -7400.00
02044             200.00    -7200.00
02045             160.00    -7600.00
02046             200.00    -7600.00
02047             200.00    -7800.00
02048             200.00    -8000.00
02049             160.00    -8200.00
02050             280.00    -8200.00
02051             280.00    -8200.00
02052             240.00    -8400.00
02053             280.00    -8600.00
02054             320.00    -8600.00
02055             280.00    -8600.00
02056             320.00    -9000.00
02057             320.00    -9000.00
02058             320.00    -8800.00
02059             320.00    -9000.00
02060             360.00    -9000.00
02061             360.00    -9200.00
02062             360.00    -9400.00
02063             440.00    -9200.00
02064             480.00    -9400.00
02065             480.00    -9400.00
02066             480.00    -9400.00
02067             480.00    -9400.00
02068             480.00    -9400.00
02069             520.00    -9800.00
02070             600.00    -9800.00
02071             640.00    -9800.00
02072             640.00    -9800.00
02073             640.00    -9800.00
02074             640.00    -9800.00
02075             680.00   -10000.00
02076             760.00    -9800.00
02077             800.00    -9800.00
02078             800.00    -9800.00
02079             840.00    -9800.00
02080             880.00    -9800.00
02081             960.00   -10000.00
02082            1000.00   -10000.00
02083            1080.00   -10000.00
02084            1120.00    -9800.00
02085            1160.00   -10000.00
02086            1240.00   -10000.00
02087            1280.00   -10000.00
02088            1320.00    -9800.00
02089            1440.00    -9800.00
02090            1440.00   -10000.00
02091            1480.00    -9800.00
02092            1480.00    -9800.00
02093            1520.00    -9800.00
02094            1560.00    -9800.00
02095            1560.00    -9600.00
02096            1560.00    -9800.00
02097            1600.00    -9400.00
02098            1600.00    -9600.00
02099            1600.00    -9400.00
02100            1560.00    -9400.00
02101            1560.00    -9200.00
02102            1440.00    -9200.00
02103            1440.00    -9200.00
02104            1400.00    -9200.00
02105            1360.00    -9200.00
02106            1280.00    -9000.00
02107            1200.00    -9000.00
02108            1120.00    -9000.00
02109            1080.00    -8800.00
02110            1000.00    -8600.00
02111             960.00    -8600.00
02112             920.00    -8400.00
02113             840.00    -8400.00
02114             760.00    -8200.00
02115             720.00    -8200.00
02116             680.00    -8200.00
02117             640.00    -7800.00
02118             600.00    -7800.00
02119             600.00    -7600.00
02120             520.00    -7400.00
02121             520.00    -7400.00
02122             440.00    -7200.00
02123             440.00    -7200.00
02124             440.00    -7000.00
02125             440.00    -6800.00
02126             360.00    -6800.00
02127             320.00    -6600.00
02128             320.00    -6400.00
02129             320.00    -6400.00
02130             320.00    -6200.00
02131             320.00    -6200.00
02132             280.00    -6000.00
02133             280.00    -5800.00
02134             240.00    -5400.00
02135             200.00    -5400.00
02136             280.00    -5200.00
02137             240.00    -5000.00
02138             200.00    -5000.00
02139             160.00    -4600.00
02140             160.00    -4600.00
02141             160.00    -4400.00
02142             200.00    -4400.00
02143             160.00    -4200.00
02144             160.00    -3800.00
02145             160.00    -3800.00
02146             160.00    -3600.00
02147             160.00    -3400.00
02148             120.00    -3200.00
02149             120.00    -3000.00
02150             160.00    -2800.00
02151             160.00    -2800.00
02152             120.00    -2600.00
02153             120.00    -2400.00
02154             120.00    -2200.00
02155              80.00    -2000.00
02156             120.00    -1800.00
02157             120.00    -1800.00
02158              40.00    -1400.00
02159              80.00    -1200.00
02160              40.00    -1200.00
02161              40.00     -800.00
02162              40.00     -600.00
02163              40.00     -400.00
02164              40.00     -400.00
02165              40.00     -200.00
02166              40.00      200.00
02167              40.00      200.00
02168              80.00      600.00
02169             160.00      600.00
02170             200.00      800.00
02171             160.00     1000.00
02172             120.00     1000.00
02173               0.00     1200.00
02174              80.00     1400.00
02175             480.00     1800.00
02176            1280.00     2000.00
02177             920.00     2200.00
02178            -520.00     2200.00
02179           -1680.00     2200.00
02180           -1960.00     2400.00
02181            -200.00     3000.00
02182             960.00     2800.00
02183             120.00     3000.00
02184             480.00     3200.00
02185             440.00     3400.00
02186            -320.00     4200.00
02187               0.00     3600.00
02188            -200.00     3600.00
02189             200.00     4600.00
02190             320.00     4000.00
02191            -440.00     4600.00
02192               0.00     5000.00
02193            -160.00     4600.00
02194            -280.00     5400.00
02195             120.00     5000.00
02196             -40.00     5400.00
02197               0.00     5800.00
02198            -200.00     5400.00
02199               0.00     6200.00
02200               0.00     5800.00
02201            -200.00     6200.00
02202             -40.00     6400.00
02203            -120.00     6200.00
02204            -120.00     6800.00
02205            -200.00     6600.00
02206            -160.00     7200.00
02207            -120.00     7000.00
02208            -120.00     6800.00
02209             -80.00     7400.00
02210            -160.00     7400.00
02211            -200.00     7800.00
02212            -200.00     7600.00
02213            -160.00     7800.00
02214            -200.00     7800.00
02215            -200.00     7800.00
02216            -240.00     8200.00
02217            -280.00     8200.00
02218            -200.00     8400.00
02219            -240.00     8400.00
02220            -200.00     8600.00
02221            -320.00     8600.00
02222            -360.00     8600.00
02223            -320.00     8600.00
02224            -320.00     9000.00
02225            -320.00     9000.00
02226            -360.00     9200.00
02227            -440.00     9200.00
02228            -440.00     9200.00
02229            -360.00     9400.00
02230            -400.00     9400.00
02231            -440.00     9400.00
02232            -480.00     9400.00
02233            -520.00     9600.00
02234            -520.00     9600.00
02235            -600.00     9800.00
02236            -520.00     9800.00
02237            -600.00     9800.00
02238            -600.00     9800.00
02239            -600.00     9800.00
02240            -680.00    10000.00
02241            -760.00     9800.00
02242            -760.00    10000.00
02243            -720.00    10000.00
02244            -800.00    10000.00
02245            -840.00    10000.00
02246            -840.00    10000.00
02247            -920.00    10200.00
02248            -960.00    10000.00
02249            -960.00    10000.00
02250           -1000.00    10200.00
02251           -1120.00    10000.00
02252           -1160.00    10000.00
02253           -1240.00    10000.00
02254           -1280.00    10000.00
02255           -1360.00     9800.00
02256           -1400.00    10000.00
02257           -1440.00     9800.00
02258           -1480.00     9800.00
02259           -1560.00     9800.00
02260           -1560.00    10000.00
02261           -1560.00     9800.00
02262           -1600.00     9800.00
02263           -1600.00     9800.00
02264           -1600.00     9800.00
02265           -1600.00     9800.00
02266           -1600.00     9600.00
02267           -1600.00     9400.00
02268           -1600.00     9400.00
02269           -1560.00     9400.00
02270           -1480.00     9400.00
02271           -1440.00     9200.00
02272           -1360.00     9200.00
02273           -1280.00     9000.00
02274           -1280.00     9000.00
02275           -1160.00     8800.00
02276           -1080.00     9000.00
02277           -1000.00     8600.00
02278           -1000.00     8600.00
02279            -960.00     8400.00
02280            -880.00     8400.00
02281            -840.00     8400.00
02282            -800.00     8200.00
02283            -680.00     8200.00
02284            -680.00     8000.00
02285            -640.00     7800.00
02286            -600.00     7800.00
02287            -600.00     7800.00
02288            -520.00     7400.00
02289            -520.00     7400.00
02290            -480.00     7200.00
02291            -440.00     7000.00
02292            -480.00     6800.00
02293            -440.00     6800.00
02294            -440.00     6800.00
02295            -360.00     6600.00
02296            -360.00     6600.00
02297            -320.00     6200.00
02298            -320.00     6000.00
02299            -320.00     6000.00
02300            -320.00     5800.00
02301            -320.00     5600.00
02302            -280.00     5400.00
02303            -280.00     5400.00
02304            -200.00     5200.00
02305            -200.00     5200.00
02306            -200.00     4800.00
02307            -280.00     4600.00
02308            -200.00     4600.00
02309            -200.00     4200.00
02310            -200.00     4400.00
02311            -200.00     3800.00
02312            -200.00     4000.00
02313            -200.00     3800.00
02314            -160.00     3400.00
02315            -160.00     3400.00
02316            -160.00     3200.00
02317            -120.00     3000.00
02318            -120.00     2800.00
02319            -160.00     2600.00
02320            -160.00     2400.00
02321            -160.00     2200.00
02322            -120.00     2000.00
02323            -120.00     1800.00
02324            -120.00     1800.00
02325            -120.00     1400.00
02326             -80.00     1400.00
02327             -40.00     1200.00
02328            -120.00     1000.00
02329             -80.00      800.00
02330             -80.00      600.00
02331             -40.00      400.00
02332             -40.00      200.00
02333             -40.00      200.00
02334             -40.00     -200.00
02335               0.00     -200.00
02336             120.00     -600.00
02337             160.00     -600.00
02338             120.00     -600.00
02339              40.00     -800.00
02340               0.00    -1200.00
02341               0.00    -1400.00
02342             120.00    -1400.00
02343             600.00    -1800.00
02344            1120.00    -2000.00
02345             600.00    -2200.00
02346            -600.00    -2400.00
02347           -1280.00    -2600.00
02348           -1560.00    -2400.00
02349            -480.00    -2600.00
02350             760.00    -3200.00
02351             200.00    -3000.00
02352             400.00    -3400.00
02353             520.00    -3800.00
02354               0.00    -3400.00
02355             200.00    -4000.00
02356             -40.00    -4200.00
02357               0.00    -4200.00
02358             360.00    -4600.00
02359               0.00    -4400.00
02360            -160.00    -5000.00
02361             -40.00    -4800.00
02362              40.00    -5000.00
02363             120.00    -5400.00
02364             120.00    -5200.00
02365             160.00    -5800.00
02366               0.00    -5800.00
02367             160.00    -5800.00
02368             200.00    -6200.00
02369              40.00    -6000.00
02370             120.00    -6600.00
02371             120.00    -6400.00
02372             160.00    -6400.00
02373             120.00    -6800.00
02374              40.00    -7000.00
02375             200.00    -7000.00
02376             200.00    -7000.00
02377             160.00    -7400.00
02378             160.00    -7400.00
02379             200.00    -7600.00
02380             160.00    -7600.00
02381             240.00    -7800.00
02382             200.00    -7800.00
02383             160.00    -8000.00
02384             200.00    -8200.00
02385             280.00    -8200.00
02386             280.00    -8400.00
02387             280.00    -8400.00
02388             320.00    -8600.00
02389             280.00    -8600.00
02390             280.00    -8600.00
02391             320.00    -8800.00
02392             320.00    -9000.00
02393             360.00    -9000.00
02394             320.00    -9000.00
02395             360.00    -9200.00
02396             360.00    -9200.00
02397             400.00    -9400.00
02398             480.00    -9400.00
02399             480.00    -9400.00
02400             440.00    -9400.00
02401             480.00    -9400.00
02402             480.00    -9400.00
02403             480.00    -9600.00
02404             520.00    -9800.00
02405             640.00    -9800.00
02406             640.00    -9800.00
02407             640.00    -9800.00
02408             640.00    -9800.00
02409             680.00    -9800.00
02410             760.00    -9800.00
02411             760.00   -10000.00
02412             800.00    -9800.00
02413             840.00    -9800.00
02414             840.00   -10000.00
02415             960.00   -10000.00
02416             960.00    -9800.00
02417            1000.00   -10000.00
02418            1080.00   -10000.00
02419            1160.00   -10000.00
02420            1160.00    -9800.00
02421            1240.00   -10000.00
02422            1280.00    -9800.00
02423            1320.00   -10000.00
02424            1400.00   -10000.00
02425            1480.00    -9800.00
02426            1520.00   -10000.00
02427            1560.00    -9800.00
02428            1560.00    -9800.00
02429            1560.00    -9600.00
02430            1600.00    -9600.00
02431            1600.00    -9600.00
02432            1600.00    -9400.00
02433            1600.00    -9400.00
02434            1560.00    -9400.00
02435            1520.00    -9400.00
02436            1480.00    -9400.00
02437            1440.00    -9200.00
02438            1400.00    -9200.00
02439            1400.00    -9200.00
02440            1320.00    -9200.00
02441            1240.00    -9000.00
02442            1160.00    -9000.00
02443            1080.00    -8800.00
02444            1080.00    -8600.00
02445            1000.00    -8600.00
02446             960.00    -8600.00
02447             840.00    -8400.00
02448             800.00    -8400.00
02449             800.00    -8200.00
02450             760.00    -8200.00
02451             640.00    -8000.00
02452             640.00    -7800.00
02453             600.00    -7800.00
02454             520.00    -7600.00
02455             520.00    -7400.00
02456             480.00    -7200.00
02457             440.00    -7200.00
02458             440.00    -7000.00
02459             440.00    -7000.00
02460             360.00    -6800.00
02461             360.00    -6800.00
02462             320.00    -6600.00
02463             320.00    -6400.00
02464             280.00    -6400.00
02465             320.00    -6000.00
02466             320.00    -6000.00
02467             280.00    -5800.00
02468             280.00    -5400.00
02469             240.00    -5400.00
02470             200.00    -5400.00
02471             200.00    -5200.00
02472             240.00    -5000.00
02473             200.00    -4800.00
02474             200.00    -4600.00
02475             160.00    -4600.00
02476             200.00    -4400.00
02477             160.00    -4200.00
02478             160.00    -3800.00
02479             160.00    -3800.00
02480             120.00    -3600.00
02481             120.00    -3400.00
02482             120.00    -3400.00
02483             120.00    -3000.00
02484             120.00    -3000.00
02485             120.00    -2800.00
02486             120.00    -2600.00
02487              80.00    -2400.00
02488              40.00    -2200.00
02489              80.00    -2200.00
02490              80.00    -1800.00
02491             120.00    -1800.00
02492              80.00    -1400.00
02493              40.00    -1200.00
02494              40.00    -1200.00
02495              80.00    -1000.00
02496              40.00     -800.00
02497              40.00     -600.00
02498              40.00     -400.00
02499              40.00     -200.00
02500               0.00     -200.00
02501              40.00      200.00
02502              80.00      200.00
02503             160.00      400.00
02504             160.00      600.00
02505             200.00      800.00
02506             120.00     1000.00
02507              80.00     1000.00
02508              40.00     1400.00
02509             160.00     1400.00
02510             920.00     1800.00
02511            1280.00     2000.00
02512             320.00     2200.00
02513           -1120.00     2200.00
02514           -2040.00     2200.00
02515           -1320.00     3000.00
02516             760.00     3000.00
02517             520.00     2800.00
02518             160.00     3400.00
02519             640.00     3000.00
02520             -40.00     3600.00
02521            -200.00     4200.00
02522             -80.00     3400.00
02523            -200.00     4400.00
02524             480.00     4400.00
02525            -160.00     4000.00
02526            -320.00     5200.00
02527              40.00     4600.00
02528            -320.00     5200.00
02529             -40.00     5200.00
02530               0.00     5000.00
02531             -40.00     6000.00
02532            -120.00     5400.00
02533            -200.00     5800.00
02534              40.00     6000.00
02535            -200.00     5800.00
02536            -120.00     6400.00
02537             -40.00     6200.00
02538            -120.00     6600.00
02539            -160.00     6600.00
02540            -240.00     6600.00
02541             -80.00     7400.00
02542            -120.00     6800.00
02543            -120.00     7400.00
02544            -120.00     7400.00
02545            -160.00     7600.00
02546            -200.00     7600.00
02547            -200.00     7800.00
02548            -160.00     7800.00
02549            -280.00     7800.00
02550            -240.00     8200.00
02551            -320.00     8200.00
02552            -200.00     8400.00
02553            -280.00     8400.00
02554            -200.00     8600.00
02555            -280.00     8600.00
02556            -360.00     8600.00
02557            -320.00     8600.00
02558            -320.00     8800.00
02559            -320.00     9000.00
02560            -360.00     9200.00
02561            -400.00     9200.00
02562            -440.00     9200.00
02563            -440.00     9200.00
02564            -440.00     9400.00
02565            -440.00     9400.00
02566            -480.00     9400.00
02567            -480.00     9600.00
02568            -520.00     9400.00
02569            -520.00     9600.00
02570            -560.00     9600.00
02571            -560.00     9800.00
02572            -560.00     9800.00
02573            -600.00     9800.00
02574            -640.00     9800.00
02575            -680.00     9800.00
02576            -760.00     9800.00
02577            -760.00    10000.00
02578            -720.00    10000.00
02579            -800.00    10000.00
02580            -840.00    10200.00
02581            -840.00    10000.00
02582            -960.00    10200.00
02583            -960.00    10000.00
02584           -1000.00    10200.00
02585           -1000.00    10000.00
02586           -1120.00    10000.00
02587           -1160.00    10000.00
02588           -1240.00    10200.00
02589           -1320.00     9800.00
02590           -1360.00    10000.00
02591           -1400.00     9800.00
02592           -1440.00    10000.00
02593           -1480.00     9800.00
02594           -1560.00     9800.00
02595           -1560.00     9800.00
02596           -1600.00     9800.00
02597           -1600.00     9800.00
02598           -1600.00     9800.00
02599           -1600.00     9800.00
02600           -1600.00     9800.00
02601           -1600.00     9400.00
02602           -1600.00     9600.00
02603           -1560.00     9400.00
02604           -1480.00     9400.00
02605           -1440.00     9200.00
02606           -1320.00     9200.00
02607           -1320.00     9200.00
02608           -1280.00     9000.00
02609           -1240.00     9000.00
02610           -1160.00     8800.00
02611           -1080.00     8600.00
02612           -1000.00     8600.00
02613            -960.00     8600.00
02614            -920.00     8400.00
02615            -840.00     8400.00
02616            -840.00     8200.00
02617            -800.00     8200.00
02618            -680.00     8000.00
02619            -640.00     7800.00
02620            -640.00     7800.00
02621            -640.00     7600.00
02622            -600.00     7600.00
02623            -520.00     7400.00
02624            -480.00     7400.00
02625            -480.00     7200.00
02626            -440.00     7000.00
02627            -440.00     6800.00
02628            -400.00     6800.00
02629            -360.00     6600.00
02630            -360.00     6600.00
02631            -320.00     6400.00
02632            -320.00     6200.00
02633            -320.00     6000.00
02634            -320.00     6000.00
02635            -320.00     5800.00
02636            -280.00     5400.00
02637            -280.00     5600.00
02638            -200.00     5400.00
02639            -240.00     5200.00
02640            -200.00     5000.00
02641            -200.00     4800.00
02642            -200.00     4600.00
02643            -200.00     4400.00
02644            -200.00     4400.00
02645            -200.00     4200.00
02646            -200.00     4000.00
02647            -160.00     3800.00
02648            -160.00     3600.00
02649            -200.00     3400.00
02650            -200.00     3200.00
02651            -120.00     3000.00
02652            -120.00     2800.00
02653            -160.00     2600.00
02654            -160.00     2600.00
02655            -160.00     2200.00
02656            -120.00     2000.00
02657            -120.00     2000.00
02658             -80.00     1800.00
02659             -40.00     1600.00
02660            -120.00     1400.00
02661             -40.00     1200.00
02662             -40.00     1000.00
02663            -120.00      800.00
02664             -40.00      600.00
02665             -40.00      600.00
02666             -40.00      200.00
02667             -40.00      200.00
02668             -40.00        0.00
02669               0.00     -200.00
02670               0.00     -400.00
02671             120.00     -600.00
02672             120.00     -600.00
02673              40.00    -1000.00
02674              40.00    -1200.00
02675               0.00    -1200.00
02676              40.00    -1400.00
02677             280.00    -1400.00
02678             960.00    -1800.00
02679             960.00    -2200.00
02680               0.00    -2400.00
02681            -960.00    -2600.00
02682           -1480.00    -2600.00
02683           -1240.00    -2600.00
02684             280.00    -3000.00
02685             520.00    -3400.00
02686             160.00    -2800.00
02687             600.00    -3800.00
02688             200.00    -3600.00
02689               0.00    -3600.00
02690             160.00    -4200.00
02691            -160.00    -4000.00
02692             280.00    -4600.00
02693             280.00    -4400.00
02694            -160.00    -4600.00
02695             -80.00    -5000.00
02696             -40.00    -4600.00
02697             120.00    -5200.00
02698             120.00    -5400.00
02699             160.00    -5400.00
02700              80.00    -5800.00
02701               0.00    -5800.00
02702             240.00    -6000.00
02703             120.00    -6000.00
02704              40.00    -6200.00
02705             120.00    -6600.00
02706             160.00    -6200.00
02707             120.00    -6600.00
02708              40.00    -6800.00
02709             160.00    -6800.00
02710             200.00    -7000.00
02711             160.00    -7000.00
02712             160.00    -7400.00
02713             200.00    -7400.00
02714             200.00    -7600.00
02715             200.00    -7800.00
02716             280.00    -7600.00
02717             200.00    -8000.00
02718             160.00    -8200.00
02719             240.00    -8200.00
02720             320.00    -8200.00
02721             280.00    -8400.00
02722             280.00    -8600.00
02723             320.00    -8600.00
02724             280.00    -8600.00
02725             280.00    -9000.00
02726             320.00    -8800.00
02727             320.00    -9000.00
02728             360.00    -9000.00
02729             360.00    -9200.00
02730             360.00    -9200.00
02731             360.00    -9200.00
02732             440.00    -9400.00
02733             480.00    -9400.00
02734             480.00    -9400.00
02735             440.00    -9600.00
02736             480.00    -9400.00
02737             480.00    -9400.00
02738             480.00    -9600.00
02739             520.00    -9800.00
02740             600.00    -9800.00
02741             640.00    -9800.00
02742             640.00    -9800.00
02743             640.00    -9800.00
02744             680.00    -9800.00
02745             680.00    -9800.00
02746             760.00    -9800.00
02747             800.00   -10000.00
02748             840.00   -10000.00
02749             840.00   -10000.00
02750             960.00   -10000.00
02751             960.00    -9800.00
02752            1000.00   -10000.00
02753            1120.00   -10000.00
02754            1160.00   -10000.00
02755            1240.00   -10000.00
02756            1280.00   -10000.00
02757            1320.00    -9800.00
02758            1400.00   -10000.00
02759            1400.00   -10000.00
02760            1480.00    -9800.00
02761            1560.00    -9800.00
02762            1480.00    -9800.00
02763            1560.00    -9800.00
02764            1560.00    -9600.00
02765            1600.00    -9800.00
02766            1600.00    -9800.00
02767            1640.00    -9600.00
02768            1560.00    -9600.00
02769            1560.00    -9400.00
02770            1480.00    -9400.00
02771            1480.00    -9200.00
02772            1440.00    -9200.00
02773            1400.00    -9200.00
02774            1320.00    -9000.00
02775            1280.00    -9000.00
02776            1240.00    -9000.00
02777            1160.00    -8800.00
02778            1080.00    -8600.00
02779            1000.00    -8600.00
02780             960.00    -8400.00
02781             920.00    -8400.00
02782             840.00    -8200.00
02783             800.00    -8400.00
02784             760.00    -8200.00
02785             680.00    -7800.00
02786             680.00    -7800.00
02787             600.00    -7600.00
02788             600.00    -7600.00
02789             600.00    -7600.00
02790             520.00    -7200.00
02791             480.00    -7200.00
02792             440.00    -7000.00
02793             440.00    -7000.00
02794             400.00    -7000.00
02795             400.00    -6800.00
02796             360.00    -6600.00
02797             320.00    -6400.00
02798             320.00    -6400.00
02799             280.00    -6000.00
02800             280.00    -6200.00
02801             280.00    -5800.00
02802             280.00    -5800.00
02803             200.00    -5600.00
02804             280.00    -5400.00
02805             200.00    -5400.00
02806             200.00    -5200.00
02807             200.00    -5000.00
02808             200.00    -5000.00
02809             200.00    -4600.00
02810             160.00    -4400.00
02811             160.00    -4200.00
02812             160.00    -4200.00
02813             160.00    -4000.00
02814             160.00    -4000.00
02815             120.00    -3600.00
02816             120.00    -3400.00
02817             120.00    -3200.00
02818             120.00    -3000.00
02819             120.00    -3000.00
02820             120.00    -2800.00
02821             120.00    -2600.00
02822              80.00    -2400.00
02823             120.00    -2200.00
02824             120.00    -2000.00
02825              40.00    -1800.00
02826              80.00    -1800.00
02827              80.00    -1200.00
02828             120.00    -1200.00
02829              40.00    -1200.00
02830              40.00     -800.00
02831              40.00     -600.00
02832              40.00     -400.00
02833              40.00     -200.00
02834              40.00     -200.00
02835              40.00      200.00
02836              40.00      200.00
02837             120.00      600.00
02838             160.00      600.00
02839             200.00      600.00
02840             120.00     1000.00
02841             120.00     1000.00
02842              40.00     1200.00
02843              80.00     1400.00
02844             480.00     1800.00
02845            1280.00     2000.00
02846             960.00     2200.00
02847            -440.00     2200.00
02848           -1640.00     2200.00
02849           -2040.00     2400.00
02850            -280.00     3000.00
02851             960.00     2800.00
02852             120.00     3000.00
02853             480.00     3400.00
02854             440.00     3200.00
02855            -320.00     4200.00
02856               0.00     3800.00
02857            -280.00     3600.00
02858             120.00     4600.00
02859             320.00     4000.00
02860            -440.00     4400.00
02861               0.00     5000.00
02862            -160.00     4600.00
02863            -280.00     5400.00
02864             120.00     4800.00
02865             -40.00     5400.00
02866               0.00     5600.00
02867            -240.00     5200.00
02868               0.00     6200.00
02869               0.00     5800.00
02870            -200.00     6200.00
02871             -40.00     6200.00
02872            -120.00     6200.00
02873            -120.00     6800.00
02874            -280.00     6600.00
02875            -200.00     7000.00
02876            -120.00     7000.00
02877            -160.00     7000.00
02878            -120.00     7400.00
02879            -200.00     7400.00
02880            -200.00     7600.00
02881            -280.00     7400.00
02882            -160.00     7600.00
02883            -200.00     7800.00
02884            -280.00     8000.00
02885            -280.00     8200.00
02886            -280.00     8200.00
02887            -200.00     8400.00
02888            -280.00     8200.00
02889            -200.00     8600.00
02890            -320.00     8600.00
02891            -320.00     8600.00
02892            -320.00     8800.00
02893            -320.00     9000.00
02894            -320.00     9000.00
02895            -360.00     9000.00
02896            -360.00     9200.00
02897            -480.00     9200.00
02898            -360.00     9200.00
02899            -440.00     9400.00
02900            -440.00     9400.00
02901            -480.00     9400.00
02902            -480.00     9800.00
02903            -520.00     9600.00
02904            -560.00     9600.00
02905            -520.00     9600.00
02906            -520.00     9800.00
02907            -600.00     9800.00
02908            -640.00     9800.00
02909            -640.00     9800.00
02910            -720.00     9800.00
02911            -720.00    10000.00
02912            -680.00    10000.00
02913            -760.00    10000.00
02914            -800.00    10000.00
02915            -840.00    10200.00
02916            -920.00    10000.00
02917            -960.00    10200.00
02918           -1000.00    10000.00
02919           -1000.00    10000.00
02920           -1120.00    10000.00
02921           -1120.00    10200.00
02922           -1240.00    10000.00
02923           -1280.00    10000.00
02924           -1320.00    10000.00
02925           -1360.00    10000.00
02926           -1440.00    10000.00
02927           -1480.00    10000.00
02928           -1480.00     9800.00
02929           -1560.00     9800.00
02930           -1600.00     9800.00
02931           -1600.00     9800.00
02932           -1600.00     9800.00
02933           -1600.00     9800.00
02934           -1600.00     9600.00
02935           -1600.00     9600.00
02936           -1600.00     9600.00
02937           -1600.00     9400.00
02938           -1480.00     9200.00
02939           -1480.00     9400.00
02940           -1400.00     9200.00
02941           -1400.00     9200.00
02942           -1320.00     9000.00
02943           -1280.00     9000.00
02944           -1240.00     8800.00
02945           -1120.00     8800.00
02946           -1080.00     8600.00
02947            -960.00     8400.00
02948            -960.00     8600.00
02949            -880.00     8400.00
02950            -840.00     8200.00
02951            -800.00     8200.00
02952            -760.00     8200.00
02953            -680.00     7800.00
02954            -640.00     7800.00
02955            -600.00     7600.00
02956            -600.00     7600.00
02957            -560.00     7400.00
02958            -520.00     7400.00
02959            -480.00     7200.00
02960            -480.00     7000.00
02961            -440.00     6800.00
02962            -440.00     6800.00
02963            -360.00     6800.00
02964            -360.00     6600.00
02965            -320.00     6600.00
02966            -320.00     6400.00
02967            -320.00     6200.00
02968            -320.00     6000.00
02969            -320.00     6000.00
02970            -280.00     5800.00
02971            -280.00     5600.00
02972            -200.00     5400.00
02973            -200.00     5400.00
02974            -200.00     5200.00
02975            -200.00     5000.00
02976            -240.00     4600.00
02977            -200.00     4400.00
02978            -200.00     4400.00
02979            -160.00     4200.00
02980            -160.00     4000.00
02981            -160.00     3800.00
02982            -200.00     3800.00
02983            -160.00     3400.00
02984            -160.00     3400.00
02985            -160.00     3400.00
02986            -120.00     3200.00
02987            -120.00     3000.00
02988            -120.00     2600.00
02989            -120.00     2600.00
02990            -160.00     2200.00
02991            -120.00     2000.00
02992            -120.00     1800.00
02993             -40.00     1800.00
02994            -120.00     1400.00
02995            -120.00     1400.00
02996            -120.00     1200.00
02997             -40.00     1000.00
02998            -120.00     1000.00
02999             -80.00      400.00
03000             -40.00      400.00
03001             -40.00      200.00
03002             -40.00        0.00
03003             -40.00     -200.00
03004             -40.00     -200.00
03005              80.00     -400.00
03006             120.00     -600.00
03007              80.00     -800.00
03008              40.00    -1000.00
03009               0.00    -1200.00
03010               0.00    -1200.00
03011             120.00    -1400.00
03012             520.00    -1800.00
03013            1120.00    -2200.00
03014             600.00    -2200.00
03015            -520.00    -2600.00
03016           -1280.00    -2600.00
03017           -1560.00    -2600.00
03018            -560.00    -2600.00
03019             680.00    -3200.00
03020             200.00    -3000.00
03021             360.00    -3400.00
03022             520.00    -3800.00
03023               0.00    -3200.00
03024             160.00    -4000.00
03025             -40.00    -4200.00
03026             -40.00    -4200.00
03027             360.00    -4600.00
03028               0.00    -4400.00
03029            -160.00    -5000.00
03030             -80.00    -5000.00
03031              40.00    -5000.00
03032             120.00    -5400.00
03033             120.00    -5200.00
03034             160.00    -5600.00
03035               0.00    -5800.00
03036             120.00    -5800.00
03037             200.00    -6000.00
03038              40.00    -6000.00
03039             120.00    -6600.00
03040             120.00    -6400.00
03041             160.00    -6600.00
03042              80.00    -7000.00
03043             120.00    -6800.00
03044             200.00    -7000.00
03045             200.00    -7200.00
03046             160.00    -7400.00
03047             200.00    -7400.00
03048             200.00    -7600.00
03049             200.00    -7800.00
03050             200.00    -7600.00
03051             200.00    -7800.00
03052             200.00    -7800.00
03053             200.00    -8200.00
03054             280.00    -8200.00
03055             280.00    -8400.00
03056             280.00    -8400.00
03057             320.00    -8600.00
03058             320.00    -8600.00
03059             280.00    -8800.00
03060             320.00    -8800.00
03061             360.00    -8800.00
03062             360.00    -9000.00
03063             320.00    -9000.00
03064             360.00    -9000.00
03065             360.00    -9200.00
03066             440.00    -9200.00
03067             480.00    -9200.00
03068             480.00    -9400.00
03069             440.00    -9400.00
03070             440.00    -9400.00
03071             480.00    -9400.00
03072             480.00    -9600.00
03073             520.00    -9800.00
03074             600.00    -9800.00
03075             600.00    -9800.00
03076             640.00    -9800.00
03077             640.00    -9800.00
03078             640.00    -9800.00
03079             680.00   -10000.00
03080             760.00   -10000.00
03081             760.00    -9800.00
03082             840.00   -10000.00
03083             840.00   -10000.00
03084             920.00    -9800.00
03085             960.00   -10000.00
03086            1000.00   -10000.00
03087            1080.00   -10000.00
03088            1160.00   -10000.00
03089            1240.00    -9800.00
03090            1240.00   -10000.00
03091            1280.00    -9800.00
03092            1320.00    -9800.00
03093            1400.00   -10000.00
03094            1480.00    -9800.00
03095            1560.00    -9800.00
03096            1560.00    -9800.00
03097            1560.00    -9800.00
03098            1560.00    -9600.00
03099            1600.00    -9800.00
03100            1600.00    -9600.00
03101            1640.00    -9400.00
03102            1600.00    -9400.00
03103            1600.00    -9400.00
03104            1560.00    -9400.00
03105            1480.00    -9400.00
03106            1440.00    -9200.00
03107            1440.00    -9200.00
03108            1400.00    -9200.00
03109            1320.00    -9000.00
03110            1240.00    -9000.00
03111            1160.00    -9000.00
03112            1120.00    -8600.00
03113            1080.00    -8600.00
03114            1000.00    -8600.00
03115             960.00    -8600.00
03116             840.00    -8400.00
03117             800.00    -8400.00
03118             760.00    -8200.00
03119             680.00    -8200.00
03120             680.00    -7800.00
03121             640.00    -8000.00
03122             600.00    -7800.00
03123             600.00    -7600.00
03124             520.00    -7400.00
03125             480.00    -7400.00
03126             440.00    -7200.00
03127             440.00    -7000.00
03128             440.00    -7000.00
03129             400.00    -6800.00
03130             360.00    -6800.00
03131             360.00    -6600.00
03132             320.00    -6200.00
03133             320.00    -6200.00
03134             320.00    -6200.00
03135             320.00    -6000.00
03136             280.00    -5800.00
03137             240.00    -5800.00
03138             240.00    -5400.00
03139             240.00    -5400.00
03140             200.00    -5200.00
03141             200.00    -5200.00
03142             200.00    -5000.00
03143             160.00    -4600.00
03144             160.00    -4600.00
03145             160.00    -4600.00
03146             160.00    -4400.00
03147             160.00    -4000.00
03148             160.00    -3800.00
03149             160.00    -3800.00
03150             160.00    -3400.00
03151             120.00    -3400.00
03152             120.00    -3000.00
03153             120.00    -3000.00
03154             120.00    -2800.00
03155             120.00    -2800.00
03156             120.00    -2400.00
03157             120.00    -2200.00
03158             120.00    -2000.00
03159              40.00    -2000.00
03160             120.00    -1800.00
03161              80.00    -1600.00
03162              80.00    -1400.00
03163              40.00    -1200.00
03164              40.00     -800.00
03165              40.00     -800.00
03166              40.00     -600.00
03167              40.00     -400.00
03168             120.00     -200.00
03169              40.00     -200.00
03170              40.00        0.00
03171              40.00      400.00
03172             120.00      600.00
03173             200.00      600.00
03174             200.00      600.00
03175             120.00     1000.00
03176             120.00     1200.00
03177              40.00     1200.00
03178             160.00     1400.00
03179             920.00     2000.00
03180            1280.00     2200.00
03181             320.00     2200.00
03182           -1080.00     2200.00
03183           -1960.00     2200.00
03184           -1400.00     2800.00
03185             680.00     3000.00
03186             520.00     2800.00
03187             160.00     3400.00
03188             680.00     3200.00
03189             -40.00     3600.00
03190            -200.00     4200.00
03191             -40.00     3400.00
03192            -200.00     4200.00
03193             440.00     4600.00
03194            -120.00     3800.00
03195            -320.00     5000.00
03196             120.00     4600.00
03197            -320.00     5000.00
03198             -40.00     5200.00
03199              40.00     5000.00
03200               0.00     5800.00
03201            -120.00     5400.00
03202            -200.00     5600.00
03203             120.00     6000.00
03204            -160.00     5800.00
03205            -160.00     6200.00
03206             -80.00     6200.00
03207            -160.00     6600.00
03208            -160.00     6600.00
03209            -280.00     6600.00
03210            -120.00     7200.00
03211            -160.00     6800.00
03212            -120.00     7000.00
03213            -160.00     7200.00
03214            -200.00     7400.00
03215            -200.00     7600.00
03216            -200.00     7600.00
03217            -160.00     7800.00
03218            -280.00     7800.00
03219            -200.00     8200.00
03220            -280.00     8200.00
03221            -240.00     8200.00
03222            -280.00     8200.00
03223            -200.00     8400.00
03224            -280.00     8600.00
03225            -360.00     8400.00
03226            -320.00     8600.00
03227            -320.00     9000.00
03228            -320.00     9000.00
03229            -360.00     9000.00
03230            -360.00     9200.00
03231            -440.00     9200.00
03232            -400.00     9200.00
03233            -360.00     9400.00
03234            -360.00     9600.00
03235            -440.00     9400.00
03236            -520.00     9800.00
03237            -520.00     9400.00
03238            -520.00     9600.00
03239            -520.00     9600.00
03240            -520.00     9800.00
03241            -560.00     9800.00
03242            -600.00    10000.00
03243            -640.00    10000.00
03244            -680.00     9800.00
03245            -720.00    10000.00
03246            -680.00    10000.00
03247            -680.00    10200.00
03248            -800.00    10000.00
03249            -840.00    10000.00
03250            -840.00    10000.00
03251            -920.00    10200.00
03252           -1000.00    10000.00
03253           -1000.00    10200.00
03254           -1000.00    10000.00
03255           -1120.00    10000.00
03256           -1160.00    10000.00
03257           -1240.00    10000.00
03258           -1320.00     9800.00
03259           -1360.00    10000.00
03260           -1400.00    10000.00
03261           -1440.00    10000.00
03262           -1480.00    10000.00
03263           -1520.00     9800.00
03264           -1560.00     9800.00
03265           -1600.00     9800.00
03266           -1600.00     9800.00
03267           -1600.00     9600.00
03268           -1600.00     9800.00
03269           -1600.00     9600.00
03270           -1600.00     9400.00
03271           -1600.00     9400.00
03272           -1600.00     9400.00
03273           -1480.00     9400.00
03274           -1440.00     9200.00
03275           -1400.00     9200.00
03276           -1360.00     9000.00
03277           -1320.00     9000.00
03278           -1280.00     9000.00
03279           -1160.00     8800.00
03280           -1120.00     8600.00
03281           -1000.00     8600.00
03282           -1000.00     8600.00
03283            -920.00     8400.00
03284            -880.00     8400.00
03285            -800.00     8200.00
03286            -760.00     8000.00
03287            -680.00     8000.00
03288            -640.00     8000.00
03289            -640.00     7800.00
03290            -600.00     7600.00
03291            -600.00     7600.00
03292            -520.00     7400.00
03293            -480.00     7400.00
03294            -480.00     7000.00
03295            -440.00     7000.00
03296            -440.00     6800.00
03297            -360.00     6800.00
03298            -360.00     6800.00
03299            -320.00     6600.00
03300            -320.00     6400.00
03301            -320.00     6200.00
03302            -320.00     6000.00
03303            -280.00     5800.00
03304            -320.00     6000.00
03305            -280.00     5600.00
03306            -280.00     5400.00
03307            -200.00     5400.00
03308            -200.00     5200.00
03309            -200.00     5000.00
03310            -200.00     4800.00
03311            -200.00     4600.00
03312            -200.00     4400.00
03313            -160.00     4400.00
03314            -200.00     4200.00
03315            -160.00     4000.00
03316            -160.00     3600.00
03317            -160.00     3600.00
03318            -160.00     3400.00
03319            -160.00     3400.00
03320            -120.00     3000.00
03321            -160.00     3000.00
03322            -120.00     2800.00
03323            -160.00     2600.00
03324            -120.00     2400.00
03325            -120.00     2000.00
03326            -120.00     1800.00
03327            -120.00     1800.00
03328            -120.00     1600.00
03329             -80.00     1400.00
03330            -120.00     1200.00
03331            -120.00     1200.00
03332            -120.00      800.00
03333             -80.00      600.00
03334             -40.00      400.00
03335             -80.00      400.00
03336             -40.00      200.00
03337             -40.00     -200.00
03338             -40.00     -200.00
03339              40.00     -400.00
03340             120.00     -600.00
03341             120.00     -600.00
03342              40.00    -1000.00
03343               0.00    -1200.00
03344               0.00    -1200.00
03345               0.00    -1400.00
03346             240.00    -1600.00
03347             920.00    -1800.00
03348            1000.00    -2200.00
03349              40.00    -2200.00
03350            -960.00    -2600.00
03351           -1480.00    -2600.00
03352           -1280.00    -2200.00
03353             280.00    -2800.00
03354             600.00    -3200.00
03355             160.00    -3000.00
03356             600.00    -3600.00
03357             240.00    -3600.00
03358               0.00    -3400.00
03359             160.00    -4200.00
03360            -160.00    -4000.00
03361             200.00    -4600.00
03362             280.00    -4400.00
03363            -160.00    -4600.00
03364             -40.00    -5200.00
03365             -40.00    -4600.00
03366             120.00    -5200.00
03367             120.00    -5200.00
03368             120.00    -5400.00
03369              80.00    -5800.00
03370              40.00    -5600.00
03371             200.00    -6000.00
03372             160.00    -6000.00
03373             120.00    -6200.00
03374             160.00    -6600.00
03375             160.00    -6200.00
03376             160.00    -6800.00
03377              40.00    -6800.00
03378             160.00    -7000.00
03379             240.00    -7000.00
03380             200.00    -7000.00
03381             200.00    -7400.00
03382             200.00    -7200.00
03383             200.00    -7600.00
03384             200.00    -7800.00
03385             240.00    -7800.00
03386             200.00    -8000.00
03387             160.00    -8200.00
03388             280.00    -8200.00
03389             280.00    -8200.00
03390             280.00    -8400.00
03391             280.00    -8400.00
03392             320.00    -8600.00
03393             280.00    -8600.00
03394             320.00    -8800.00
03395             320.00    -8800.00
03396             360.00    -9000.00
03397             320.00    -9200.00
03398             320.00    -9000.00
03399             360.00    -9200.00
03400             360.00    -9200.00
03401             440.00    -9400.00
03402             440.00    -9400.00
03403             440.00    -9600.00
03404             440.00    -9600.00
03405             480.00    -9600.00
03406             480.00    -9600.00
03407             480.00    -9800.00
03408             520.00    -9600.00
03409             600.00    -9800.00
03410             640.00    -9800.00
03411             640.00    -9800.00
03412             640.00    -9800.00
03413             680.00    -9800.00
03414             680.00   -10000.00
03415             760.00    -9800.00
03416             800.00   -10000.00
03417             800.00   -10000.00
03418             840.00   -10000.00
03419             920.00   -10000.00
03420             960.00    -9800.00
03421            1040.00   -10000.00
03422            1120.00   -10000.00
03423            1160.00    -9800.00
03424            1240.00   -10000.00
03425            1280.00   -10000.00
03426            1320.00   -10000.00
03427            1400.00    -9800.00
03428            1440.00    -9800.00
03429            1480.00    -9800.00
03430            1520.00    -9800.00
03431            1520.00    -9800.00
03432            1560.00    -9800.00
03433            1600.00    -9800.00
03434            1600.00    -9600.00
03435            1600.00    -9600.00
03436            1600.00    -9600.00
03437            1600.00    -9400.00
03438            1560.00    -9400.00
03439            1520.00    -9400.00
03440            1480.00    -9400.00
03441            1480.00    -9200.00
03442            1440.00    -9200.00
03443            1400.00    -9000.00
03444            1280.00    -9000.00
03445            1240.00    -9000.00
03446            1160.00    -8800.00
03447            1080.00    -9000.00
03448            1040.00    -8600.00
03449            1000.00    -8400.00
03450             960.00    -8600.00
03451             840.00    -8400.00
03452             800.00    -8200.00
03453             760.00    -8200.00
03454             680.00    -8200.00
03455             680.00    -7800.00
03456             640.00    -7800.00
03457             600.00    -7600.00
03458             520.00    -7600.00
03459             520.00    -7200.00
03460             480.00    -7200.00
03461             440.00    -7000.00
03462             440.00    -7000.00
03463             400.00    -6800.00
03464             360.00    -6800.00
03465             320.00    -6600.00
03466             320.00    -6600.00
03467             320.00    -6600.00
03468             280.00    -6200.00
03469             280.00    -6200.00
03470             280.00    -6000.00
03471             280.00    -5800.00
03472             240.00    -5400.00
03473             280.00    -5400.00
03474             200.00    -5200.00
03475             200.00    -5200.00
03476             200.00    -5000.00
03477             200.00    -5000.00
03478             160.00    -4600.00
03479             160.00    -4400.00
03480             160.00    -4200.00
03481             160.00    -4200.00
03482             160.00    -3800.00
03483             160.00    -3800.00
03484             120.00    -3600.00
03485             120.00    -3400.00
03486             120.00    -3200.00
03487             160.00    -3000.00
03488             160.00    -3000.00
03489             160.00    -2800.00
03490             160.00    -2600.00
03491              40.00    -2600.00
03492             120.00    -2200.00
03493              40.00    -2000.00
03494               0.00    -1800.00
03495               0.00    -1800.00
03496              40.00    -1400.00
03497             160.00    -1200.00
03498             200.00    -1000.00
03499             200.00     -800.00
03500             160.00     -800.00
03501              80.00     -600.00
03502               0.00     -400.00
03503             -80.00     -200.00
03504            -120.00      200.00
03505               0.00      400.00
03506             120.00      400.00
03507             200.00      600.00
03508             280.00      600.00
03509             280.00     1000.00
03510             200.00     1000.00
03511             120.00     1200.00
03512              80.00     1400.00
03513             360.00     1600.00
03514            1120.00     2000.00
03515             920.00     2200.00
03516            -440.00     2200.00
03517           -1600.00     2200.00
03518           -1960.00     2600.00
03519            -200.00     3200.00
03520            1080.00     2800.00
03521             200.00     3000.00
03522             480.00     3400.00
03523             440.00     3000.00
03524            -440.00     4200.00
03525            -160.00     3800.00
03526            -320.00     3600.00
03527             120.00     4600.00
03528             440.00     3800.00
03529            -360.00     4400.00
03530               0.00     5000.00
03531             -40.00     4600.00
03532            -280.00     5400.00
03533               0.00     5000.00
03534            -120.00     5400.00
03535            -120.00     5800.00
03536            -280.00     5200.00
03537             -40.00     6000.00
03538               0.00     6000.00
03539            -200.00     6200.00
03540               0.00     6400.00
03541             -80.00     6200.00
03542            -160.00     6600.00
03543            -280.00     6200.00
03544            -200.00     7000.00
03545            -160.00     7000.00
03546            -160.00     6800.00
03547            -120.00     7400.00
03548            -160.00     7400.00
03549            -160.00     7600.00
03550            -200.00     7600.00
03551            -160.00     7800.00
03552            -200.00     7800.00
03553            -320.00     7800.00
03554            -280.00     8200.00
03555            -280.00     8200.00
03556            -280.00     8400.00
03557            -200.00     8200.00
03558            -200.00     8600.00
03559            -280.00     8600.00
03560            -320.00     8600.00
03561            -320.00     8800.00
03562            -320.00     8800.00
03563            -320.00     9000.00
03564            -360.00     9200.00
03565            -440.00     9200.00
03566            -440.00     9200.00
03567            -320.00     9400.00
03568            -360.00     9400.00
03569            -360.00     9400.00
03570            -480.00     9400.00
03571            -480.00     9800.00
03572            -520.00     9600.00
03573            -520.00     9800.00
03574            -560.00     9800.00
03575            -520.00     9800.00
03576            -520.00    10000.00
03577            -560.00     9800.00
03578            -640.00    10000.00
03579            -680.00    10000.00
03580            -720.00    10000.00
03581            -680.00    10000.00
03582            -760.00    10000.00
03583            -840.00    10000.00
03584            -840.00    10000.00
03585            -920.00    10200.00
03586            -960.00    10200.00
03587            -960.00    10000.00
03588           -1000.00    10000.00
03589           -1080.00    10000.00
03590           -1120.00    10000.00
03591           -1160.00    10000.00
03592           -1280.00    10000.00
03593           -1320.00    10000.00
03594           -1400.00    10000.00
03595           -1440.00    10000.00
03596           -1480.00     9800.00
03597           -1480.00    10000.00
03598           -1560.00     9800.00
03599           -1600.00     9800.00
03600           -1600.00     9800.00
03601           -1600.00     9800.00
03602           -1640.00     9800.00
03603           -1600.00     9600.00
03604           -1600.00     9600.00
03605           -1600.00     9600.00
03606           -1600.00     9400.00
03607           -1560.00     9400.00
03608           -1480.00     9200.00
03609           -1400.00     9200.00
03610           -1360.00     9200.00
03611           -1320.00     9200.00
03612           -1280.00     9000.00
03613           -1160.00     8800.00
03614           -1120.00     8800.00
03615           -1080.00     8600.00
03616            -960.00     8600.00
03617            -960.00     8600.00
03618            -920.00     8400.00
03619            -840.00     8200.00
03620            -800.00     8200.00
03621            -720.00     8000.00
03622            -640.00     8000.00
03623            -640.00     7800.00
03624            -600.00     7600.00
03625            -560.00     7600.00
03626            -520.00     7600.00
03627            -520.00     7400.00
03628            -480.00     7400.00
03629            -440.00     7000.00
03630            -440.00     7000.00
03631            -360.00     6800.00
03632            -440.00     6800.00
03633            -360.00     6600.00
03634            -320.00     6400.00
03635            -320.00     6200.00
03636            -320.00     6200.00
03637            -320.00     6000.00
03638            -280.00     5800.00
03639            -320.00     5800.00
03640            -280.00     5600.00
03641            -280.00     5400.00
03642            -200.00     5200.00
03643            -200.00     5000.00
03644            -200.00     4800.00
03645            -200.00     4600.00
03646            -200.00     4600.00
03647            -160.00     4400.00
03648            -200.00     4200.00
03649            -160.00     4200.00
03650            -160.00     3800.00
03651            -160.00     3800.00
03652            -160.00     3600.00
03653            -160.00     3400.00
03654            -160.00     3200.00
03655            -120.00     3000.00
03656            -160.00     2800.00
03657            -120.00     2800.00
03658            -160.00     2400.00
03659            -160.00     2200.00
03660            -120.00     2000.00
03661            -120.00     2000.00
03662             -80.00     1800.00
03663             -80.00     1400.00
03664             -80.00     1400.00
03665            -120.00     1200.00
03666            -120.00     1000.00
03667            -120.00      800.00
03668            -120.00      400.00
03669             -80.00      400.00
03670             -40.00      400.00
03671             -40.00      200.00
03672             -40.00     -200.00
03673               0.00     -200.00
03674              80.00     -600.00
03675             120.00     -400.00
03676              80.00     -800.00
03677              40.00    -1000.00
03678               0.00    -1200.00
03679               0.00    -1400.00
03680             120.00    -1400.00
03681             520.00    -1800.00
03682            1120.00    -2200.00
03683             640.00    -2200.00
03684            -480.00    -2600.00
03685           -1240.00    -2800.00
03686           -1560.00    -2600.00
03687            -600.00    -2600.00
03688             680.00    -3200.00
03689             280.00    -3000.00
03690             360.00    -3200.00
03691             600.00    -3800.00
03692               0.00    -3400.00
03693             160.00    -3800.00
03694               0.00    -4200.00
03695             -40.00    -4000.00
03696             360.00    -4600.00
03697              40.00    -4400.00
03698            -160.00    -5000.00
03699               0.00    -4800.00
03700              40.00    -4600.00
03701             120.00    -5400.00
03702             160.00    -5200.00
03703             160.00    -5600.00
03704               0.00    -5600.00
03705             120.00    -5800.00
03706             240.00    -6200.00
03707              80.00    -6000.00
03708             120.00    -6200.00
03709             160.00    -6400.00
03710             160.00    -6600.00
03711             120.00    -7000.00
03712              40.00    -6600.00
03713             200.00    -7000.00
03714             200.00    -7000.00
03715             160.00    -7200.00
03716             200.00    -7400.00
03717             200.00    -7400.00
03718             160.00    -7800.00
03719             200.00    -7800.00
03720             280.00    -7800.00
03721             160.00    -8000.00
03722             200.00    -8200.00
03723             280.00    -8200.00
03724             280.00    -8200.00
03725             280.00    -8600.00
03726             280.00    -8600.00
03727             320.00    -8600.00
03728             280.00    -8800.00
03729             320.00    -9000.00
03730             320.00    -9000.00
03731             320.00    -9000.00
03732             320.00    -9200.00
03733             320.00    -9200.00
03734             360.00    -9200.00
03735             360.00    -9200.00
03736             440.00    -9400.00
03737             480.00    -9400.00
03738             440.00    -9400.00
03739             440.00    -9800.00
03740             480.00    -9600.00
03741             480.00    -9600.00
03742             520.00    -9800.00
03743             600.00    -9800.00
03744             640.00    -9800.00
03745             600.00    -9800.00
03746             640.00    -9800.00
03747             640.00    -9800.00
03748             680.00   -10000.00
03749             760.00    -9800.00
03750             800.00   -10000.00
03751             800.00   -10000.00
03752             840.00   -10000.00
03753             920.00   -10000.00
03754             960.00   -10000.00
03755            1000.00    -9800.00
03756            1080.00   -10000.00
03757            1160.00   -10000.00
03758            1240.00    -9800.00
03759            1240.00   -10000.00
03760            1280.00   -10000.00
03761            1320.00    -9800.00
03762            1440.00    -9800.00
03763            1480.00    -9800.00
03764            1560.00    -9800.00
03765            1560.00    -9800.00
03766            1560.00    -9800.00
03767            1600.00    -9800.00
03768            1600.00    -9600.00
03769            1600.00    -9400.00
03770            1600.00    -9400.00
03771            1600.00    -9400.00
03772            1560.00    -9400.00
03773            1560.00    -9400.00
03774            1480.00    -9200.00
03775            1480.00    -9200.00
03776            1440.00    -9000.00
03777            1400.00    -9200.00
03778            1320.00    -9000.00
03779            1240.00    -9000.00
03780            1160.00    -8800.00
03781            1120.00    -8800.00
03782            1080.00    -8800.00
03783            1000.00    -8600.00
03784             960.00    -8600.00
03785             920.00    -8400.00
03786             800.00    -8400.00
03787             760.00    -8200.00
03788             680.00    -8200.00
03789             680.00    -8200.00
03790             640.00    -7800.00
03791             600.00    -7600.00
03792             520.00    -7600.00
03793             520.00    -7600.00
03794             480.00    -7200.00
03795             440.00    -7200.00
03796             440.00    -7200.00
03797             440.00    -7000.00
03798             360.00    -6800.00
03799             360.00    -6600.00
03800             320.00    -6600.00
03801             320.00    -6400.00
03802             320.00    -6200.00
03803             280.00    -6200.00
03804             320.00    -6000.00
03805             280.00    -5800.00
03806             200.00    -5800.00
03807             200.00    -5400.00
03808             200.00    -5400.00
03809             200.00    -5200.00
03810             200.00    -5000.00
03811             200.00    -5000.00
03812             160.00    -4600.00
03813             160.00    -4600.00
03814             160.00    -4400.00
03815             160.00    -4200.00
03816             160.00    -4200.00
03817             160.00    -4000.00
03818             160.00    -3600.00
03819             160.00    -3400.00
03820             160.00    -3400.00
03821             120.00    -3200.00
03822             120.00    -3000.00
03823             120.00    -2800.00
03824             120.00    -2600.00
03825             120.00    -2600.00
03826              80.00    -2200.00
03827             120.00    -2000.00
03828             120.00    -2000.00
03829             120.00    -1800.00
03830             120.00    -1400.00
03831             120.00    -1200.00
03832              80.00    -1200.00
03833              40.00     -800.00
03834              80.00     -600.00
03835              40.00     -400.00
03836              40.00     -400.00
03837             120.00     -200.00
03838              40.00        0.00
03839              40.00      200.00
03840              80.00      400.00
03841             160.00      600.00
03842             200.00      600.00
03843             200.00      800.00
03844             160.00     1000.00
03845             120.00     1200.00
03846              40.00     1400.00
03847             200.00     1400.00
03848             840.00     2000.00
03849            1320.00     2000.00
03850             400.00     2200.00
03851           -1080.00     2200.00
03852           -1960.00     2200.00
03853           -1440.00     2800.00
03854             640.00     3400.00
03855             640.00     2800.00
03856             160.00     3400.00
03857             680.00     3000.00
03858               0.00     3600.00
03859            -240.00     4000.00
03860             -40.00     3400.00
03861            -200.00     4400.00
03862             440.00     4400.00
03863            -120.00     4000.00
03864            -360.00     5000.00
03865              40.00     4600.00
03866            -320.00     5000.00
03867             -80.00     5200.00
03868              40.00     4800.00
03869               0.00     5800.00
03870            -120.00     5400.00
03871            -200.00     5600.00
03872              40.00     6200.00
03873            -200.00     5800.00
03874            -160.00     6400.00
03875             -80.00     6200.00
03876            -160.00     6600.00
03877            -160.00     6600.00
03878            -200.00     6600.00
03879            -120.00     7200.00
03880            -120.00     6600.00
03881            -160.00     7200.00
03882            -160.00     7400.00
03883            -200.00     7400.00
03884            -200.00     7600.00
03885            -160.00     7600.00
03886            -160.00     8000.00
03887            -280.00     7800.00
03888            -200.00     8000.00
03889            -280.00     8200.00
03890            -200.00     8200.00
03891            -200.00     8400.00
03892            -200.00     8400.00
03893            -280.00     8600.00
03894            -360.00     8600.00
03895            -320.00     8800.00
03896            -360.00     9000.00
03897            -320.00     9000.00
03898            -320.00     9000.00
03899            -360.00     9200.00
03900            -400.00     9200.00
03901            -440.00     9400.00
03902            -360.00     9400.00
03903            -360.00     9400.00
03904            -440.00     9400.00
03905            -480.00     9600.00
03906            -480.00     9600.00
03907            -520.00     9800.00
03908            -520.00     9800.00
03909            -560.00     9800.00
03910            -520.00     9800.00
03911            -600.00    10000.00
03912            -600.00    10000.00
03913            -680.00     9800.00
03914            -680.00     9800.00
03915            -720.00    10000.00
03916            -720.00    10000.00
03917            -800.00    10000.00
03918            -840.00    10000.00
03919            -920.00    10000.00
03920            -960.00    10000.00
03921            -960.00    10000.00
03922           -1000.00    10000.00
03923           -1080.00    10000.00
03924           -1120.00    10000.00
03925           -1160.00    10200.00
03926           -1240.00    10000.00
03927           -1320.00    10000.00
03928           -1400.00    10000.00
03929           -1440.00    10000.00
03930           -1480.00     9800.00
03931           -1520.00     9800.00
03932           -1560.00     9800.00
03933           -1600.00     9800.00
03934           -1600.00     9800.00
03935           -1600.00     9800.00
03936           -1600.00     9800.00
03937           -1600.00     9800.00
03938           -1600.00     9600.00
03939           -1600.00     9400.00
03940           -1600.00     9400.00
03941           -1560.00     9400.00
03942           -1520.00     9200.00
03943           -1440.00     9400.00
03944           -1400.00     9200.00
03945           -1320.00     9200.00
03946           -1280.00     9000.00
03947           -1240.00     9000.00
03948           -1160.00     9000.00
03949           -1080.00     8600.00
03950           -1000.00     8600.00
03951            -960.00     8400.00
03952            -960.00     8600.00
03953            -840.00     8400.00
03954            -800.00     8400.00
03955            -760.00     8200.00
03956            -680.00     8000.00
03957            -640.00     8000.00
03958            -640.00     7800.00
03959            -600.00     7600.00
03960            -560.00     7600.00
03961            -520.00     7400.00
03962            -480.00     7400.00
03963            -480.00     7400.00
03964            -440.00     7000.00
03965            -440.00     7000.00
03966            -360.00     6600.00
03967            -360.00     6600.00
03968            -320.00     6600.00
03969            -360.00     6400.00
03970            -280.00     6200.00
03971            -320.00     6000.00
03972            -280.00     6000.00
03973            -280.00     5800.00
03974            -200.00     5600.00
03975            -240.00     5400.00
03976            -200.00     5400.00
03977            -200.00     5200.00
03978            -200.00     5000.00
03979            -200.00     4800.00
03980            -200.00     4800.00
03981            -160.00     4400.00
03982            -200.00     4400.00
03983            -160.00     4200.00
03984            -200.00     3800.00
03985            -160.00     3800.00
03986            -160.00     3600.00
03987            -160.00     3400.00
03988            -200.00     3400.00
03989            -160.00     3000.00
03990            -160.00     3000.00
03991            -160.00     2800.00
03992            -120.00     2600.00
03993            -160.00     2200.00
03994            -120.00     2200.00
03995            -120.00     2000.00
03996            -120.00     1800.00
03997            -120.00     1600.00
03998            -120.00     1400.00
03999             -80.00     1400.00
04000            -120.00     1000.00
04001            -120.00      800.00
04002            -120.00      600.00
04003             -80.00      600.00
04004             -40.00      400.00
04005             -40.00      200.00
04006             -40.00        0.00
04007             -40.00     -200.00
04008              40.00     -400.00
04009             120.00     -600.00
04010             120.00     -600.00
04011              40.00     -800.00
04012               0.00    -1000.00
04013               0.00    -1200.00
04014              40.00    -1200.00
04015             280.00    -1400.00
04016             920.00    -1800.00
04017            1080.00    -2200.00
04018             120.00    -2200.00
04019            -960.00    -2600.00
04020           -1480.00    -2600.00
04021           -1320.00    -2400.00
04022             200.00    -2800.00
04023             600.00    -3200.00
04024             160.00    -3000.00
04025             600.00    -3600.00
04026             280.00    -3400.00
04027              40.00    -3400.00
04028             200.00    -4400.00
04029            -160.00    -4000.00
04030             200.00    -4400.00
04031             280.00    -4600.00
04032            -120.00    -4600.00
04033             -80.00    -5000.00
04034               0.00    -4600.00
04035             120.00    -5200.00
04036             120.00    -5400.00
04037             160.00    -5400.00
04038             120.00    -5800.00
04039              40.00    -5600.00
04040             280.00    -6000.00
04041             160.00    -6000.00
04042             120.00    -6200.00
04043             120.00    -6400.00
04044             160.00    -6200.00
04045             160.00    -6600.00
04046              40.00    -6800.00
04047             160.00    -7000.00
04048             280.00    -7000.00
04049             160.00    -7000.00
04050             160.00    -7400.00
04051             200.00    -7200.00
04052             160.00    -7600.00
04053             200.00    -7800.00
04054             240.00    -7800.00
04055             160.00    -7800.00
04056             160.00    -8200.00
04057             280.00    -8200.00
04058             280.00    -8200.00
04059             280.00    -8400.00
04060             280.00    -8600.00
04061             320.00    -8600.00
04062             280.00    -8800.00
04063             280.00    -8600.00
04064             320.00    -9000.00
04065             360.00    -9000.00
04066             320.00    -9200.00
04067             320.00    -9200.00
04068             360.00    -9200.00
04069             320.00    -9200.00
04070             440.00    -9200.00
04071             480.00    -9400.00
04072             440.00    -9200.00
04073             440.00    -9400.00
04074             440.00    -9400.00
04075             480.00    -9600.00
04076             480.00    -9600.00
04077             560.00    -9800.00
04078             640.00    -9800.00
04079             600.00    -9800.00
04080             640.00    -9800.00
04081             640.00    -9800.00
04082             680.00    -9800.00
04083             680.00   -10000.00
04084             800.00    -9800.00
04085             800.00    -9800.00
04086             840.00   -10000.00
04087             920.00   -10000.00
04088             960.00    -9800.00
04089             960.00   -10000.00
04090            1040.00    -9800.00
04091            1120.00    -9800.00
04092            1160.00   -10000.00
04093            1240.00   -10000.00
04094            1280.00    -9800.00
04095            1320.00    -9800.00
04096            1400.00   -10000.00
04097            1440.00    -9800.00
04098            1560.00    -9800.00
04099            1560.00    -9800.00
04100            1560.00    -9800.00
04101            1600.00    -9800.00
04102            1600.00    -9800.00
04103            1600.00    -9800.00
04104            1600.00    -9400.00
04105            1600.00    -9400.00
04106            1600.00    -9400.00
04107            1560.00    -9400.00
04108            1520.00    -9400.00
04109            1480.00    -9200.00
04110            1440.00    -9200.00
04111            1440.00    -9200.00
04112            1360.00    -9000.00
04113            1320.00    -9200.00
04114            1240.00    -9000.00
04115            1160.00    -8800.00
04116            1080.00    -8600.00
04117            1000.00    -8600.00
04118             960.00    -8600.00
04119             920.00    -8600.00
04120             800.00    -8400.00
04121             760.00    -8400.00
04122             760.00    -8200.00
04123             680.00    -8200.00
04124             640.00    -7800.00
04125             600.00    -7800.00
04126             600.00    -7600.00
04127             520.00    -7600.00
04128             480.00    -7200.00
04129             480.00    -7400.00
04130             440.00    -7200.00
04131             440.00    -7000.00
04132             400.00    -6800.00
04133             320.00    -6800.00
04134             320.00    -6600.00
04135             320.00    -6600.00
04136             320.00    -6400.00
04137             320.00    -6200.00
04138             320.00    -6200.00
04139             280.00    -6000.00
04140             280.00    -5800.00
04141             200.00    -5600.00
04142             240.00    -5400.00
04143             200.00    -5400.00
04144             280.00    -5000.00
04145             200.00    -5000.00
04146             200.00    -5000.00
04147             160.00    -4600.00
04148             200.00    -4400.00
04149             160.00    -4400.00
04150             160.00    -4200.00
04151             160.00    -4000.00
04152             160.00    -3800.00
04153             160.00    -3600.00
04154             120.00    -3400.00
04155             160.00    -3200.00
04156             120.00    -3000.00
04157             120.00    -3000.00
04158             160.00    -2600.00
04159             120.00    -2400.00
04160             120.00    -2200.00
04161             120.00    -2200.00
04162              80.00    -2000.00
04163             120.00    -1800.00
04164             120.00    -1400.00
04165              80.00    -1400.00
04166             120.00    -1400.00
04167              40.00     -800.00
04168              40.00    -1000.00
04169              40.00     -600.00
04170              40.00     -600.00
04171              40.00     -200.00
04172              40.00        0.00
04173              40.00      200.00
04174              40.00      200.00
04175             120.00      400.00
04176             160.00      600.00
04177             200.00      800.00
04178             160.00     1000.00
04179             120.00     1000.00
04180              40.00     1400.00
04181              40.00     1400.00
04182             400.00     1800.00
04183            1240.00     2000.00
04184            1000.00     2000.00
04185            -320.00     2200.00
04186           -1600.00     2200.00
04187           -2040.00     2600.00
04188            -440.00     3000.00
04189            1000.00     2800.00
04190             160.00     3000.00
04191             440.00     3400.00
04192             480.00     3200.00
04193            -320.00     4200.00
04194               0.00     4000.00
04195            -240.00     3600.00
04196             120.00     4600.00
04197             360.00     4000.00
04198            -440.00     4400.00
04199             -40.00     5000.00
04200            -120.00     4600.00
04201            -320.00     5200.00
04202              40.00     5000.00
04203             -40.00     5400.00
04204               0.00     5800.00
04205            -200.00     5200.00
04206             -40.00     6000.00
04207               0.00     6000.00
04208            -240.00     6200.00
04209             -40.00     6600.00
04210            -120.00     6200.00
04211            -120.00     6800.00
04212            -200.00     6400.00
04213            -160.00     7000.00
04214            -120.00     7000.00
04215            -120.00     6800.00
04216            -120.00     7400.00
04217            -200.00     7400.00
04218            -200.00     7800.00
04219            -200.00     7600.00
04220            -160.00     7800.00
04221            -200.00     8000.00
04222            -280.00     8000.00
04223            -280.00     8200.00
04224            -280.00     8200.00
04225            -240.00     8400.00
04226            -200.00     8400.00
04227            -200.00     8600.00
04228            -320.00     8600.00
04229            -320.00     8600.00
04230            -320.00     8800.00
04231            -320.00     9000.00
04232            -320.00     9000.00
04233            -320.00     9000.00
04234            -360.00     9200.00
04235            -440.00     9200.00
04236            -360.00     9200.00
04237            -360.00     9600.00
04238            -360.00     9400.00
04239            -480.00     9800.00
04240            -480.00     9600.00
04241            -520.00     9600.00
04242            -520.00     9800.00
04243            -520.00     9800.00
04244            -560.00     9800.00
04245            -600.00     9800.00
04246            -600.00     9800.00
04247            -640.00    10000.00
04248            -720.00    10000.00
04249            -760.00    10000.00
04250            -680.00    10000.00
04251            -760.00     9800.00
04252            -840.00    10000.00
04253            -840.00    10000.00
04254            -920.00    10200.00
04255            -960.00    10200.00
04256           -1000.00    10000.00
04257           -1000.00    10000.00
04258           -1080.00    10200.00
04259           -1160.00    10000.00
04260           -1240.00    10200.00
04261           -1280.00    10000.00
04262           -1360.00    10000.00
04263           -1400.00     9800.00
04264           -1400.00     9800.00
04265           -1480.00    10000.00
04266           -1520.00    10000.00
04267           -1560.00     9800.00
04268           -1600.00     9800.00
04269           -1600.00     9800.00
04270           -1600.00     9800.00
04271           -1600.00     9800.00
04272           -1640.00     9800.00
04273           -1600.00     9600.00
04274           -1600.00     9400.00
04275           -1600.00     9400.00
04276           -1520.00     9200.00
04277           -1480.00     9400.00
04278           -1400.00     9200.00
04279           -1360.00     9200.00
04280           -1320.00     9000.00
04281           -1280.00     9000.00
04282           -1160.00     8800.00
04283           -1120.00     9000.00
04284           -1000.00     8600.00
04285            -960.00     8600.00
04286            -960.00     8600.00
04287            -840.00     8400.00
04288            -840.00     8200.00
04289            -760.00     8200.00
04290            -760.00     8200.00
04291            -680.00     8000.00
04292            -640.00     7800.00
04293            -600.00     7800.00
04294            -600.00     7600.00
04295            -520.00     7600.00
04296            -480.00     7400.00
04297            -480.00     7200.00
04298            -440.00     7000.00
04299            -440.00     7000.00
04300            -440.00     6800.00
04301            -440.00     6800.00
04302            -360.00     6600.00
04303            -320.00     6600.00
04304            -320.00     6200.00
04305            -320.00     6200.00
04306            -280.00     6000.00
04307            -280.00     5800.00
04308            -280.00     5800.00
04309            -320.00     5400.00
04310            -280.00     5400.00
04311            -240.00     5200.00
04312            -200.00     5000.00
04313            -200.00     5000.00
04314            -200.00     4600.00
04315            -200.00     4600.00
04316            -200.00     4400.00
04317            -200.00     4200.00
04318            -200.00     4000.00
04319            -160.00     3800.00
04320            -160.00     3800.00
04321            -160.00     3400.00
04322            -160.00     3400.00
04323            -160.00     3200.00
04324            -160.00     3000.00
04325            -160.00     2800.00
04326            -120.00     2600.00
04327            -160.00     2400.00
04328            -160.00     2200.00
04329            -120.00     2000.00
04330            -120.00     2000.00
04331            -120.00     1800.00
04332            -120.00     1400.00
04333            -120.00     1400.00
04334             -80.00     1200.00
04335            -120.00     1000.00
04336            -120.00      800.00
04337             -80.00      400.00
04338             -40.00      400.00
04339             -40.00      400.00
04340             -40.00      200.00
04341             -40.00     -200.00
04342               0.00     -400.00
04343             120.00     -600.00
04344             120.00     -600.00
04345              80.00     -800.00
04346               0.00    -1000.00
04347               0.00    -1200.00
04348               0.00    -1200.00
04349              40.00    -1400.00
04350             520.00    -1600.00
04351            1120.00    -2000.00
04352             680.00    -2400.00
04353            -480.00    -2400.00
04354           -1240.00    -2600.00
04355           -1560.00    -2600.00
04356            -640.00    -2200.00
04357             680.00    -3400.00
04358             280.00    -3000.00
04359             320.00    -3200.00
04360             600.00    -3800.00
04361               0.00    -3200.00
04362             160.00    -4000.00
04363               0.00    -4200.00
04364             -40.00    -4000.00
04365             360.00    -4800.00
04366              40.00    -4200.00
04367            -160.00    -5000.00
04368             -40.00    -5000.00
04369               0.00    -4800.00
04370             160.00    -5400.00
04371             120.00    -5400.00
04372             160.00    -5400.00
04373               0.00    -5800.00
04374             160.00    -5800.00
04375             240.00    -6000.00
04376              80.00    -6000.00
04377             120.00    -6600.00
04378             120.00    -6400.00
04379             160.00    -6600.00
04380              80.00    -6800.00
04381              80.00    -6800.00
04382             200.00    -7000.00
04383             200.00    -7000.00
04384             160.00    -7400.00
04385             160.00    -7200.00
04386             200.00    -7400.00
04387             160.00    -7800.00
04388             200.00    -7800.00
04389             200.00    -7800.00
04390             160.00    -8000.00
04391             160.00    -8200.00
04392             280.00    -8200.00
04393             280.00    -8400.00
04394             240.00    -8400.00
04395             320.00    -8600.00
04396             280.00    -8600.00
04397             240.00    -8800.00
04398             320.00    -9000.00
04399             320.00    -9000.00
04400             360.00    -9200.00
04401             320.00    -9200.00
04402             320.00    -9200.00
04403             360.00    -9000.00
04404             360.00    -9200.00
04405             480.00    -9400.00
04406             480.00    -9400.00
04407             440.00    -9400.00
04408             480.00    -9600.00
04409             480.00    -9600.00
04410             520.00    -9600.00
04411             520.00    -9800.00
04412             600.00    -9800.00
04413             640.00    -9800.00
04414             640.00    -9800.00
04415             640.00    -9800.00
04416             680.00    -9800.00
04417             680.00    -9800.00
04418             760.00    -9800.00
04419             800.00    -9800.00
04420             800.00   -10000.00
04421             840.00    -9800.00
04422             960.00   -10000.00
04423             960.00   -10000.00
04424            1040.00   -10000.00
04425            1080.00   -10000.00
04426            1120.00    -9800.00
04427            1200.00    -9800.00
04428            1280.00   -10000.00
04429            1280.00    -9800.00
04430            1320.00   -10000.00
04431            1400.00   -10000.00
04432            1480.00    -9800.00
04433            1520.00    -9800.00
04434            1560.00    -9800.00
04435            1560.00    -9800.00
04436            1560.00    -9800.00
04437            1600.00    -9800.00
04438            1600.00    -9600.00
04439            1600.00    -9600.00
04440            1600.00    -9400.00
04441            1560.00    -9600.00
04442            1560.00    -9400.00
04443            1480.00    -9400.00
04444            1440.00    -9200.00
04445            1440.00    -9400.00
04446            1400.00    -9200.00
04447            1320.00    -9000.00
04448            1240.00    -9000.00
04449            1120.00    -9000.00
04450            1080.00    -8800.00
04451            1040.00    -8600.00
04452            1000.00    -8600.00
04453             960.00    -8600.00
04454             840.00    -8400.00
04455             800.00    -8400.00
04456             760.00    -8400.00
04457             680.00    -8200.00
04458             680.00    -8000.00
04459             640.00    -7800.00
04460             600.00    -7800.00
04461             520.00    -7600.00
04462             480.00    -7600.00
04463             480.00    -7200.00
04464             440.00    -7200.00
04465             440.00    -7000.00
04466             400.00    -7000.00
04467             400.00    -6800.00
04468             360.00    -6800.00
04469             360.00    -6600.00
04470             320.00    -6600.00
04471             320.00    -6200.00
04472             280.00    -6000.00
04473             280.00    -5800.00
04474             280.00    -5800.00
04475             280.00    -5800.00
04476             240.00    -5600.00
04477             200.00    -5400.00
04478             200.00    -5200.00
04479             240.00    -5000.00
04480             200.00    -4800.00
04481             200.00    -4600.00
04482             200.00    -4600.00
04483             160.00    -4400.00
04484             200.00    -4200.00
04485             160.00    -3800.00
04486             160.00    -4000.00
04487             160.00    -3600.00
04488             120.00    -3600.00
04489             120.00    -3400.00
04490             120.00    -3200.00
04491             120.00    -2800.00
04492             160.00    -2800.00
04493             160.00    -2600.00
04494             120.00    -2400.00
04495             120.00    -2200.00
04496              80.00    -2200.00
04497             120.00    -2000.00
04498              80.00    -1800.00
04499             120.00    -1600.00
04500             120.00    -1400.00
04501             120.00    -1200.00
04502              40.00    -1000.00
04503              40.00     -800.00
04504              80.00     -600.00
04505              40.00     -400.00
04506              40.00     -200.00
04507              40.00     -200.00
04508              40.00      200.00
04509              40.00      200.00
04510             120.00      400.00
04511             160.00      600.00
04512             160.00     1000.00
04513             120.00     1000.00
04514             120.00     1000.00
04515              80.00     1400.00
04516             120.00     1400.00
04517             800.00     1800.00
04518            1280.00     2000.00
04519             440.00     2200.00
04520           -1000.00     2200.00
04521           -1960.00     2200.00
04522           -1480.00     2800.00
04523             600.00     3000.00
04524             640.00     2800.00
04525             120.00     3200.00
04526             640.00     3000.00
04527               0.00     3600.00
04528            -200.00     4200.00
04529             -40.00     3400.00
04530            -200.00     4200.00
04531             440.00     4600.00
04532             -80.00     3800.00
04533            -400.00     4800.00
04534             120.00     4600.00
04535            -320.00     4800.00
04536             -40.00     5200.00
04537               0.00     5000.00
04538               0.00     5800.00
04539            -120.00     5400.00
04540            -200.00     5600.00
04541              40.00     6200.00
04542            -160.00     5800.00
04543            -160.00     6200.00
04544             -40.00     6200.00
04545            -160.00     6600.00
04546            -120.00     6600.00
04547            -240.00     6600.00
04548            -120.00     7400.00
04549            -120.00     6800.00
04550            -120.00     7200.00
04551            -160.00     7400.00
04552            -160.00     7400.00
04553            -200.00     7600.00
04554            -200.00     7800.00
04555            -160.00     8000.00
04556            -200.00     7800.00
04557            -200.00     8200.00
04558            -280.00     8200.00
04559            -240.00     8200.00
04560            -240.00     8400.00
04561            -200.00     8400.00
04562            -280.00     8600.00
04563            -320.00     8600.00
04564            -320.00     8600.00
04565            -320.00     8800.00
04566            -280.00     9200.00
04567            -320.00     9200.00
04568            -360.00     9200.00
04569            -440.00     9200.00
04570            -440.00     9400.00
04571            -360.00     9400.00
04572            -360.00     9400.00
04573            -440.00     9400.00
04574            -480.00     9600.00
04575            -520.00     9400.00
04576            -520.00     9600.00
04577            -520.00     9800.00
04578            -520.00     9800.00
04579            -560.00     9800.00
04580            -600.00     9800.00
04581            -640.00    10000.00
04582            -680.00    10000.00
04583            -720.00     9800.00
04584            -720.00    10200.00
04585            -760.00    10000.00
04586            -800.00    10000.00
04587            -840.00    10000.00
04588            -840.00    10000.00
04589            -920.00    10000.00
04590           -1000.00    10000.00
04591           -1000.00    10000.00
04592           -1080.00    10000.00
04593           -1120.00    10000.00
04594           -1160.00    10000.00
04595           -1240.00    10000.00
04596           -1320.00    10000.00
04597           -1400.00    10000.00
04598           -1400.00    10000.00
04599           -1440.00    10000.00
04600           -1480.00     9800.00
04601           -1560.00     9800.00
04602           -1600.00    10000.00
04603           -1600.00     9800.00
04604           -1600.00     9800.00
04605           -1600.00     9800.00
04606           -1600.00     9600.00
04607           -1600.00     9400.00
04608           -1600.00     9600.00
04609           -1560.00     9400.00
04610           -1560.00     9400.00
04611           -1480.00     9200.00
04612           -1440.00     9400.00
04613           -1400.00     9200.00
04614           -1320.00     9200.00
04615           -1280.00     9200.00
04616           -1240.00     9000.00
04617           -1120.00     8800.00
04618           -1080.00     8800.00
04619           -1040.00     8600.00
04620            -960.00     8600.00
04621            -920.00     8600.00
04622            -840.00     8400.00
04623            -800.00     8400.00
04624            -760.00     8200.00
04625            -680.00     8000.00
04626            -640.00     8000.00
04627            -640.00     7800.00
04628            -600.00     7600.00
04629            -560.00     7600.00
04630            -520.00     7400.00
04631            -480.00     7400.00
04632            -480.00     7400.00
04633            -440.00     7000.00
04634            -440.00     6800.00
04635            -440.00     6800.00
04636            -360.00     6600.00
04637            -360.00     6600.00
04638            -360.00     6200.00
04639            -320.00     6200.00
04640            -320.00     6000.00
04641            -320.00     5800.00
04642            -320.00     5800.00
04643            -280.00     5600.00
04644            -240.00     5400.00
04645            -200.00     5400.00
04646            -200.00     5200.00
04647            -280.00     5000.00
04648            -240.00     4800.00
04649            -200.00     4600.00
04650            -200.00     4600.00
04651            -200.00     4400.00
04652            -200.00     4200.00
04653            -200.00     4000.00
04654            -200.00     3800.00
04655            -200.00     3800.00
04656            -160.00     3400.00
04657            -160.00     3200.00
04658            -120.00     3000.00
04659            -160.00     3000.00
04660            -160.00     2800.00
04661            -160.00     2400.00
04662            -160.00     2200.00
04663            -160.00     2200.00
04664            -120.00     2000.00
04665            -120.00     1800.00
04666            -120.00     1800.00
04667            -120.00     1400.00
04668             -80.00     1200.00
04669             -80.00     1000.00
04670            -120.00     1000.00
04671             -80.00      600.00
04672             -40.00      400.00
04673             -40.00      400.00
04674             -40.00      200.00
04675             -40.00        0.00
04676             -40.00     -400.00
04677              40.00     -200.00
04678             120.00     -400.00
04679             120.00     -600.00
04680              80.00    -1000.00
04681               0.00    -1000.00
04682              40.00    -1200.00
04683               0.00    -1200.00
04684             280.00    -1400.00
04685             840.00    -1800.00
04686            1080.00    -2200.00
04687             160.00    -2200.00
04688            -920.00    -2600.00
04689           -1440.00    -2600.00
04690           -1320.00    -2200.00
04691             160.00    -2800.00
04692             640.00    -3400.00
04693             160.00    -3000.00
04694             600.00    -3800.00
04695             320.00    -3600.00
04696               0.00    -3400.00
04697             200.00    -4400.00
04698            -120.00    -3800.00
04699             200.00    -4400.00
04700             320.00    -4600.00
04701            -120.00    -4600.00
04702            -120.00    -5000.00
04703             -40.00    -4800.00
04704              80.00    -5200.00
04705             120.00    -5400.00
04706             160.00    -5400.00
04707             120.00    -5800.00
04708              40.00    -5600.00
04709             200.00    -6000.00
04710             160.00    -6000.00
04711              40.00    -6200.00
04712             120.00    -6600.00
04713             120.00    -6200.00
04714             120.00    -6800.00
04715              40.00    -6800.00
04716             120.00    -6800.00
04717             280.00    -7000.00
04718             160.00    -7000.00
04719             160.00    -7400.00
04720             200.00    -7400.00
04721             200.00    -7600.00
04722             160.00    -7800.00
04723             280.00    -7800.00
04724             160.00    -8000.00
04725             160.00    -8000.00
04726             240.00    -8200.00
04727             280.00    -8200.00
04728             280.00    -8400.00
04729             280.00    -8600.00
04730             320.00    -8600.00
04731             320.00    -8800.00
04732             280.00    -8600.00
04733             320.00    -8800.00
04734             320.00    -9000.00
04735             320.00    -9200.00
04736             320.00    -9200.00
04737             360.00    -9200.00
04738             360.00    -9200.00
04739             440.00    -9400.00
04740             480.00    -9400.00
04741             480.00    -9400.00
04742             480.00    -9400.00
04743             440.00    -9400.00
04744             480.00    -9400.00
04745             520.00    -9800.00
04746             600.00    -9600.00
04747             640.00    -9800.00
04748             640.00    -9800.00
04749             640.00   -10000.00
04750             680.00    -9800.00
04751             680.00    -9800.00
04752             760.00    -9800.00
04753             800.00    -9800.00
04754             840.00   -10000.00
04755             840.00   -10000.00
04756             840.00    -9800.00
04757             960.00   -10000.00
04758             960.00   -10000.00
04759            1080.00    -9800.00
04760            1120.00    -9800.00
04761            1160.00    -9800.00
04762            1240.00   -10000.00
04763            1280.00   -10000.00
04764            1320.00    -9800.00
04765            1360.00    -9800.00
04766            1440.00    -9800.00
04767            1480.00    -9800.00
04768            1520.00    -9800.00
04769            1560.00    -9800.00
04770            1560.00    -9800.00
04771            1560.00    -9800.00
04772            1600.00    -9600.00
04773            1600.00    -9600.00
04774            1600.00    -9600.00
04775            1600.00    -9600.00
04776            1560.00    -9400.00
04777            1560.00    -9400.00
04778            1480.00    -9400.00
04779            1440.00    -9200.00
04780            1400.00    -9200.00
04781            1400.00    -9000.00
04782            1280.00    -9000.00
04783            1240.00    -9000.00
04784            1120.00    -9000.00
04785            1080.00    -8800.00
04786            1000.00    -8600.00
04787             960.00    -8600.00
04788             920.00    -8400.00
04789             840.00    -8400.00
04790             760.00    -8400.00
04791             760.00    -8200.00
04792             720.00    -8200.00
04793             640.00    -7800.00
04794             640.00    -7600.00
04795             560.00    -7800.00
04796             520.00    -7400.00
04797             480.00    -7400.00
04798             480.00    -7200.00
04799             440.00    -7200.00
04800             440.00    -7200.00
04801             400.00    -7000.00
04802             360.00    -6800.00
04803             360.00    -6800.00
04804             320.00    -6400.00
04805             320.00    -6400.00
04806             320.00    -6200.00
04807             320.00    -6000.00
04808             280.00    -6000.00
04809             280.00    -5800.00
04810             280.00    -5800.00
04811             240.00    -5400.00
04812             280.00    -5400.00
04813             200.00    -5200.00
04814             200.00    -5000.00
04815             200.00    -4800.00
04816             160.00    -4600.00
04817             200.00    -4600.00
04818             160.00    -4200.00
04819             200.00    -4200.00
04820             160.00    -3800.00
04821             160.00    -3800.00
04822             160.00    -3600.00
04823             120.00    -3400.00
04824             160.00    -3400.00
04825             120.00    -3000.00
04826             120.00    -2800.00
04827             160.00    -2800.00
04828             120.00    -2600.00
04829             120.00    -2200.00
04830             120.00    -2200.00
04831              80.00    -2000.00
04832             120.00    -1800.00
04833              80.00    -1800.00
04834             120.00    -1400.00
04835              80.00    -1200.00
04836               0.00    -1000.00
04837              40.00     -800.00
04838              40.00     -600.00
04839              40.00     -600.00
04840              40.00     -400.00
04841              40.00        0.00
04842              80.00        0.00
04843              40.00      400.00
04844             120.00      200.00
04845             160.00      600.00
04846             200.00      800.00
04847             160.00     1000.00
04848             120.00     1000.00
04849              40.00     1200.00
04850              80.00     1400.00
04851             360.00     1600.00
04852            1240.00     2000.00
04853            1040.00     2200.00
04854            -320.00     2200.00
04855           -1560.00     2000.00
04856           -2080.00     2600.00
04857            -480.00     3000.00
04858            1000.00     3000.00
04859             160.00     3000.00
04860             440.00     3400.00
04861             520.00     3000.00
04862            -320.00     4200.00
04863             -40.00     3800.00
04864            -280.00     3600.00
04865              40.00     4800.00
04866             360.00     4000.00
04867            -440.00     4400.00
04868             -40.00     5000.00
04869             -80.00     4600.00
04870            -320.00     5200.00
04871              40.00     5000.00
04872               0.00     5600.00
04873               0.00     5800.00
04874            -200.00     5200.00
04875             -40.00     6200.00
04876               0.00     5800.00
04877            -280.00     6000.00
04878             -40.00     6200.00
04879            -120.00     6200.00
04880            -120.00     6800.00
04881            -200.00     6600.00
04882            -200.00     7000.00
04883            -120.00     7000.00
04884            -120.00     6800.00
04885            -120.00     7400.00
04886            -200.00     7400.00
04887            -200.00     7600.00
04888            -200.00     7600.00
04889            -160.00     7800.00
04890            -200.00     8000.00
04891            -240.00     7800.00
04892            -240.00     8200.00
04893            -280.00     8200.00
04894            -200.00     8400.00
04895            -200.00     8400.00
04896            -200.00     8600.00
04897            -320.00     8600.00
04898            -320.00     8600.00
04899            -320.00     8800.00
04900            -320.00     9000.00
04901            -320.00     9000.00
04902            -360.00     9000.00
04903            -360.00     9000.00
04904            -440.00     9200.00
04905            -360.00     9200.00
04906            -360.00     9400.00
04907            -440.00     9400.00
04908            -480.00     9400.00
04909            -480.00     9600.00
04910            -520.00     9600.00
04911            -520.00     9800.00
04912            -520.00     9800.00
04913            -600.00     9800.00
04914            -600.00     9800.00
04915            -600.00     9800.00
04916            -680.00    10000.00
04917            -680.00     9800.00
04918            -760.00    10000.00
04919            -680.00    10000.00
04920            -800.00    10000.00
04921            -840.00    10200.00
04922            -840.00    10000.00
04923            -920.00    10000.00
04924            -960.00    10000.00
04925           -1000.00    10000.00
04926           -1040.00    10000.00
04927           -1120.00    10200.00
04928           -1120.00    10000.00
04929           -1200.00    10000.00
04930           -1280.00    10000.00
04931           -1360.00    10000.00
04932           -1400.00    10000.00
04933           -1400.00    10000.00
04934           -1440.00     9800.00
04935           -1480.00     9800.00
04936           -1560.00     9800.00
04937           -1600.00     9800.00
04938           -1600.00     9800.00
04939           -1600.00     9800.00
04940           -1600.00     9800.00
04941           -1600.00     9600.00
04942           -1600.00     9600.00
04943           -1600.00     9400.00
04944           -1600.00     9400.00
04945           -1560.00     9400.00
04946           -1480.00     9400.00
04947           -1440.00     9400.00
04948           -1320.00     9200.00
04949           -1320.00     9200.00
04950           -1280.00     9000.00
04951           -1200.00     8800.00
04952           -1120.00     8800.00
04953           -1080.00     8600.00
04954           -1000.00     8600.00
04955            -960.00     8400.00
04956            -920.00     8400.00
04957            -840.00     8200.00
04958            -800.00     8200.00
04959            -680.00     8200.00
04960            -640.00     7800.00
04961            -640.00     7800.00
04962            -600.00     7800.00
04963            -600.00     7600.00
04964            -520.00     7400.00
04965            -520.00     7400.00
04966            -480.00     7200.00
04967            -440.00     7000.00
04968            -440.00     7200.00
04969            -440.00     6800.00
04970            -360.00     6800.00
04971            -360.00     6600.00
04972            -320.00     6400.00
04973            -320.00     6200.00
04974            -320.00     6200.00
04975            -280.00     6000.00
04976            -320.00     5800.00
04977            -320.00     5800.00
04978            -280.00     5600.00
04979            -280.00     5400.00
04980            -240.00     5200.00
04981            -280.00     5000.00
04982            -200.00     4800.00
04983            -200.00     4800.00
04984            -200.00     4600.00
04985            -200.00     4400.00
04986            -200.00     4200.00
04987            -200.00     4200.00
04988            -200.00     3800.00
04989            -200.00     3600.00
04990            -160.00     3600.00
04991            -160.00     3400.00
04992            -120.00     3200.00
04993            -160.00     3000.00
04994            -160.00     2800.00
04995            -200.00     2800.00
04996            -160.00     2200.00
04997            -120.00     2200.00
04998            -160.00     2000.00
04999            -120.00     2000.00
05000            -120.00     1800.00
