Unit:(mV)
                     CH1         CH2
Frequency              ?           ?
00001             280.00    -1600.00
00002             760.00    -1800.00
00003             640.00    -2200.00
00004            -200.00    -2400.00
00005            -680.00    -2600.00
00006            -800.00    -2800.00
00007            -520.00    -2600.00
00008             440.00    -3000.00
00009             200.00    -3400.00
00010            -240.00    -3000.00
00011             320.00    -3800.00
00012               0.00    -3600.00
00013             -40.00    -3600.00
00014             200.00    -4400.00
00015             -40.00    -4200.00
00016             200.00    -4400.00
00017             200.00    -4600.00
00018            -160.00    -4800.00
00019             -80.00    -5200.00
00020               0.00    -4800.00
00021             120.00    -5400.00
00022               0.00    -5400.00
00023              40.00    -5600.00
00024              40.00    -5800.00
00025             -40.00    -5800.00
00026             160.00    -6200.00
00027              40.00    -6000.00
00028               0.00    -6400.00
00029              80.00    -6600.00
00030              80.00    -6600.00
00031              40.00    -7000.00
00032               0.00    -7000.00
00033              80.00    -7000.00
00034             120.00    -7000.00
00035              40.00    -7400.00
00036              40.00    -7600.00
00037              40.00    -7600.00
00038              40.00    -7800.00
00039             120.00    -8000.00
00040             120.00    -8000.00
00041              40.00    -8200.00
00042             120.00    -8400.00
00043             120.00    -8400.00
00044             120.00    -8400.00
00045             120.00    -8800.00
00046             120.00    -8600.00
00047             120.00    -8800.00
00048             120.00    -8800.00
00049             120.00    -9000.00
00050             120.00    -9000.00
00051             120.00    -9200.00
00052             120.00    -9400.00
00053              40.00    -9200.00
00054             120.00    -9400.00
00055             120.00    -9400.00
00056             160.00    -9400.00
00057             160.00    -9600.00
00058             120.00    -9600.00
00059             120.00    -9800.00
00060             120.00    -9800.00
00061             120.00    -9800.00
00062             160.00    -9800.00
00063             160.00   -10000.00
00064             160.00   -10000.00
00065             160.00   -10000.00
00066             120.00   -10000.00
00067             120.00    -9800.00
00068             160.00   -10000.00
00069             160.00   -10000.00
00070             160.00   -10200.00
00071             160.00   -10200.00
00072             120.00   -10200.00
00073             160.00   -10000.00
00074             120.00   -10200.00
00075             120.00   -10000.00
00076             160.00   -10200.00
00077             160.00   -10000.00
00078             160.00   -10200.00
00079             160.00   -10200.00
00080             160.00   -10200.00
00081             160.00   -10000.00
00082             160.00   -10200.00
00083             160.00   -10000.00
00084             160.00   -10000.00
00085             120.00   -10000.00
00086             160.00   -10000.00
00087             120.00    -9800.00
00088             160.00    -9800.00
00089             160.00    -9800.00
00090             160.00    -9800.00
00091             160.00    -9800.00
00092             160.00    -9800.00
00093             120.00    -9600.00
00094             160.00    -9600.00
00095             160.00    -9400.00
00096             160.00    -9400.00
00097             160.00    -9200.00
00098             160.00    -9200.00
00099             160.00    -9200.00
00100             120.00    -9200.00
00101             160.00    -9000.00
00102             160.00    -9000.00
00103             160.00    -8800.00
00104             160.00    -8600.00
00105             160.00    -8600.00
00106             160.00    -8600.00
00107             120.00    -8400.00
00108             160.00    -8400.00
00109             160.00    -8200.00
00110             160.00    -8200.00
00111             160.00    -7800.00
00112             160.00    -7800.00
00113             120.00    -7600.00
00114             160.00    -7600.00
00115             160.00    -7600.00
00116             160.00    -7400.00
00117             120.00    -7200.00
00118             120.00    -7000.00
00119             120.00    -7000.00
00120             160.00    -6800.00
00121             160.00    -6600.00
00122             120.00    -6400.00
00123             160.00    -6200.00
00124             160.00    -6200.00
00125             120.00    -6000.00
00126             160.00    -5800.00
00127             120.00    -5800.00
00128             160.00    -5400.00
00129             120.00    -5400.00
00130             120.00    -5200.00
00131             120.00    -5200.00
00132             120.00    -4800.00
00133             120.00    -4600.00
00134             120.00    -4600.00
00135             120.00    -4400.00
00136             120.00    -4200.00
00137             120.00    -4000.00
00138              80.00    -3800.00
00139             120.00    -3600.00
00140             120.00    -3400.00
00141             120.00    -3200.00
00142              40.00    -3000.00
00143             120.00    -3000.00
00144             120.00    -2600.00
00145              40.00    -2600.00
00146              40.00    -2600.00
00147             120.00    -2200.00
00148              80.00    -2000.00
00149             120.00    -2000.00
00150             120.00    -1600.00
00151              40.00    -1400.00
00152              40.00    -1200.00
00153              40.00    -1000.00
00154              40.00     -800.00
00155              40.00     -600.00
00156              80.00     -400.00
00157              40.00     -200.00
00158              40.00     -200.00
00159              40.00        0.00
00160              40.00      200.00
00161              80.00      400.00
00162             160.00      600.00
00163             160.00      600.00
00164             120.00     1000.00
00165              40.00     1000.00
00166              40.00     1200.00
00167             120.00     1400.00
00168             480.00     1800.00
00169             960.00     2000.00
00170             480.00     2000.00
00171            -520.00     2200.00
00172           -1080.00     2200.00
00173            -960.00     2600.00
00174             320.00     3400.00
00175             680.00     2800.00
00176            -360.00     3000.00
00177             160.00     3400.00
00178             200.00     3200.00
00179            -280.00     4400.00
00180             120.00     3800.00
00181            -120.00     3800.00
00182             200.00     4800.00
00183             200.00     3800.00
00184            -360.00     4600.00
00185               0.00     5000.00
00186             -40.00     4600.00
00187             -40.00     5400.00
00188              40.00     5000.00
00189               0.00     5800.00
00190               0.00     5800.00
00191            -200.00     5400.00
00192              80.00     6200.00
00193               0.00     5800.00
00194            -160.00     6200.00
00195               0.00     6200.00
00196             -40.00     6400.00
00197             -40.00     6800.00
00198            -120.00     6600.00
00199             -40.00     7400.00
00200               0.00     7000.00
00201             -40.00     7000.00
00202             -40.00     7400.00
00203             -80.00     7600.00
00204             -40.00     7600.00
00205             -40.00     7600.00
00206             -40.00     7800.00
00207            -120.00     7800.00
00208             -80.00     8000.00
00209            -120.00     8200.00
00210            -120.00     8400.00
00211             -40.00     8600.00
00212             -40.00     8600.00
00213            -120.00     8600.00
00214            -160.00     8600.00
00215            -120.00     9000.00
00216            -120.00     9000.00
00217            -120.00     9000.00
00218            -120.00     9200.00
00219            -120.00     9200.00
00220            -160.00     9200.00
00221            -160.00     9400.00
00222             -80.00     9400.00
00223            -120.00     9600.00
00224            -160.00     9400.00
00225            -160.00     9800.00
00226            -160.00     9800.00
00227            -160.00     9800.00
00228            -160.00     9800.00
00229            -120.00     9800.00
00230            -160.00    10000.00
00231            -160.00    10000.00
00232            -120.00    10000.00
00233            -160.00    10000.00
00234            -200.00    10000.00
00235            -160.00    10000.00
00236            -160.00    10200.00
00237            -160.00    10200.00
00238            -160.00    10200.00
00239            -160.00    10000.00
00240            -160.00    10200.00
00241            -160.00    10200.00
00242            -160.00    10000.00
00243            -160.00    10200.00
00244            -160.00    10200.00
00245            -160.00    10000.00
00246            -160.00    10200.00
00247            -200.00    10200.00
00248            -200.00    10000.00
00249            -160.00    10200.00
00250            -160.00    10200.00
00251            -160.00    10000.00
00252            -160.00    10000.00
00253            -160.00    10000.00
00254            -160.00    10000.00
00255            -160.00    10000.00
00256            -160.00     9800.00
00257            -160.00     9800.00
00258            -160.00     9800.00
00259            -160.00     9800.00
00260            -160.00     9600.00
00261            -200.00     9800.00
00262            -160.00     9400.00
00263            -160.00     9600.00
00264            -160.00     9400.00
00265            -160.00     9400.00
00266            -160.00     9200.00
00267            -160.00     9000.00
00268            -160.00     9000.00
00269            -160.00     9000.00
00270            -160.00     8800.00
00271            -160.00     8600.00
00272            -160.00     8600.00
00273            -160.00     8600.00
00274            -160.00     8400.00
00275            -160.00     8400.00
00276            -160.00     8200.00
00277            -160.00     8200.00
00278            -160.00     8200.00
00279            -160.00     7800.00
00280            -200.00     7800.00
00281            -200.00     7600.00
00282            -200.00     7600.00
00283            -160.00     7400.00
00284            -160.00     7200.00
00285            -160.00     7000.00
00286            -160.00     6800.00
00287            -200.00     6800.00
00288            -160.00     6600.00
00289            -120.00     6600.00
00290            -120.00     6200.00
00291            -160.00     6200.00
00292            -160.00     6000.00
00293            -160.00     6000.00
00294            -160.00     5800.00
00295            -120.00     5600.00
00296            -120.00     5400.00
00297            -120.00     5200.00
00298            -200.00     5000.00
00299            -160.00     5000.00
00300            -120.00     4600.00
00301            -120.00     4600.00
00302            -120.00     4400.00
00303            -120.00     4200.00
00304            -160.00     4200.00
00305            -120.00     4000.00
00306            -160.00     3600.00
00307             -40.00     3600.00
00308             -80.00     3400.00
00309            -120.00     3400.00
00310            -120.00     3000.00
00311             -80.00     3000.00
00312            -120.00     2800.00
00313            -120.00     2400.00
00314            -120.00     2200.00
00315             -80.00     2000.00
00316             -40.00     1800.00
00317            -120.00     1800.00
00318             -40.00     1400.00
00319             -40.00     1400.00
00320             -80.00     1200.00
00321             -40.00     1000.00
00322             -40.00      800.00
00323             -40.00      400.00
00324             -40.00      600.00
00325             -40.00      200.00
00326             -40.00      200.00
00327             -40.00     -200.00
00328               0.00     -200.00
00329              80.00     -600.00
00330              80.00     -600.00
00331              40.00     -800.00
00332               0.00    -1200.00
00333               0.00    -1200.00
00334              40.00    -1400.00
00335             120.00    -1400.00
00336             520.00    -1800.00
00337             800.00    -2200.00
00338             240.00    -2200.00
00339            -520.00    -2600.00
00340            -800.00    -2800.00
00341            -800.00    -2600.00
00342             -40.00    -2600.00
00343             520.00    -3400.00
00344            -200.00    -3000.00
00345               0.00    -3400.00
00346             280.00    -4000.00
00347            -160.00    -3400.00
00348             200.00    -4000.00
00349              40.00    -4200.00
00350               0.00    -4200.00
00351             280.00    -4600.00
00352               0.00    -4400.00
00353            -160.00    -5000.00
00354             -40.00    -5000.00
00355              80.00    -5200.00
00356               0.00    -5400.00
00357               0.00    -5400.00
00358             120.00    -5800.00
00359             -40.00    -5800.00
00360             120.00    -6200.00
00361             160.00    -6200.00
00362               0.00    -6200.00
00363               0.00    -6600.00
00364             120.00    -6600.00
00365              40.00    -6800.00
00366               0.00    -7000.00
00367               0.00    -7000.00
00368             120.00    -7200.00
00369             120.00    -7200.00
00370              40.00    -7400.00
00371             120.00    -7600.00
00372             120.00    -7600.00
00373             120.00    -7800.00
00374             120.00    -7800.00
00375             120.00    -8200.00
00376              40.00    -8200.00
00377              40.00    -8200.00
00378             120.00    -8400.00
00379             120.00    -8600.00
00380              80.00    -8600.00
00381             120.00    -8600.00
00382             120.00    -9000.00
00383             120.00    -8800.00
00384             120.00    -9000.00
00385             160.00    -9000.00
00386             120.00    -9200.00
00387             120.00    -9400.00
00388             120.00    -9400.00
00389             120.00    -9400.00
00390             120.00    -9400.00
00391             160.00    -9600.00
00392             160.00    -9400.00
00393             120.00    -9800.00
00394             120.00    -9600.00
00395             120.00    -9800.00
00396             120.00    -9800.00
00397             160.00    -9800.00
00398             160.00    -9800.00
00399             160.00   -10000.00
00400             160.00   -10000.00
00401             120.00   -10000.00
00402             160.00   -10000.00
00403             160.00   -10000.00
00404             160.00   -10000.00
00405             160.00   -10200.00
00406             160.00   -10000.00
00407             160.00   -10000.00
00408             120.00   -10200.00
00409             120.00   -10000.00
00410             120.00   -10200.00
00411             160.00   -10200.00
00412             120.00   -10200.00
00413             120.00   -10000.00
00414             120.00   -10000.00
00415             160.00   -10000.00
00416             120.00   -10000.00
00417             160.00   -10000.00
00418             160.00   -10000.00
00419             160.00   -10000.00
00420             160.00   -10000.00
00421             120.00   -10000.00
00422             160.00   -10000.00
00423             160.00    -9800.00
00424             160.00    -9800.00
00425             160.00    -9800.00
00426             160.00    -9800.00
00427             160.00    -9600.00
00428             120.00    -9600.00
00429             160.00    -9600.00
00430             120.00    -9400.00
00431             160.00    -9400.00
00432             160.00    -9200.00
00433             160.00    -9200.00
00434             160.00    -9200.00
00435             160.00    -9000.00
00436             160.00    -9000.00
00437             160.00    -9000.00
00438             160.00    -8800.00
00439             160.00    -8600.00
00440             160.00    -8600.00
00441             160.00    -8400.00
00442             160.00    -8400.00
00443             160.00    -8200.00
00444             160.00    -8200.00
00445             160.00    -7800.00
00446             160.00    -7800.00
00447             160.00    -7800.00
00448             120.00    -7600.00
00449             160.00    -7400.00
00450             120.00    -7200.00
00451             160.00    -7000.00
00452             160.00    -7000.00
00453             160.00    -7000.00
00454             160.00    -6800.00
00455             160.00    -6800.00
00456             160.00    -6600.00
00457             120.00    -6400.00
00458             120.00    -6200.00
00459             160.00    -6000.00
00460             120.00    -6000.00
00461             120.00    -5800.00
00462             120.00    -5600.00
00463             120.00    -5400.00
00464             160.00    -5200.00
00465             120.00    -5000.00
00466             120.00    -5000.00
00467             120.00    -4600.00
00468             120.00    -4600.00
00469             120.00    -4400.00
00470             120.00    -4400.00
00471             120.00    -4200.00
00472             120.00    -3800.00
00473             120.00    -3600.00
00474              40.00    -3600.00
00475             120.00    -3400.00
00476              80.00    -3200.00
00477              80.00    -3000.00
00478              40.00    -2800.00
00479             120.00    -2800.00
00480              80.00    -2600.00
00481             120.00    -2200.00
00482              80.00    -2200.00
00483              40.00    -1800.00
00484              40.00    -1800.00
00485              40.00    -1800.00
00486              40.00    -1200.00
00487              40.00    -1200.00
00488              40.00     -800.00
00489              40.00     -600.00
00490              40.00     -600.00
00491              40.00     -400.00
00492               0.00     -200.00
00493              40.00        0.00
00494              40.00      200.00
00495              40.00      400.00
00496             120.00      600.00
00497             160.00      600.00
00498             120.00     1000.00
00499             120.00     1000.00
00500              80.00     1200.00
00501             120.00     1200.00
00502             200.00     1600.00
00503             800.00     1800.00
00504             880.00     2200.00
00505               0.00     2200.00
00506            -840.00     2200.00
00507           -1160.00     2200.00
00508            -480.00     3000.00
00509             840.00     3000.00
00510              40.00     2800.00
00511            -280.00     3400.00
00512             440.00     3200.00
00513            -160.00     3800.00
00514            -120.00     4200.00
00515             120.00     3400.00
00516             -40.00     4600.00
00517             360.00     4400.00
00518            -120.00     4200.00
00519            -200.00     5200.00
00520             120.00     4600.00
00521            -160.00     5200.00
00522              40.00     5200.00
00523               0.00     5200.00
00524              40.00     5800.00
00525             -80.00     5600.00
00526            -120.00     6000.00
00527             160.00     6000.00
00528            -120.00     6000.00
00529             -40.00     6600.00
00530               0.00     6200.00
00531             -80.00     6800.00
00532             -40.00     6600.00
00533            -120.00     6800.00
00534               0.00     7200.00
00535             -40.00     7000.00
00536             -40.00     7400.00
00537             -40.00     7400.00
00538            -120.00     7600.00
00539            -120.00     7600.00
00540             -40.00     7800.00
00541             -40.00     8000.00
00542            -120.00     7800.00
00543            -120.00     8400.00
00544            -160.00     8400.00
00545            -120.00     8400.00
00546             -80.00     8400.00
00547             -40.00     8600.00
00548            -120.00     8600.00
00549            -160.00     8600.00
00550            -120.00     8800.00
00551            -120.00     9000.00
00552            -120.00     9200.00
00553            -160.00     9200.00
00554            -120.00     9400.00
00555            -160.00     9200.00
00556            -120.00     9400.00
00557            -120.00     9400.00
00558            -160.00     9600.00
00559            -160.00     9800.00
00560            -160.00     9800.00
00561            -160.00     9800.00
00562            -160.00     9800.00
00563            -160.00     9800.00
00564            -120.00    10000.00
00565            -120.00    10000.00
00566            -120.00    10000.00
00567            -160.00    10000.00
00568            -160.00    10000.00
00569            -200.00    10000.00
00570            -120.00    10200.00
00571            -160.00    10200.00
00572            -160.00    10200.00
00573            -160.00    10200.00
00574            -160.00    10200.00
00575            -160.00    10200.00
00576            -160.00    10200.00
00577            -160.00    10200.00
00578            -160.00    10200.00
00579            -160.00    10200.00
00580            -160.00    10200.00
00581            -160.00    10000.00
00582            -200.00    10200.00
00583            -160.00    10200.00
00584            -160.00    10000.00
00585            -160.00    10200.00
00586            -200.00    10000.00
00587            -160.00    10000.00
00588            -160.00    10000.00
00589            -160.00    10000.00
00590            -160.00    10000.00
00591            -160.00     9800.00
00592            -160.00     9800.00
00593            -160.00     9800.00
00594            -120.00     9800.00
00595            -160.00     9600.00
00596            -160.00     9400.00
00597            -160.00     9400.00
00598            -120.00     9400.00
00599            -160.00     9400.00
00600            -200.00     9200.00
00601            -160.00     9200.00
00602            -160.00     9200.00
00603            -160.00     9000.00
00604            -160.00     8800.00
00605            -200.00     8800.00
00606            -160.00     8600.00
00607            -160.00     8600.00
00608            -160.00     8400.00
00609            -200.00     8400.00
00610            -160.00     8200.00
00611            -160.00     8200.00
00612            -200.00     8000.00
00613            -160.00     8200.00
00614            -160.00     7800.00
00615            -200.00     7600.00
00616            -160.00     7600.00
00617            -160.00     7400.00
00618            -160.00     7200.00
00619            -160.00     7000.00
00620            -160.00     6800.00
00621            -160.00     7000.00
00622            -160.00     6800.00
00623            -160.00     6600.00
00624            -160.00     6600.00
00625            -160.00     6200.00
00626            -120.00     6200.00
00627            -160.00     6000.00
00628            -160.00     5800.00
00629            -160.00     5600.00
00630            -120.00     5400.00
00631            -120.00     5400.00
00632            -120.00     5200.00
00633            -120.00     5000.00
00634            -120.00     5000.00
00635            -120.00     4800.00
00636            -120.00     4600.00
00637            -120.00     4200.00
00638            -120.00     4200.00
00639            -160.00     3800.00
00640            -120.00     3800.00
00641            -120.00     3600.00
00642            -120.00     3400.00
00643            -120.00     3400.00
00644             -40.00     3000.00
00645            -120.00     3000.00
00646            -120.00     2600.00
00647            -120.00     2600.00
00648             -80.00     2400.00
00649            -120.00     2200.00
00650            -120.00     2000.00
00651             -40.00     1800.00
00652             -40.00     1600.00
00653             -40.00     1200.00
00654             -40.00     1200.00
00655             -80.00     1000.00
00656             -40.00      800.00
00657             -40.00      600.00
00658            -120.00      600.00
00659             -40.00      200.00
00660             -40.00        0.00
00661             -40.00        0.00
00662               0.00     -200.00
00663              40.00     -400.00
00664             120.00     -600.00
00665              40.00     -600.00
00666              40.00    -1000.00
00667               0.00    -1200.00
00668               0.00    -1200.00
00669               0.00    -1400.00
00670             280.00    -1600.00
00671             760.00    -2000.00
00672             640.00    -2400.00
00673            -160.00    -2400.00
00674            -680.00    -2800.00
00675            -840.00    -2600.00
00676            -600.00    -2600.00
00677             440.00    -3000.00
00678             200.00    -3400.00
00679            -280.00    -3000.00
00680             320.00    -4000.00
00681               0.00    -3400.00
00682             -40.00    -3600.00
00683             200.00    -4400.00
00684            -120.00    -4000.00
00685             200.00    -4600.00
00686             160.00    -4600.00
00687            -160.00    -4600.00
00688             -40.00    -5000.00
00689              40.00    -4800.00
00690             120.00    -5400.00
00691               0.00    -5400.00
00692              40.00    -5800.00
00693              40.00    -6000.00
00694               0.00    -5800.00
00695             200.00    -6200.00
00696              40.00    -6200.00
00697             -40.00    -6200.00
00698              80.00    -6600.00
00699             120.00    -6600.00
00700              40.00    -7000.00
00701              40.00    -7000.00
00702             120.00    -7000.00
00703             160.00    -7200.00
00704              80.00    -7400.00
00705              40.00    -7600.00
00706             120.00    -7600.00
00707             120.00    -7800.00
00708              80.00    -7800.00
00709             120.00    -8000.00
00710              80.00    -8200.00
00711              40.00    -8400.00
00712             120.00    -8400.00
00713             120.00    -8400.00
00714             120.00    -8600.00
00715             120.00    -8800.00
00716             120.00    -8600.00
00717             120.00    -9000.00
00718              80.00    -9000.00
00719             160.00    -9000.00
00720             120.00    -9000.00
00721             120.00    -9200.00
00722             120.00    -9400.00
00723             120.00    -9400.00
00724             160.00    -9400.00
00725             160.00    -9400.00
00726             160.00    -9400.00
00727             160.00    -9800.00
00728             160.00    -9800.00
00729             120.00    -9800.00
00730             120.00    -9800.00
00731             120.00    -9800.00
00732             160.00    -9800.00
00733             160.00    -9800.00
00734             160.00   -10000.00
00735             120.00   -10000.00
00736             120.00   -10000.00
00737             160.00   -10000.00
00738             120.00   -10000.00
00739             160.00   -10200.00
00740             120.00   -10000.00
00741             160.00   -10200.00
00742             120.00   -10200.00
00743             160.00   -10200.00
00744             120.00   -10200.00
00745             120.00   -10200.00
00746             160.00   -10200.00
00747             160.00   -10000.00
00748             160.00   -10000.00
00749             120.00   -10200.00
00750             160.00   -10000.00
00751             160.00   -10000.00
00752             160.00   -10200.00
00753             160.00   -10000.00
00754             160.00   -10000.00
00755             160.00   -10000.00
00756             160.00   -10000.00
00757             160.00    -9800.00
00758             160.00    -9800.00
00759             160.00    -9800.00
00760             160.00    -9800.00
00761             160.00    -9600.00
00762             160.00    -9400.00
00763             160.00    -9400.00
00764             160.00    -9400.00
00765             160.00    -9400.00
00766             200.00    -9400.00
00767             160.00    -9200.00
00768             160.00    -9200.00
00769             160.00    -9000.00
00770             160.00    -9000.00
00771             160.00    -9000.00
00772             160.00    -8800.00
00773             160.00    -8600.00
00774             160.00    -8600.00
00775             160.00    -8600.00
00776             160.00    -8400.00
00777             160.00    -8400.00
00778             160.00    -8200.00
00779             160.00    -8200.00
00780             160.00    -8000.00
00781             120.00    -7800.00
00782             160.00    -7600.00
00783             120.00    -7600.00
00784             160.00    -7400.00
00785             160.00    -7200.00
00786             160.00    -7000.00
00787             160.00    -7000.00
00788             120.00    -7000.00
00789             160.00    -6800.00
00790             160.00    -6600.00
00791             120.00    -6400.00
00792             120.00    -6200.00
00793             160.00    -6000.00
00794             120.00    -6000.00
00795             160.00    -6000.00
00796             120.00    -5800.00
00797             120.00    -5600.00
00798             120.00    -5400.00
00799             120.00    -5200.00
00800             160.00    -5000.00
00801             120.00    -5000.00
00802              40.00    -4600.00
00803              40.00    -4600.00
00804             120.00    -4200.00
00805              40.00    -4200.00
00806             120.00    -4000.00
00807             120.00    -3800.00
00808             120.00    -3800.00
00809              40.00    -3600.00
00810             120.00    -3400.00
00811             120.00    -3200.00
00812              40.00    -3000.00
00813             120.00    -2800.00
00814              40.00    -2600.00
00815              40.00    -2400.00
00816              40.00    -2200.00
00817              80.00    -2000.00
00818             120.00    -1800.00
00819              40.00    -1800.00
00820              40.00    -1400.00
00821              40.00    -1200.00
00822               0.00    -1200.00
00823              40.00     -800.00
00824              40.00     -600.00
00825              40.00     -600.00
00826              40.00     -200.00
00827              80.00     -200.00
00828              40.00      200.00
00829              40.00      200.00
00830             120.00      400.00
00831             160.00      600.00
00832             160.00      800.00
00833             120.00     1000.00
00834             120.00     1000.00
00835             120.00     1200.00
00836             120.00     1400.00
00837             440.00     1800.00
00838            1000.00     2000.00
00839             520.00     2200.00
00840            -520.00     2200.00
00841           -1000.00     2000.00
00842            -960.00     2600.00
00843             360.00     3200.00
00844             680.00     2800.00
00845            -360.00     3000.00
00846             120.00     3400.00
00847             240.00     3400.00
00848            -320.00     4200.00
00849             160.00     3800.00
00850             -40.00     3800.00
00851             160.00     4800.00
00852             280.00     3800.00
00853            -320.00     4600.00
00854              40.00     5000.00
00855             -40.00     4600.00
00856            -120.00     5400.00
00857              40.00     5000.00
00858               0.00     5600.00
00859              40.00     5800.00
00860            -200.00     5600.00
00861              40.00     6200.00
00862              40.00     5800.00
00863            -160.00     6200.00
00864               0.00     6200.00
00865             -40.00     6200.00
00866             -40.00     6800.00
00867            -160.00     6600.00
00868            -120.00     7000.00
00869             -40.00     7000.00
00870             -40.00     7200.00
00871             -40.00     7400.00
00872            -120.00     7400.00
00873             -40.00     7800.00
00874            -120.00     7600.00
00875             -40.00     8000.00
00876            -120.00     7800.00
00877            -120.00     8200.00
00878             -80.00     8200.00
00879            -120.00     8400.00
00880             -40.00     8400.00
00881             -80.00     8400.00
00882             -40.00     8600.00
00883            -160.00     8600.00
00884             -80.00     9000.00
00885            -120.00     9000.00
00886             -80.00     9000.00
00887            -160.00     9200.00
00888            -120.00     9200.00
00889            -160.00     9400.00
00890            -120.00     9400.00
00891             -80.00     9400.00
00892            -120.00     9400.00
00893            -160.00     9600.00
00894            -160.00     9600.00
00895            -120.00     9800.00
00896            -160.00     9800.00
00897            -160.00     9800.00
00898            -160.00     9800.00
00899            -160.00     9800.00
00900            -120.00    10000.00
00901            -160.00    10000.00
00902            -160.00    10200.00
00903            -160.00    10200.00
00904            -160.00    10000.00
00905            -120.00    10200.00
00906            -160.00    10200.00
00907            -160.00    10200.00
00908            -160.00    10000.00
00909            -160.00    10200.00
00910            -160.00    10200.00
00911            -120.00    10200.00
00912            -160.00    10200.00
00913            -160.00    10200.00
00914            -160.00    10000.00
00915            -160.00    10200.00
00916            -160.00    10200.00
00917            -200.00    10200.00
00918            -160.00    10200.00
00919            -160.00    10200.00
00920            -160.00    10000.00
00921            -160.00    10000.00
00922            -160.00    10000.00
00923            -160.00    10000.00
00924            -160.00    10000.00
00925            -160.00     9800.00
00926            -160.00    10000.00
00927            -160.00     9800.00
00928            -160.00     9800.00
00929            -160.00     9800.00
00930            -200.00     9600.00
00931            -160.00     9400.00
00932            -160.00     9400.00
00933            -160.00     9400.00
00934            -200.00     9400.00
00935            -200.00     9200.00
00936            -160.00     9200.00
00937            -200.00     9000.00
00938            -160.00     9000.00
00939            -160.00     8600.00
00940            -160.00     8600.00
00941            -160.00     8600.00
00942            -200.00     8400.00
00943            -160.00     8400.00
00944            -160.00     8400.00
00945            -160.00     8200.00
00946            -160.00     8200.00
00947            -160.00     8000.00
00948            -160.00     7800.00
00949            -160.00     7800.00
00950            -160.00     7400.00
00951            -160.00     7400.00
00952            -160.00     7400.00
00953            -160.00     7000.00
00954            -160.00     7000.00
00955            -160.00     6800.00
00956            -160.00     6800.00
00957            -160.00     6600.00
00958            -160.00     6600.00
00959            -160.00     6400.00
00960            -160.00     6200.00
00961            -120.00     6000.00
00962            -160.00     6000.00
00963            -160.00     5800.00
00964            -120.00     5600.00
00965            -120.00     5400.00
00966            -120.00     5400.00
00967            -120.00     5000.00
00968            -120.00     5000.00
00969            -120.00     4600.00
00970            -120.00     4600.00
00971            -120.00     4400.00
00972            -120.00     4200.00
00973            -120.00     4200.00
00974            -120.00     3800.00
00975            -120.00     3600.00
00976            -120.00     3600.00
00977             -80.00     3400.00
00978             -80.00     3200.00
00979            -120.00     3000.00
00980            -120.00     2800.00
00981             -80.00     2600.00
00982             -40.00     2400.00
00983             -40.00     2200.00
00984            -120.00     2000.00
00985             -40.00     2000.00
00986             -40.00     1800.00
00987            -120.00     1400.00
00988            -120.00     1200.00
00989             -40.00     1200.00
00990             -40.00     1000.00
00991             -40.00      800.00
00992             -40.00      600.00
00993             -40.00      400.00
00994             -40.00      200.00
00995             -40.00        0.00
00996             -40.00     -200.00
00997               0.00     -400.00
00998              40.00     -600.00
00999              40.00     -800.00
01000               0.00     -800.00
01001              40.00    -1000.00
01002               0.00    -1200.00
01003              40.00    -1400.00
01004             120.00    -1400.00
01005             480.00    -1800.00
01006             800.00    -2200.00
01007             280.00    -2200.00
01008            -520.00    -2600.00
01009            -760.00    -2600.00
01010            -800.00    -2600.00
01011             -40.00    -2600.00
01012             520.00    -3400.00
01013            -200.00    -3000.00
01014               0.00    -3400.00
01015             320.00    -4000.00
01016            -160.00    -3400.00
01017             160.00    -4200.00
01018               0.00    -4200.00
01019               0.00    -4200.00
01020             320.00    -4600.00
01021               0.00    -4600.00
01022            -160.00    -5000.00
01023               0.00    -5000.00
01024             120.00    -5000.00
01025              40.00    -5400.00
01026               0.00    -5400.00
01027             120.00    -6000.00
01028             -40.00    -5800.00
01029              40.00    -6000.00
01030             160.00    -6200.00
01031               0.00    -6000.00
01032              40.00    -6600.00
01033              80.00    -6600.00
01034             120.00    -6600.00
01035               0.00    -7000.00
01036               0.00    -7000.00
01037             120.00    -7000.00
01038             120.00    -7200.00
01039              40.00    -7600.00
01040             120.00    -7400.00
01041             120.00    -7600.00
01042             120.00    -7800.00
01043             160.00    -7800.00
01044             120.00    -8200.00
01045              80.00    -8200.00
01046             120.00    -8400.00
01047             120.00    -8400.00
01048             120.00    -8400.00
01049             120.00    -8600.00
01050             120.00    -8800.00
01051             120.00    -8800.00
01052             120.00    -8800.00
01053             120.00    -9000.00
01054             160.00    -9200.00
01055             120.00    -9200.00
01056             120.00    -9400.00
01057             120.00    -9200.00
01058             120.00    -9400.00
01059             120.00    -9400.00
01060             160.00    -9600.00
01061             160.00    -9600.00
01062             120.00    -9800.00
01063             120.00    -9800.00
01064             120.00    -9800.00
01065             120.00   -10000.00
01066             160.00   -10000.00
01067             160.00   -10000.00
01068             160.00   -10000.00
01069             120.00   -10000.00
01070             120.00   -10000.00
01071             160.00   -10000.00
01072             120.00   -10000.00
01073             160.00   -10200.00
01074             160.00   -10200.00
01075             120.00   -10200.00
01076             120.00   -10000.00
01077             160.00   -10200.00
01078             120.00   -10200.00
01079             160.00   -10200.00
01080             160.00   -10200.00
01081             160.00   -10200.00
01082             120.00   -10000.00
01083             160.00   -10200.00
01084             160.00   -10000.00
01085             120.00   -10000.00
01086             160.00   -10000.00
01087             160.00   -10000.00
01088             160.00   -10000.00
01089             160.00   -10000.00
01090             160.00    -9800.00
01091             160.00    -9800.00
01092             160.00    -9800.00
01093             160.00    -9800.00
01094             200.00    -9800.00
01095             160.00    -9800.00
01096             160.00    -9800.00
01097             120.00    -9400.00
01098             160.00    -9400.00
01099             160.00    -9400.00
01100             160.00    -9400.00
01101             200.00    -9200.00
01102             160.00    -9200.00
01103             160.00    -9200.00
01104             160.00    -9000.00
01105             200.00    -9000.00
01106             160.00    -8800.00
01107             160.00    -8800.00
01108             160.00    -8800.00
01109             160.00    -8600.00
01110             160.00    -8600.00
01111             160.00    -8400.00
01112             160.00    -8200.00
01113             160.00    -8200.00
01114             160.00    -8200.00
01115             160.00    -7800.00
01116             160.00    -7800.00
01117             160.00    -7800.00
01118             120.00    -7600.00
01119             120.00    -7200.00
01120             160.00    -7200.00
01121             120.00    -7000.00
01122             120.00    -7000.00
01123             160.00    -6800.00
01124             120.00    -6600.00
01125             160.00    -6600.00
01126             160.00    -6400.00
01127             120.00    -6200.00
01128             120.00    -6000.00
01129             120.00    -6000.00
01130             120.00    -5800.00
01131             120.00    -5800.00
01132             120.00    -5400.00
01133             120.00    -5400.00
01134             120.00    -5000.00
01135             120.00    -5000.00
01136             120.00    -4800.00
01137             120.00    -4600.00
01138             120.00    -4400.00
01139             120.00    -4200.00
01140             120.00    -4200.00
01141             120.00    -4000.00
01142             120.00    -3600.00
01143             120.00    -3600.00
01144             120.00    -3400.00
01145              40.00    -3200.00
01146             120.00    -3000.00
01147              80.00    -2800.00
01148              40.00    -2600.00
01149              40.00    -2600.00
01150              40.00    -2200.00
01151              40.00    -2200.00
01152              40.00    -2000.00
01153             120.00    -1800.00
01154             120.00    -1400.00
01155              40.00    -1400.00
01156              80.00    -1200.00
01157              40.00     -800.00
01158              40.00     -800.00
01159              40.00     -400.00
01160              40.00     -400.00
01161              80.00     -400.00
01162              40.00     -200.00
01163              40.00      200.00
01164             120.00      200.00
01165             160.00      600.00
01166             160.00      600.00
01167             160.00      800.00
01168             120.00     1000.00
01169             120.00     1000.00
01170             120.00     1400.00
01171             200.00     1400.00
01172             760.00     2000.00
01173             920.00     2000.00
01174              40.00     2200.00
01175            -840.00     2200.00
01176           -1120.00     2400.00
01177            -480.00     3000.00
01178             840.00     3000.00
01179             120.00     2800.00
01180            -320.00     3400.00
01181             440.00     3000.00
01182            -160.00     3600.00
01183             -40.00     4200.00
01184             120.00     3400.00
01185             -80.00     4400.00
01186             360.00     4400.00
01187            -120.00     4200.00
01188            -200.00     5000.00
01189             120.00     4600.00
01190            -200.00     5000.00
01191               0.00     5400.00
01192               0.00     5000.00
01193               0.00     6000.00
01194             -40.00     5400.00
01195            -120.00     6000.00
01196             120.00     6000.00
01197            -160.00     6000.00
01198             -40.00     6600.00
01199               0.00     6200.00
01200             -80.00     6600.00
01201             -40.00     6600.00
01202            -120.00     6800.00
01203               0.00     7200.00
01204             -40.00     6800.00
01205             -40.00     7400.00
01206            -120.00     7400.00
01207            -120.00     7600.00
01208            -120.00     7800.00
01209             -40.00     7800.00
01210             -40.00     8000.00
01211            -120.00     7800.00
01212            -120.00     8200.00
01213            -120.00     8200.00
01214             -40.00     8400.00
01215            -120.00     8400.00
01216            -120.00     8400.00
01217            -120.00     8600.00
01218            -160.00     8800.00
01219             -40.00     9000.00
01220            -120.00     9000.00
01221            -120.00     9200.00
01222            -160.00     9200.00
01223            -120.00     9200.00
01224            -160.00     9200.00
01225             -40.00     9400.00
01226            -120.00     9400.00
01227            -160.00     9400.00
01228            -160.00     9800.00
01229            -120.00     9800.00
01230            -120.00     9800.00
01231            -120.00    10000.00
01232            -120.00     9800.00
01233            -160.00     9800.00
01234            -120.00    10000.00
01235            -120.00    10000.00
01236            -160.00    10000.00
01237            -160.00    10000.00
01238            -160.00    10200.00
01239            -120.00    10200.00
01240            -120.00    10200.00
01241            -160.00    10200.00
01242            -160.00    10200.00
01243            -160.00    10200.00
01244            -160.00    10200.00
01245            -160.00    10000.00
01246            -160.00    10200.00
01247            -160.00    10200.00
01248            -160.00    10200.00
01249            -160.00    10200.00
01250            -160.00    10200.00
01251            -200.00    10200.00
01252            -160.00    10200.00
01253            -160.00    10000.00
01254            -160.00    10200.00
01255            -160.00    10000.00
01256            -200.00    10000.00
01257            -160.00    10000.00
01258            -200.00     9800.00
01259            -160.00     9800.00
01260            -200.00     9800.00
01261            -200.00     9800.00
01262            -160.00     9800.00
01263            -160.00     9800.00
01264            -200.00     9800.00
01265            -160.00     9400.00
01266            -160.00     9400.00
01267            -160.00     9400.00
01268            -160.00     9400.00
01269            -200.00     9200.00
01270            -160.00     9200.00
01271            -160.00     9000.00
01272            -200.00     9000.00
01273            -160.00     8800.00
01274            -120.00     8800.00
01275            -160.00     8600.00
01276            -160.00     8600.00
01277            -160.00     8600.00
01278            -160.00     8200.00
01279            -160.00     8400.00
01280            -160.00     8200.00
01281            -160.00     7800.00
01282            -200.00     7800.00
01283            -160.00     7800.00
01284            -160.00     7600.00
01285            -160.00     7600.00
01286            -160.00     7600.00
01287            -160.00     7400.00
01288            -160.00     7000.00
01289            -160.00     7000.00
01290            -160.00     6800.00
01291            -160.00     6600.00
01292            -160.00     6600.00
01293            -160.00     6600.00
01294            -160.00     6200.00
01295            -160.00     6000.00
01296            -160.00     5800.00
01297            -160.00     5800.00
01298            -120.00     5600.00
01299            -120.00     5400.00
01300            -120.00     5400.00
01301            -160.00     5400.00
01302            -120.00     5000.00
01303            -160.00     4800.00
01304            -120.00     4600.00
01305            -160.00     4600.00
01306            -120.00     4400.00
01307            -120.00     4200.00
01308            -120.00     4000.00
01309             -80.00     3800.00
01310            -120.00     3600.00
01311            -120.00     3400.00
01312            -120.00     3400.00
01313            -120.00     3200.00
01314            -120.00     3000.00
01315             -40.00     2800.00
01316            -120.00     2600.00
01317            -120.00     2200.00
01318            -120.00     2200.00
01319            -120.00     2000.00
01320             -40.00     1800.00
01321            -120.00     1600.00
01322             -40.00     1400.00
01323            -120.00     1200.00
01324             -80.00     1000.00
01325            -120.00      800.00
01326             -40.00      600.00
01327             -40.00      400.00
01328             -80.00      200.00
01329             -40.00      200.00
01330            -120.00      200.00
01331             -40.00     -200.00
01332               0.00     -400.00
01333             120.00     -600.00
01334               0.00     -800.00
01335               0.00     -800.00
01336               0.00    -1200.00
01337              40.00    -1200.00
01338               0.00    -1400.00
01339             240.00    -1400.00
01340             760.00    -2000.00
01341             640.00    -2200.00
01342            -160.00    -2400.00
01343            -680.00    -2800.00
01344            -800.00    -2600.00
01345            -640.00    -2600.00
01346             360.00    -3000.00
01347             280.00    -3400.00
01348            -240.00    -3000.00
01349             280.00    -4000.00
01350              40.00    -3600.00
01351             -40.00    -3600.00
01352             200.00    -4400.00
01353             -40.00    -4200.00
01354             200.00    -4600.00
01355             200.00    -4400.00
01356            -160.00    -4800.00
01357            -120.00    -5200.00
01358               0.00    -4800.00
01359             120.00    -5400.00
01360               0.00    -5400.00
01361              80.00    -5400.00
01362               0.00    -5800.00
01363               0.00    -5800.00
01364             160.00    -6200.00
01365              40.00    -6000.00
01366              40.00    -6400.00
01367             120.00    -6600.00
01368              40.00    -6600.00
01369              40.00    -6800.00
01370              40.00    -6800.00
01371             120.00    -7000.00
01372             160.00    -7400.00
01373             120.00    -7200.00
01374              80.00    -7600.00
01375             120.00    -7600.00
01376             120.00    -7800.00
01377             120.00    -7800.00
01378              80.00    -7800.00
01379             120.00    -8200.00
01380              80.00    -8200.00
01381             120.00    -8400.00
01382             120.00    -8400.00
01383             120.00    -8600.00
01384             120.00    -8600.00
01385             120.00    -8600.00
01386              80.00    -9000.00
01387              40.00    -9000.00
01388             120.00    -9000.00
01389             120.00    -9200.00
01390              40.00    -9200.00
01391             120.00    -9200.00
01392             120.00    -9400.00
01393             120.00    -9400.00
01394             120.00    -9400.00
01395             160.00    -9600.00
01396             120.00    -9600.00
01397             120.00    -9800.00
01398             120.00    -9800.00
01399             120.00    -9800.00
01400             120.00    -9800.00
01401             160.00   -10000.00
01402             160.00   -10000.00
01403             120.00   -10000.00
01404             120.00   -10000.00
01405             120.00   -10000.00
01406             120.00   -10000.00
01407             160.00   -10000.00
01408             160.00   -10200.00
01409             120.00   -10000.00
01410             120.00   -10200.00
01411             120.00   -10200.00
01412             120.00   -10200.00
01413             160.00   -10000.00
01414             160.00   -10200.00
01415             160.00   -10000.00
01416             160.00   -10000.00
01417             160.00   -10200.00
01418             160.00   -10000.00
01419             160.00   -10200.00
01420             160.00   -10000.00
01421             160.00   -10000.00
01422             160.00   -10000.00
01423             160.00    -9800.00
01424             160.00   -10000.00
01425             160.00   -10000.00
01426             160.00   -10000.00
01427             160.00    -9800.00
01428             160.00    -9800.00
01429             160.00    -9800.00
01430             160.00    -9600.00
01431             160.00    -9600.00
01432             160.00    -9600.00
01433             160.00    -9400.00
01434             160.00    -9400.00
01435             160.00    -9400.00
01436             160.00    -9200.00
01437             160.00    -9200.00
01438             160.00    -9200.00
01439             160.00    -9000.00
01440             160.00    -9000.00
01441             120.00    -8800.00
01442             200.00    -8600.00
01443             160.00    -8600.00
01444             120.00    -8600.00
01445             160.00    -8400.00
01446             160.00    -8400.00
01447             160.00    -8200.00
01448             160.00    -8200.00
01449             160.00    -8000.00
01450             160.00    -7800.00
01451             160.00    -7800.00
01452             120.00    -7600.00
01453             160.00    -7200.00
01454             160.00    -7400.00
01455             160.00    -7000.00
01456             160.00    -7000.00
01457             160.00    -6800.00
01458             120.00    -6800.00
01459             120.00    -6600.00
01460             120.00    -6600.00
01461             120.00    -6200.00
01462             160.00    -6200.00
01463             120.00    -6000.00
01464             120.00    -5800.00
01465             120.00    -5800.00
01466             120.00    -5600.00
01467             120.00    -5400.00
01468             120.00    -5200.00
01469             160.00    -5200.00
01470             120.00    -5000.00
01471             120.00    -4800.00
01472             120.00    -4600.00
01473             120.00    -4400.00
01474             120.00    -4200.00
01475             120.00    -4200.00
01476             120.00    -3800.00
01477              80.00    -3600.00
01478             120.00    -3400.00
01479             120.00    -3200.00
01480              80.00    -3200.00
01481              40.00    -3000.00
01482              80.00    -2800.00
01483             120.00    -2600.00
01484             120.00    -2400.00
01485              40.00    -2200.00
01486             120.00    -2000.00
01487              40.00    -1800.00
01488              40.00    -1800.00
01489              80.00    -1400.00
01490             120.00    -1200.00
01491              40.00    -1200.00
01492              40.00     -800.00
01493              80.00     -600.00
01494              40.00     -600.00
01495              40.00     -400.00
01496              40.00     -200.00
01497              40.00      200.00
01498              40.00      400.00
01499             120.00      400.00
01500             160.00      600.00
01501             160.00      800.00
01502             120.00     1000.00
01503             120.00     1000.00
01504             120.00     1200.00
01505             160.00     1400.00
01506             440.00     1800.00
01507            1000.00     2000.00
01508             600.00     2200.00
01509            -480.00     2200.00
01510           -1000.00     2200.00
01511           -1000.00     2600.00
01512             320.00     3200.00
01513             760.00     3000.00
01514            -360.00     3000.00
01515             120.00     3400.00
01516             200.00     3400.00
01517            -280.00     4200.00
01518             120.00     3800.00
01519            -120.00     3800.00
01520             160.00     4600.00
01521             280.00     3800.00
01522            -360.00     4600.00
01523               0.00     5200.00
01524             -40.00     4600.00
01525            -120.00     5400.00
01526              40.00     5000.00
01527             -40.00     5600.00
01528               0.00     5800.00
01529            -200.00     5400.00
01530               0.00     6200.00
01531               0.00     5800.00
01532            -160.00     6200.00
01533               0.00     6200.00
01534             -40.00     6200.00
01535             -40.00     6800.00
01536            -120.00     6600.00
01537             -40.00     7000.00
01538             -40.00     7000.00
01539             -40.00     7000.00
01540             -40.00     7400.00
01541            -120.00     7400.00
01542             -80.00     7800.00
01543            -120.00     7600.00
01544             -40.00     7800.00
01545            -120.00     7800.00
01546            -120.00     8200.00
01547            -120.00     8200.00
01548            -160.00     8400.00
01549             -40.00     8400.00
01550             -40.00     8600.00
01551             -80.00     8600.00
01552            -160.00     8600.00
01553            -160.00     9000.00
01554            -120.00     9000.00
01555             -80.00     9000.00
01556            -120.00     9400.00
01557            -160.00     9200.00
01558            -120.00     9400.00
01559            -120.00     9400.00
01560            -120.00     9400.00
01561            -120.00     9600.00
01562            -120.00     9600.00
01563            -120.00     9800.00
01564            -120.00     9800.00
01565            -160.00     9800.00
01566            -160.00    10000.00
01567            -120.00     9800.00
01568            -120.00    10000.00
01569            -120.00    10000.00
01570            -120.00     9800.00
01571            -120.00    10200.00
01572            -160.00    10000.00
01573            -160.00    10200.00
01574            -120.00    10200.00
01575            -120.00    10200.00
01576            -160.00    10200.00
01577            -160.00    10200.00
01578            -160.00    10200.00
01579            -160.00    10200.00
01580            -160.00    10200.00
01581            -160.00    10200.00
01582            -160.00    10000.00
01583            -160.00    10200.00
01584            -160.00    10200.00
01585            -200.00    10200.00
01586            -200.00    10200.00
01587            -160.00    10200.00
01588            -160.00    10000.00
01589            -200.00    10000.00
01590            -200.00    10000.00
01591            -200.00    10000.00
01592            -160.00     9800.00
01593            -200.00    10000.00
01594            -200.00     9800.00
01595            -200.00     9600.00
01596            -200.00     9800.00
01597            -160.00     9800.00
01598            -200.00     9800.00
01599            -200.00     9600.00
01600            -200.00     9600.00
01601            -200.00     9400.00
01602            -160.00     9400.00
01603            -160.00     9200.00
01604            -200.00     9200.00
01605            -160.00     9200.00
01606            -160.00     8800.00
01607            -160.00     9000.00
01608            -200.00     8800.00
01609            -160.00     8600.00
01610            -160.00     8600.00
01611            -160.00     8400.00
01612            -160.00     8400.00
01613            -160.00     8400.00
01614            -200.00     8200.00
01615            -160.00     8200.00
01616            -160.00     8200.00
01617            -160.00     7800.00
01618            -160.00     7800.00
01619            -160.00     7600.00
01620            -160.00     7400.00
01621            -160.00     7400.00
01622            -160.00     7200.00
01623            -160.00     7000.00
01624            -120.00     7000.00
01625            -160.00     6800.00
01626            -160.00     6600.00
01627            -160.00     6600.00
01628            -120.00     6400.00
01629            -160.00     6200.00
01630            -160.00     6000.00
01631            -160.00     5800.00
01632            -120.00     5800.00
01633            -160.00     5800.00
01634            -120.00     5400.00
01635            -160.00     5400.00
01636            -120.00     5200.00
01637            -120.00     5000.00
01638            -120.00     4800.00
01639            -120.00     4600.00
01640            -120.00     4400.00
01641            -120.00     4200.00
01642            -120.00     4000.00
01643            -120.00     4000.00
01644            -120.00     3800.00
01645            -120.00     3600.00
01646            -120.00     3400.00
01647            -120.00     3200.00
01648            -120.00     3000.00
01649             -80.00     2800.00
01650            -120.00     2600.00
01651            -120.00     2600.00
01652            -120.00     2200.00
01653            -120.00     2000.00
01654             -40.00     2000.00
01655             -40.00     1800.00
01656            -120.00     1400.00
01657            -120.00     1400.00
01658            -120.00     1200.00
01659             -40.00     1000.00
01660             -40.00      600.00
01661             -40.00      600.00
01662             -80.00      400.00
01663             -40.00      400.00
01664             -40.00     -200.00
01665             -40.00     -200.00
01666               0.00     -400.00
01667              40.00     -600.00
01668              80.00     -600.00
01669               0.00    -1000.00
01670               0.00    -1000.00
01671               0.00    -1200.00
01672               0.00    -1400.00
01673             120.00    -1400.00
01674             480.00    -1800.00
01675             800.00    -2200.00
01676             280.00    -2200.00
01677            -480.00    -2400.00
01678            -760.00    -2800.00
01679            -800.00    -2600.00
01680            -120.00    -2600.00
01681             600.00    -3400.00
01682            -200.00    -3200.00
01683               0.00    -3400.00
01684             280.00    -4000.00
01685            -160.00    -3400.00
01686             160.00    -4200.00
01687              40.00    -4200.00
01688               0.00    -4200.00
01689             320.00    -4600.00
01690               0.00    -4400.00
01691            -120.00    -5200.00
01692             -40.00    -4800.00
01693              80.00    -5000.00
01694             120.00    -5400.00
01695              40.00    -5400.00
01696             120.00    -5800.00
01697               0.00    -5800.00
01698             120.00    -6000.00
01699             160.00    -6200.00
01700               0.00    -6000.00
01701              40.00    -6600.00
01702             120.00    -6600.00
01703             120.00    -6800.00
01704               0.00    -7000.00
01705               0.00    -6800.00
01706             120.00    -7200.00
01707             120.00    -7400.00
01708              80.00    -7200.00
01709              40.00    -7600.00
01710             120.00    -7600.00
01711              80.00    -7800.00
01712             120.00    -7800.00
01713             120.00    -8200.00
01714              40.00    -8200.00
01715              80.00    -8400.00
01716             120.00    -8600.00
01717             120.00    -8400.00
01718             120.00    -8800.00
01719             120.00    -8600.00
01720             120.00    -8800.00
01721              80.00    -9000.00
01722             120.00    -9000.00
01723             120.00    -9200.00
01724             120.00    -9200.00
01725             120.00    -9200.00
01726             120.00    -9200.00
01727             120.00    -9400.00
01728             120.00    -9400.00
01729             160.00    -9400.00
01730             120.00    -9600.00
01731             120.00    -9800.00
01732             120.00    -9800.00
01733             120.00    -9800.00
01734             120.00    -9800.00
01735             120.00   -10000.00
01736             160.00    -9800.00
01737             120.00   -10000.00
01738             120.00   -10000.00
01739             120.00   -10000.00
01740             120.00   -10000.00
01741             120.00   -10000.00
01742             160.00   -10200.00
01743             160.00   -10000.00
01744             120.00   -10000.00
01745             120.00   -10200.00
01746             160.00   -10000.00
01747             160.00   -10200.00
01748             160.00   -10000.00
01749             160.00   -10200.00
01750             160.00   -10200.00
01751             160.00   -10000.00
01752             160.00   -10200.00
01753             160.00   -10000.00
01754             160.00   -10200.00
01755             160.00   -10000.00
01756             160.00   -10000.00
01757             160.00   -10000.00
01758             120.00   -10000.00
01759             160.00    -9800.00
01760             120.00    -9800.00
01761             160.00    -9800.00
01762             160.00    -9800.00
01763             160.00    -9800.00
01764             160.00    -9800.00
01765             160.00    -9800.00
01766             160.00    -9600.00
01767             160.00    -9400.00
01768             160.00    -9400.00
01769             160.00    -9400.00
01770             160.00    -9400.00
01771             160.00    -9200.00
01772             160.00    -9000.00
01773             160.00    -9200.00
01774             160.00    -9000.00
01775             160.00    -9000.00
01776             160.00    -8800.00
01777             160.00    -8600.00
01778             120.00    -8600.00
01779             120.00    -8400.00
01780             160.00    -8400.00
01781             120.00    -8200.00
01782             120.00    -8200.00
01783             160.00    -8000.00
01784             160.00    -7800.00
01785             120.00    -7800.00
01786             120.00    -7600.00
01787             160.00    -7600.00
01788             120.00    -7200.00
01789             160.00    -7200.00
01790             160.00    -7000.00
01791             160.00    -7000.00
01792             120.00    -6800.00
01793             120.00    -6800.00
01794             120.00    -6600.00
01795             160.00    -6400.00
01796             160.00    -6200.00
01797             120.00    -6000.00
01798             120.00    -6000.00
01799             120.00    -5800.00
01800             120.00    -5600.00
01801             120.00    -5400.00
01802             120.00    -5400.00
01803             120.00    -5000.00
01804             120.00    -5000.00
01805              80.00    -4600.00
01806             120.00    -4600.00
01807             120.00    -4600.00
01808             120.00    -4200.00
01809             120.00    -4200.00
01810             120.00    -3800.00
01811             120.00    -3800.00
01812             120.00    -3600.00
01813             120.00    -3400.00
01814             120.00    -3200.00
01815             120.00    -3000.00
01816             120.00    -2800.00
01817             120.00    -2600.00
01818             120.00    -2600.00
01819              80.00    -2400.00
01820             120.00    -2200.00
01821              40.00    -1800.00
01822              80.00    -1800.00
01823              40.00    -1800.00
01824             120.00    -1400.00
01825              80.00    -1200.00
01826              40.00     -800.00
01827              40.00     -800.00
01828              40.00     -600.00
01829              80.00     -400.00
01830              40.00     -400.00
01831              40.00        0.00
01832              40.00      200.00
01833              80.00      400.00
01834             120.00      400.00
01835             160.00      600.00
01836             160.00      600.00
01837             120.00     1000.00
01838             120.00     1200.00
01839             120.00     1400.00
01840             200.00     1600.00
01841             760.00     2000.00
01842             920.00     2200.00
01843              40.00     2200.00
01844            -840.00     2200.00
01845           -1160.00     2200.00
01846            -520.00     3000.00
01847             800.00     3000.00
01848             120.00     2800.00
01849            -320.00     3400.00
01850             360.00     3000.00
01851            -160.00     3600.00
01852            -160.00     4200.00
01853             120.00     3400.00
01854             -80.00     4400.00
01855             360.00     4600.00
01856            -120.00     4200.00
01857            -200.00     5000.00
01858             120.00     4600.00
01859            -160.00     5000.00
01860               0.00     5200.00
01861               0.00     5000.00
01862               0.00     5800.00
01863            -120.00     5400.00
01864            -120.00     5800.00
01865             120.00     6200.00
01866            -120.00     6000.00
01867             -40.00     6600.00
01868               0.00     6200.00
01869             -40.00     6800.00
01870             -40.00     6600.00
01871            -120.00     6800.00
01872             -40.00     7200.00
01873             -40.00     6800.00
01874             -40.00     7400.00
01875            -120.00     7400.00
01876             -40.00     7600.00
01877             -40.00     7600.00
01878            -120.00     7800.00
01879             -40.00     8000.00
01880            -120.00     8000.00
01881             -40.00     8200.00
01882            -160.00     8400.00
01883             -40.00     8400.00
01884             -40.00     8600.00
01885             -40.00     8600.00
01886            -120.00     8600.00
01887            -160.00     9000.00
01888            -120.00     9000.00
01889            -120.00     9000.00
01890             -80.00     9200.00
01891            -120.00     9400.00
01892            -160.00     9200.00
01893            -120.00     9400.00
01894             -80.00     9400.00
01895            -120.00     9400.00
01896            -120.00     9600.00
01897            -120.00     9600.00
01898            -120.00     9800.00
01899            -120.00     9800.00
01900            -160.00     9800.00
01901            -160.00     9800.00
01902            -160.00    10000.00
01903            -120.00    10000.00
01904            -120.00     9800.00
01905            -160.00    10000.00
01906            -160.00    10200.00
01907            -160.00    10000.00
01908            -160.00    10200.00
01909            -160.00    10000.00
01910            -160.00    10200.00
01911            -160.00    10000.00
01912            -160.00    10200.00
01913            -200.00    10200.00
01914            -160.00    10200.00
01915            -200.00    10200.00
01916            -160.00    10200.00
01917            -160.00    10200.00
01918            -160.00    10200.00
01919            -200.00    10200.00
01920            -200.00    10200.00
01921            -160.00    10200.00
01922            -160.00    10000.00
01923            -160.00    10200.00
01924            -160.00    10000.00
01925            -200.00    10000.00
01926            -200.00    10000.00
01927            -200.00    10000.00
01928            -160.00     9800.00
01929            -200.00    10000.00
01930            -160.00     9800.00
01931            -200.00     9800.00
01932            -200.00     9800.00
01933            -200.00     9600.00
01934            -160.00     9400.00
01935            -160.00     9400.00
01936            -160.00     9400.00
01937            -200.00     9400.00
01938            -200.00     9200.00
01939            -160.00     9200.00
01940            -200.00     9200.00
01941            -160.00     9000.00
01942            -160.00     9000.00
01943            -200.00     8800.00
01944            -160.00     8600.00
01945            -200.00     8600.00
01946            -160.00     8400.00
01947            -160.00     8400.00
01948            -160.00     8400.00
01949            -160.00     8200.00
01950            -160.00     8000.00
01951            -160.00     7800.00
01952            -160.00     7800.00
01953            -160.00     7600.00
01954            -160.00     7600.00
01955            -160.00     7400.00
01956            -160.00     7200.00
01957            -160.00     7000.00
01958            -120.00     7000.00
01959            -160.00     6800.00
01960            -160.00     6600.00
01961            -160.00     6600.00
01962            -120.00     6400.00
01963            -160.00     6200.00
01964            -160.00     6200.00
01965            -120.00     6000.00
01966            -160.00     5800.00
01967            -160.00     5800.00
01968            -160.00     5600.00
01969            -120.00     5400.00
01970            -120.00     5200.00
01971            -120.00     5000.00
01972            -120.00     4800.00
01973            -120.00     4600.00
01974            -120.00     4600.00
01975            -160.00     4400.00
01976            -120.00     4200.00
01977            -120.00     4000.00
01978            -120.00     3800.00
01979            -120.00     3600.00
01980            -160.00     3400.00
01981            -120.00     3200.00
01982            -120.00     3000.00
01983             -80.00     2800.00
01984            -120.00     2800.00
01985            -120.00     2600.00
01986            -160.00     2200.00
01987            -120.00     2000.00
01988            -120.00     2000.00
01989             -80.00     1800.00
01990            -120.00     1600.00
01991             -40.00     1400.00
01992             -40.00     1200.00
01993            -120.00     1000.00
01994             -80.00     1000.00
01995             -80.00      600.00
01996             -40.00      400.00
01997             -80.00      400.00
01998             -40.00      200.00
01999             -40.00     -200.00
02000             -40.00     -400.00
02001              40.00     -400.00
02002             120.00     -600.00
02003              40.00     -800.00
02004              40.00    -1000.00
02005              40.00    -1000.00
02006               0.00    -1200.00
02007              40.00    -1600.00
02008             160.00    -1600.00
02009             640.00    -2000.00
02010             600.00    -2200.00
02011            -160.00    -2600.00
02012            -640.00    -2600.00
02013            -760.00    -2600.00
02014            -520.00    -2400.00
02015             440.00    -2800.00
02016             280.00    -3400.00
02017            -280.00    -3000.00
02018             280.00    -3800.00
02019               0.00    -3600.00
02020             -40.00    -3400.00
02021             200.00    -4400.00
02022             -40.00    -4200.00
02023             200.00    -4600.00
02024             280.00    -4400.00
02025            -120.00    -4600.00
02026             -40.00    -5200.00
02027              40.00    -4800.00
02028             120.00    -5400.00
02029               0.00    -5400.00
02030              40.00    -5400.00
02031               0.00    -5800.00
02032               0.00    -5800.00
02033             160.00    -6200.00
02034             120.00    -6200.00
02035              40.00    -6200.00
02036             120.00    -6600.00
02037             120.00    -6400.00
02038               0.00    -7000.00
02039             -40.00    -6800.00
02040               0.00    -7200.00
02041             120.00    -7200.00
02042             120.00    -7400.00
02043              40.00    -7600.00
02044             120.00    -7600.00
02045             120.00    -7800.00
02046             120.00    -7800.00
02047              40.00    -8200.00
02048               0.00    -8000.00
02049              40.00    -8200.00
02050              80.00    -8400.00
02051             120.00    -8400.00
02052             120.00    -8600.00
02053             160.00    -8600.00
02054             160.00    -8800.00
02055             120.00    -8800.00
02056             120.00    -9000.00
02057             120.00    -9000.00
02058             120.00    -9200.00
02059              40.00    -9200.00
02060              80.00    -9200.00
02061             120.00    -9400.00
02062             120.00    -9400.00
02063             160.00    -9400.00
02064             160.00    -9600.00
02065             160.00    -9800.00
02066             120.00    -9600.00
02067              80.00    -9800.00
02068             120.00    -9800.00
02069             120.00    -9800.00
02070             160.00   -10000.00
02071             160.00    -9800.00
02072             160.00   -10000.00
02073             120.00   -10000.00
02074             160.00   -10000.00
02075             120.00   -10000.00
02076             160.00   -10200.00
02077             160.00   -10000.00
02078             160.00   -10000.00
02079             160.00   -10200.00
02080             160.00   -10200.00
02081             160.00   -10000.00
02082             160.00   -10200.00
02083             160.00   -10000.00
02084             160.00   -10000.00
02085             160.00   -10200.00
02086             160.00   -10200.00
02087             160.00   -10000.00
02088             160.00   -10000.00
02089             160.00   -10000.00
02090             160.00   -10000.00
02091             160.00   -10000.00
02092             160.00   -10000.00
02093             160.00   -10000.00
02094             160.00   -10000.00
02095             160.00    -9800.00
02096             160.00    -9800.00
02097             160.00    -9800.00
02098             160.00    -9600.00
02099             160.00    -9600.00
02100             160.00    -9800.00
02101             160.00    -9600.00
02102             160.00    -9400.00
02103             160.00    -9400.00
02104             160.00    -9400.00
02105             160.00    -9400.00
02106             120.00    -9200.00
02107             160.00    -9000.00
02108             160.00    -9000.00
02109             160.00    -9000.00
02110             160.00    -8600.00
02111             160.00    -8800.00
02112             120.00    -8600.00
02113             120.00    -8600.00
02114             120.00    -8400.00
02115             120.00    -8200.00
02116             120.00    -8200.00
02117             160.00    -8200.00
02118             120.00    -7800.00
02119             160.00    -8000.00
02120             120.00    -7800.00
02121             160.00    -7600.00
02122             120.00    -7400.00
02123             120.00    -7200.00
02124             120.00    -7200.00
02125             120.00    -7000.00
02126             120.00    -6800.00
02127             160.00    -6800.00
02128             160.00    -6600.00
02129             120.00    -6600.00
02130             120.00    -6200.00
02131             120.00    -6200.00
02132             120.00    -6200.00
02133             120.00    -5800.00
02134             120.00    -5800.00
02135              80.00    -5400.00
02136             120.00    -5400.00
02137             120.00    -5200.00
02138             120.00    -5200.00
02139             120.00    -5000.00
02140             120.00    -4600.00
02141             120.00    -4600.00
02142             120.00    -4400.00
02143             120.00    -4200.00
02144              80.00    -3800.00
02145             120.00    -4000.00
02146             120.00    -3800.00
02147              40.00    -3400.00
02148              80.00    -3200.00
02149             120.00    -3000.00
02150             120.00    -3000.00
02151              80.00    -2800.00
02152             120.00    -2600.00
02153              40.00    -2400.00
02154              40.00    -2200.00
02155              40.00    -2000.00
02156              80.00    -1800.00
02157              40.00    -1800.00
02158              40.00    -1400.00
02159             120.00    -1400.00
02160             120.00    -1200.00
02161              40.00     -800.00
02162              40.00     -600.00
02163              40.00     -400.00
02164              40.00     -400.00
02165              40.00     -200.00
02166              40.00        0.00
02167              40.00      200.00
02168             120.00      400.00
02169             120.00      600.00
02170             160.00      800.00
02171             120.00     1000.00
02172             120.00     1200.00
02173              40.00     1200.00
02174             120.00     1400.00
02175             440.00     1800.00
02176             960.00     2000.00
02177             600.00     2200.00
02178            -440.00     2200.00
02179           -1000.00     2000.00
02180           -1000.00     2600.00
02181             280.00     3200.00
02182             760.00     2800.00
02183            -360.00     3000.00
02184             120.00     3400.00
02185             320.00     3200.00
02186            -320.00     4200.00
02187             120.00     3800.00
02188             -40.00     3600.00
02189             120.00     5000.00
02190             280.00     4200.00
02191            -400.00     4600.00
02192              40.00     5000.00
02193               0.00     4600.00
02194            -160.00     5400.00
02195              40.00     5000.00
02196               0.00     5600.00
02197               0.00     5800.00
02198            -160.00     5400.00
02199              40.00     6200.00
02200              40.00     5800.00
02201            -160.00     6200.00
02202               0.00     6600.00
02203             -40.00     6400.00
02204             -40.00     6800.00
02205            -120.00     6600.00
02206             -40.00     7000.00
02207               0.00     7000.00
02208               0.00     7000.00
02209             -40.00     7400.00
02210             -40.00     7400.00
02211             -40.00     7600.00
02212             -80.00     7600.00
02213             -40.00     7800.00
02214            -120.00     8200.00
02215             -40.00     8200.00
02216            -120.00     8400.00
02217            -120.00     8200.00
02218             -40.00     8400.00
02219             -80.00     8400.00
02220             -40.00     8600.00
02221            -120.00     9000.00
02222            -120.00     9000.00
02223            -120.00     8800.00
02224            -120.00     9000.00
02225             -40.00     9200.00
02226            -120.00     9200.00
02227            -120.00     9400.00
02228            -120.00     9400.00
02229             -40.00     9400.00
02230            -120.00     9800.00
02231            -120.00     9600.00
02232            -120.00     9800.00
02233            -120.00     9800.00
02234            -160.00     9800.00
02235            -160.00     9800.00
02236            -160.00     9800.00
02237            -120.00    10000.00
02238            -160.00    10000.00
02239            -160.00    10000.00
02240            -160.00    10000.00
02241            -160.00    10000.00
02242            -200.00    10000.00
02243            -160.00    10200.00
02244            -160.00    10200.00
02245            -200.00    10000.00
02246            -160.00    10200.00
02247            -160.00    10200.00
02248            -200.00    10000.00
02249            -160.00    10200.00
02250            -160.00    10200.00
02251            -160.00    10000.00
02252            -160.00    10200.00
02253            -160.00    10400.00
02254            -160.00    10000.00
02255            -200.00    10200.00
02256            -200.00    10000.00
02257            -200.00    10000.00
02258            -160.00    10000.00
02259            -160.00    10000.00
02260            -200.00    10000.00
02261            -200.00    10000.00
02262            -160.00     9800.00
02263            -160.00     9800.00
02264            -160.00    10000.00
02265            -160.00     9800.00
02266            -160.00     9800.00
02267            -160.00     9800.00
02268            -160.00     9600.00
02269            -160.00     9400.00
02270            -160.00     9400.00
02271            -160.00     9400.00
02272            -160.00     9200.00
02273            -160.00     9200.00
02274            -160.00     9000.00
02275            -160.00     9000.00
02276            -160.00     9000.00
02277            -160.00     8800.00
02278            -160.00     8800.00
02279            -160.00     8600.00
02280            -160.00     8600.00
02281            -160.00     8400.00
02282            -160.00     8200.00
02283            -160.00     8200.00
02284            -160.00     8200.00
02285            -160.00     7800.00
02286            -160.00     7800.00
02287            -160.00     7800.00
02288            -160.00     7600.00
02289            -160.00     7600.00
02290            -120.00     7400.00
02291            -160.00     7200.00
02292            -160.00     7200.00
02293            -160.00     7000.00
02294            -160.00     6800.00
02295            -160.00     6600.00
02296            -160.00     6400.00
02297            -160.00     6400.00
02298            -160.00     6200.00
02299            -160.00     6000.00
02300            -160.00     6000.00
02301            -160.00     5800.00
02302            -160.00     5800.00
02303            -120.00     5400.00
02304            -120.00     5400.00
02305            -120.00     5200.00
02306            -120.00     5000.00
02307            -120.00     4600.00
02308            -160.00     4600.00
02309            -160.00     4600.00
02310            -120.00     4200.00
02311            -120.00     4000.00
02312            -120.00     3800.00
02313            -160.00     3800.00
02314            -120.00     3600.00
02315            -120.00     3400.00
02316            -120.00     3200.00
02317             -80.00     3000.00
02318            -160.00     2800.00
02319            -120.00     2800.00
02320            -120.00     2200.00
02321            -120.00     2200.00
02322             -80.00     2000.00
02323             -40.00     2000.00
02324            -120.00     1800.00
02325            -120.00     1400.00
02326             -80.00     1400.00
02327             -40.00     1000.00
02328             -40.00     1000.00
02329             -40.00      600.00
02330             -40.00      600.00
02331             -40.00      400.00
02332             -40.00      200.00
02333             -40.00        0.00
02334             -40.00     -200.00
02335               0.00     -400.00
02336              40.00     -400.00
02337              80.00     -600.00
02338              40.00    -1000.00
02339               0.00    -1200.00
02340               0.00    -1200.00
02341              40.00    -1200.00
02342             120.00    -1400.00
02343             440.00    -1800.00
02344             840.00    -2200.00
02345             320.00    -2200.00
02346            -480.00    -2400.00
02347            -760.00    -2600.00
02348            -800.00    -2600.00
02349            -120.00    -2600.00
02350             560.00    -3400.00
02351            -160.00    -3000.00
02352               0.00    -3400.00
02353             320.00    -4000.00
02354            -120.00    -3400.00
02355             160.00    -4200.00
02356              40.00    -4200.00
02357               0.00    -4200.00
02358             320.00    -4600.00
02359               0.00    -4400.00
02360            -120.00    -5000.00
02361               0.00    -5000.00
02362              80.00    -5000.00
02363              40.00    -5600.00
02364               0.00    -5400.00
02365             120.00    -5800.00
02366               0.00    -5800.00
02367             120.00    -6000.00
02368             160.00    -6200.00
02369               0.00    -6200.00
02370              40.00    -6600.00
02371             120.00    -6600.00
02372             120.00    -6800.00
02373              40.00    -7000.00
02374              40.00    -7000.00
02375             120.00    -7200.00
02376             120.00    -7400.00
02377              40.00    -7400.00
02378              40.00    -7600.00
02379             120.00    -7600.00
02380             120.00    -8000.00
02381             120.00    -8000.00
02382             120.00    -8200.00
02383              40.00    -8200.00
02384              40.00    -8400.00
02385             120.00    -8600.00
02386             120.00    -8600.00
02387              80.00    -8600.00
02388             120.00    -8600.00
02389             120.00    -9000.00
02390             120.00    -9000.00
02391             120.00    -9000.00
02392             120.00    -9200.00
02393             120.00    -9200.00
02394             120.00    -9200.00
02395              80.00    -9400.00
02396             120.00    -9400.00
02397             160.00    -9400.00
02398             160.00    -9600.00
02399             160.00    -9600.00
02400             120.00    -9800.00
02401             120.00    -9800.00
02402             120.00    -9800.00
02403             120.00    -9800.00
02404             120.00    -9800.00
02405             160.00   -10000.00
02406             160.00   -10000.00
02407             160.00   -10000.00
02408             120.00   -10000.00
02409             160.00   -10000.00
02410             120.00   -10200.00
02411             160.00   -10000.00
02412             160.00   -10200.00
02413             160.00   -10200.00
02414             160.00   -10200.00
02415             160.00   -10000.00
02416             120.00   -10000.00
02417             120.00   -10200.00
02418             160.00   -10000.00
02419             160.00   -10200.00
02420             160.00   -10200.00
02421             160.00   -10200.00
02422             120.00   -10000.00
02423             160.00   -10000.00
02424             160.00   -10000.00
02425             160.00   -10000.00
02426             160.00   -10000.00
02427             200.00   -10000.00
02428             160.00    -9800.00
02429             160.00    -9800.00
02430             160.00   -10000.00
02431             160.00    -9800.00
02432             160.00    -9800.00
02433             160.00    -9800.00
02434             160.00    -9800.00
02435             160.00    -9600.00
02436             160.00    -9400.00
02437             160.00    -9400.00
02438             160.00    -9400.00
02439             160.00    -9400.00
02440             160.00    -9200.00
02441             160.00    -9200.00
02442             160.00    -9000.00
02443             160.00    -9000.00
02444             160.00    -9000.00
02445             160.00    -8800.00
02446             160.00    -8800.00
02447             160.00    -8600.00
02448             120.00    -8600.00
02449             160.00    -8400.00
02450             160.00    -8200.00
02451             160.00    -8200.00
02452             120.00    -7800.00
02453             160.00    -7800.00
02454             120.00    -7600.00
02455             160.00    -7800.00
02456             120.00    -7200.00
02457             120.00    -7200.00
02458             160.00    -7200.00
02459             160.00    -7000.00
02460             120.00    -7000.00
02461             160.00    -6800.00
02462             120.00    -6600.00
02463             160.00    -6600.00
02464             120.00    -6600.00
02465             160.00    -6400.00
02466             120.00    -6200.00
02467             120.00    -6000.00
02468             120.00    -5800.00
02469             120.00    -5600.00
02470             120.00    -5600.00
02471             160.00    -5200.00
02472             160.00    -5200.00
02473             120.00    -5000.00
02474             120.00    -4800.00
02475             120.00    -4600.00
02476              80.00    -4600.00
02477             120.00    -4200.00
02478             120.00    -4200.00
02479             120.00    -3800.00
02480             120.00    -3800.00
02481             120.00    -3400.00
02482             120.00    -3400.00
02483              80.00    -3200.00
02484             120.00    -3000.00
02485             120.00    -2800.00
02486              80.00    -2800.00
02487              80.00    -2600.00
02488             120.00    -2400.00
02489              40.00    -2200.00
02490              80.00    -2200.00
02491             120.00    -1800.00
02492              40.00    -1800.00
02493              40.00    -1400.00
02494             120.00    -1200.00
02495              40.00     -800.00
02496              40.00     -600.00
02497              40.00     -600.00
02498              40.00     -400.00
02499              40.00     -200.00
02500              40.00        0.00
02501              40.00      200.00
02502              40.00      400.00
02503             120.00      400.00
02504             160.00      600.00
02505             120.00     1000.00
02506             120.00     1000.00
02507              40.00     1000.00
02508             120.00     1200.00
02509             200.00     1600.00
02510             760.00     1800.00
02511             960.00     2000.00
02512              40.00     2200.00
02513            -800.00     2200.00
02514           -1120.00     2200.00
02515            -520.00     2800.00
02516             800.00     3000.00
02517             160.00     2800.00
02518            -320.00     3400.00
02519             360.00     3000.00
02520            -120.00     3600.00
02521            -160.00     4200.00
02522             120.00     3400.00
02523            -120.00     4200.00
02524             360.00     4400.00
02525            -120.00     4200.00
02526            -240.00     5000.00
02527             160.00     4600.00
02528            -160.00     5000.00
02529              40.00     5400.00
02530               0.00     5000.00
02531               0.00     5800.00
02532             -40.00     5400.00
02533            -120.00     5800.00
02534             160.00     6200.00
02535            -120.00     5800.00
02536             -40.00     6600.00
02537               0.00     6200.00
02538             -40.00     6600.00
02539             -40.00     6800.00
02540            -120.00     6800.00
02541               0.00     7200.00
02542             -40.00     6800.00
02543               0.00     7400.00
02544             -40.00     7200.00
02545             -80.00     7800.00
02546             -80.00     7600.00
02547             -40.00     7800.00
02548             -40.00     8200.00
02549             -40.00     8000.00
02550             -40.00     8200.00
02551            -120.00     8400.00
02552             -80.00     8400.00
02553             -40.00     8400.00
02554             -40.00     8600.00
02555            -120.00     8600.00
02556            -120.00     9000.00
02557             -40.00     9000.00
02558            -120.00     9000.00
02559             -80.00     9000.00
02560            -120.00     9200.00
02561            -160.00     9400.00
02562            -120.00     9400.00
02563            -120.00     9400.00
02564            -120.00     9400.00
02565            -160.00     9400.00
02566            -160.00     9400.00
02567            -120.00     9800.00
02568            -160.00     9800.00
02569            -160.00     9800.00
02570            -160.00     9800.00
02571            -160.00     9800.00
02572            -160.00    10000.00
02573            -120.00    10000.00
02574            -160.00    10000.00
02575            -160.00    10200.00
02576            -160.00    10000.00
02577            -160.00    10200.00
02578            -120.00    10200.00
02579            -200.00    10200.00
02580            -200.00    10200.00
02581            -200.00    10200.00
02582            -200.00    10000.00
02583            -160.00    10200.00
02584            -160.00    10200.00
02585            -160.00    10200.00
02586            -160.00    10000.00
02587            -160.00    10200.00
02588            -160.00    10000.00
02589            -160.00    10000.00
02590            -200.00    10000.00
02591            -160.00    10200.00
02592            -160.00    10000.00
02593            -160.00    10000.00
02594            -160.00    10000.00
02595            -160.00    10000.00
02596            -160.00     9800.00
02597            -200.00    10000.00
02598            -160.00     9800.00
02599            -160.00     9800.00
02600            -160.00     9800.00
02601            -160.00     9800.00
02602            -160.00     9600.00
02603            -160.00     9400.00
02604            -200.00     9400.00
02605            -160.00     9400.00
02606            -160.00     9400.00
02607            -160.00     9200.00
02608            -160.00     9200.00
02609            -160.00     9000.00
02610            -160.00     9000.00
02611            -160.00     8800.00
02612            -160.00     8800.00
02613            -160.00     8600.00
02614            -160.00     8600.00
02615            -160.00     8400.00
02616            -160.00     8400.00
02617            -120.00     8200.00
02618            -160.00     8200.00
02619            -160.00     8200.00
02620            -160.00     8200.00
02621            -160.00     7600.00
02622            -160.00     7600.00
02623            -120.00     7600.00
02624            -120.00     7400.00
02625            -160.00     7400.00
02626            -160.00     7200.00
02627            -160.00     6800.00
02628            -160.00     6800.00
02629            -120.00     6600.00
02630            -160.00     6600.00
02631            -160.00     6400.00
02632            -160.00     6200.00
02633            -160.00     6200.00
02634            -160.00     5800.00
02635            -160.00     5800.00
02636            -160.00     5800.00
02637            -160.00     5600.00
02638            -120.00     5200.00
02639            -160.00     5200.00
02640            -160.00     5000.00
02641            -160.00     4800.00
02642            -160.00     4600.00
02643            -120.00     4600.00
02644            -120.00     4200.00
02645            -160.00     4200.00
02646            -120.00     4200.00
02647            -160.00     3800.00
02648            -120.00     3600.00
02649            -120.00     3400.00
02650            -120.00     3400.00
02651            -120.00     3200.00
02652            -120.00     2800.00
02653             -80.00     2800.00
02654            -120.00     2400.00
02655            -120.00     2200.00
02656            -120.00     2200.00
02657             -80.00     2000.00
02658             -40.00     1800.00
02659             -80.00     1800.00
02660             -40.00     1400.00
02661             -80.00     1200.00
02662             -40.00     1200.00
02663             -40.00     1000.00
02664             -40.00      600.00
02665             -40.00      600.00
02666             -40.00      400.00
02667             -40.00      200.00
02668             -40.00        0.00
02669             -40.00     -200.00
02670              40.00     -400.00
02671              80.00     -600.00
02672              40.00     -800.00
02673               0.00    -1000.00
02674              40.00    -1000.00
02675              40.00    -1200.00
02676              40.00    -1400.00
02677             240.00    -1600.00
02678             760.00    -2000.00
02679             640.00    -2200.00
02680            -120.00    -2400.00
02681            -680.00    -2600.00
02682            -800.00    -2800.00
02683            -600.00    -2400.00
02684             360.00    -3000.00
02685             280.00    -3400.00
02686            -280.00    -3000.00
02687             280.00    -3800.00
02688              40.00    -3600.00
02689             -40.00    -3600.00
02690             200.00    -4400.00
02691             -80.00    -4200.00
02692             160.00    -4600.00
02693             200.00    -4600.00
02694            -160.00    -4800.00
02695            -120.00    -5200.00
02696               0.00    -5000.00
02697             120.00    -5400.00
02698               0.00    -5400.00
02699             120.00    -5400.00
02700              40.00    -5800.00
02701             -40.00    -5800.00
02702             160.00    -6200.00
02703              80.00    -6200.00
02704               0.00    -6400.00
02705              80.00    -6600.00
02706              80.00    -6600.00
02707              40.00    -6800.00
02708               0.00    -7000.00
02709             120.00    -7000.00
02710             120.00    -7200.00
02711              40.00    -7400.00
02712              40.00    -7600.00
02713             120.00    -7600.00
02714             120.00    -7800.00
02715             120.00    -7800.00
02716             120.00    -8200.00
02717             120.00    -8200.00
02718              40.00    -8200.00
02719             120.00    -8400.00
02720             120.00    -8400.00
02721             120.00    -8400.00
02722             120.00    -8600.00
02723             120.00    -8800.00
02724             120.00    -8800.00
02725             120.00    -9000.00
02726             160.00    -9000.00
02727             120.00    -9200.00
02728             120.00    -9200.00
02729             120.00    -9200.00
02730             120.00    -9400.00
02731             120.00    -9400.00
02732             160.00    -9400.00
02733             160.00    -9400.00
02734             120.00    -9400.00
02735             120.00    -9800.00
02736             120.00    -9800.00
02737             160.00    -9800.00
02738             120.00    -9800.00
02739             160.00    -9800.00
02740             160.00   -10000.00
02741             160.00   -10000.00
02742             160.00   -10000.00
02743             160.00   -10000.00
02744             120.00   -10000.00
02745             160.00   -10000.00
02746             200.00   -10000.00
02747             160.00   -10000.00
02748             120.00   -10000.00
02749             160.00   -10000.00
02750             160.00   -10200.00
02751             160.00   -10200.00
02752             160.00   -10200.00
02753             200.00   -10000.00
02754             200.00   -10200.00
02755             160.00   -10200.00
02756             160.00   -10000.00
02757             160.00   -10000.00
02758             160.00   -10000.00
02759             160.00   -10000.00
02760             160.00   -10200.00
02761             160.00   -10000.00
02762             120.00   -10000.00
02763             160.00    -9800.00
02764             160.00    -9800.00
02765             160.00    -9800.00
02766             160.00    -9800.00
02767             160.00    -9800.00
02768             160.00    -9600.00
02769             160.00    -9600.00
02770             160.00    -9400.00
02771             160.00    -9400.00
02772             160.00    -9400.00
02773             160.00    -9400.00
02774             120.00    -9200.00
02775             160.00    -9200.00
02776             160.00    -9200.00
02777             160.00    -9000.00
02778             160.00    -9000.00
02779             160.00    -8800.00
02780             160.00    -8600.00
02781             160.00    -8600.00
02782             160.00    -8600.00
02783             160.00    -8400.00
02784             160.00    -8400.00
02785             160.00    -8200.00
02786             160.00    -8200.00
02787             120.00    -8200.00
02788             160.00    -7800.00
02789             120.00    -7600.00
02790             120.00    -7400.00
02791             160.00    -7400.00
02792             160.00    -7200.00
02793             160.00    -7200.00
02794             120.00    -7000.00
02795             120.00    -6800.00
02796             120.00    -6800.00
02797             160.00    -6600.00
02798             160.00    -6400.00
02799             160.00    -6200.00
02800             120.00    -6200.00
02801             120.00    -6000.00
02802             120.00    -5800.00
02803             120.00    -5600.00
02804             120.00    -5400.00
02805             120.00    -5400.00
02806             120.00    -5200.00
02807             120.00    -5000.00
02808             120.00    -5000.00
02809             120.00    -4800.00
02810             120.00    -4400.00
02811             120.00    -4400.00
02812             120.00    -4200.00
02813             120.00    -4000.00
02814             120.00    -4000.00
02815              80.00    -3800.00
02816             120.00    -3600.00
02817              80.00    -3400.00
02818             120.00    -3000.00
02819             120.00    -3000.00
02820             120.00    -2800.00
02821             120.00    -2600.00
02822              40.00    -2600.00
02823              40.00    -2200.00
02824              40.00    -2200.00
02825             120.00    -2000.00
02826              40.00    -1800.00
02827              40.00    -1400.00
02828              40.00    -1200.00
02829              40.00    -1200.00
02830              40.00     -800.00
02831              40.00     -600.00
02832              80.00     -600.00
02833              40.00     -200.00
02834              40.00     -200.00
02835              40.00        0.00
02836              40.00      400.00
02837             120.00      400.00
02838             160.00      600.00
02839             120.00      600.00
02840             120.00     1000.00
02841              80.00     1000.00
02842              80.00     1400.00
02843             120.00     1400.00
02844             440.00     1600.00
02845             960.00     2000.00
02846             600.00     2200.00
02847            -440.00     2200.00
02848           -1000.00     2200.00
02849           -1000.00     2600.00
02850             280.00     3200.00
02851             760.00     2800.00
02852            -320.00     3200.00
02853              40.00     3400.00
02854             320.00     3200.00
02855            -320.00     4200.00
02856             120.00     3800.00
02857             -40.00     3800.00
02858             160.00     4800.00
02859             280.00     4000.00
02860            -360.00     4400.00
02861               0.00     5000.00
02862               0.00     4600.00
02863            -120.00     5400.00
02864              40.00     5000.00
02865               0.00     5400.00
02866              40.00     5800.00
02867            -160.00     5400.00
02868               0.00     6200.00
02869              40.00     5800.00
02870            -160.00     6200.00
02871               0.00     6400.00
02872             -40.00     6200.00
02873               0.00     6800.00
02874            -120.00     6600.00
02875             -40.00     7000.00
02876               0.00     7000.00
02877               0.00     7200.00
02878             -40.00     7400.00
02879             -80.00     7400.00
02880             -40.00     7600.00
02881            -120.00     7600.00
02882               0.00     7800.00
02883             -40.00     8000.00
02884             -80.00     8200.00
02885            -120.00     8400.00
02886            -120.00     8200.00
02887             -40.00     8600.00
02888             -40.00     8400.00
02889            -120.00     8600.00
02890            -160.00     8800.00
02891            -120.00     9000.00
02892            -120.00     9000.00
02893            -120.00     9200.00
02894            -120.00     9000.00
02895            -120.00     9200.00
02896            -160.00     9400.00
02897            -160.00     9200.00
02898            -120.00     9400.00
02899            -120.00     9600.00
02900            -160.00     9400.00
02901            -160.00     9800.00
02902            -120.00     9800.00
02903            -160.00     9800.00
02904            -160.00     9800.00
02905            -160.00     9800.00
02906            -120.00    10000.00
02907            -120.00    10000.00
02908            -160.00    10000.00
02909            -160.00    10000.00
02910            -200.00    10000.00
02911            -160.00    10000.00
02912            -160.00    10200.00
02913            -160.00    10200.00
02914            -160.00    10000.00
02915            -160.00    10200.00
02916            -160.00    10200.00
02917            -200.00    10200.00
02918            -160.00    10200.00
02919            -160.00    10200.00
02920            -160.00    10000.00
02921            -160.00    10200.00
02922            -160.00    10200.00
02923            -160.00    10200.00
02924            -200.00    10000.00
02925            -160.00    10200.00
02926            -120.00    10200.00
02927            -160.00    10000.00
02928            -160.00    10000.00
02929            -160.00    10200.00
02930            -160.00    10000.00
02931            -160.00    10000.00
02932            -160.00    10000.00
02933            -160.00     9800.00
02934            -160.00     9800.00
02935            -200.00     9800.00
02936            -160.00     9800.00
02937            -160.00     9600.00
02938            -160.00     9400.00
02939            -160.00     9400.00
02940            -160.00     9400.00
02941            -200.00     9400.00
02942            -160.00     9200.00
02943            -200.00     9200.00
02944            -160.00     9000.00
02945            -120.00     9000.00
02946            -160.00     9000.00
02947            -160.00     8800.00
02948            -160.00     8600.00
02949            -160.00     8600.00
02950            -200.00     8400.00
02951            -200.00     8400.00
02952            -160.00     8400.00
02953            -160.00     8000.00
02954            -160.00     8000.00
02955            -160.00     7800.00
02956            -200.00     7600.00
02957            -160.00     7600.00
02958            -200.00     7600.00
02959            -160.00     7400.00
02960            -160.00     7200.00
02961            -160.00     7000.00
02962            -200.00     7000.00
02963            -160.00     6600.00
02964            -160.00     6600.00
02965            -160.00     6600.00
02966            -160.00     6400.00
02967            -160.00     6200.00
02968            -160.00     6000.00
02969            -160.00     5800.00
02970            -160.00     5800.00
02971            -160.00     5600.00
02972            -160.00     5400.00
02973            -120.00     5400.00
02974            -160.00     5000.00
02975            -160.00     5000.00
02976            -160.00     4600.00
02977            -120.00     4600.00
02978            -160.00     4400.00
02979            -120.00     4400.00
02980            -120.00     4200.00
02981            -120.00     3800.00
02982             -80.00     3800.00
02983            -120.00     3600.00
02984            -120.00     3400.00
02985            -120.00     3200.00
02986            -120.00     3200.00
02987            -120.00     2800.00
02988            -120.00     2600.00
02989            -120.00     2600.00
02990            -120.00     2200.00
02991            -120.00     2200.00
02992             -80.00     2000.00
02993             -40.00     1800.00
02994             -40.00     1400.00
02995             -40.00     1200.00
02996             -80.00     1200.00
02997             -80.00     1000.00
02998             -80.00      800.00
02999             -40.00      600.00
03000             -40.00      400.00
03001             -40.00      200.00
03002             -40.00        0.00
03003             -40.00     -200.00
03004               0.00     -200.00
03005              80.00     -600.00
03006              80.00     -600.00
03007              40.00    -1000.00
03008               0.00    -1000.00
03009               0.00    -1200.00
03010              40.00    -1400.00
03011             120.00    -1600.00
03012             480.00    -1800.00
03013             840.00    -2200.00
03014             280.00    -2200.00
03015            -520.00    -2600.00
03016            -760.00    -2600.00
03017            -760.00    -2600.00
03018            -120.00    -2600.00
03019             600.00    -3400.00
03020            -200.00    -3200.00
03021             -40.00    -3400.00
03022             320.00    -3800.00
03023            -160.00    -3400.00
03024             160.00    -4000.00
03025              40.00    -4200.00
03026             -40.00    -4200.00
03027             320.00    -4600.00
03028               0.00    -4400.00
03029            -160.00    -5000.00
03030             -40.00    -5000.00
03031              40.00    -5000.00
03032              40.00    -5400.00
03033               0.00    -5400.00
03034             120.00    -5800.00
03035             -40.00    -5800.00
03036              40.00    -6000.00
03037             160.00    -6200.00
03038               0.00    -6200.00
03039              40.00    -6600.00
03040             120.00    -6600.00
03041              40.00    -6800.00
03042               0.00    -7000.00
03043               0.00    -7000.00
03044             120.00    -7000.00
03045             120.00    -7400.00
03046              40.00    -7400.00
03047              40.00    -7600.00
03048             120.00    -7600.00
03049              80.00    -7800.00
03050             120.00    -8000.00
03051             120.00    -8000.00
03052              40.00    -8200.00
03053             120.00    -8400.00
03054             120.00    -8400.00
03055             120.00    -8600.00
03056             120.00    -8600.00
03057             120.00    -8600.00
03058             120.00    -8800.00
03059             120.00    -8800.00
03060             120.00    -9000.00
03061             120.00    -9000.00
03062             120.00    -9200.00
03063             120.00    -9400.00
03064             120.00    -9200.00
03065             120.00    -9400.00
03066             120.00    -9400.00
03067             120.00    -9600.00
03068             160.00    -9800.00
03069             120.00    -9800.00
03070             120.00    -9800.00
03071             160.00    -9800.00
03072             120.00    -9800.00
03073             160.00    -9800.00
03074             160.00   -10000.00
03075             160.00   -10000.00
03076             160.00   -10000.00
03077             160.00   -10000.00
03078             160.00   -10000.00
03079             160.00   -10000.00
03080             160.00   -10000.00
03081             160.00   -10000.00
03082             160.00   -10200.00
03083             120.00   -10000.00
03084             120.00   -10200.00
03085             120.00   -10200.00
03086             120.00   -10200.00
03087             160.00   -10200.00
03088             160.00   -10200.00
03089             120.00   -10200.00
03090             120.00   -10200.00
03091             160.00   -10200.00
03092             120.00   -10000.00
03093             160.00   -10000.00
03094             160.00   -10000.00
03095             160.00   -10000.00
03096             160.00   -10000.00
03097             160.00   -10000.00
03098             160.00    -9800.00
03099             160.00    -9800.00
03100             160.00    -9800.00
03101             160.00    -9800.00
03102             160.00    -9600.00
03103             160.00    -9800.00
03104             120.00    -9600.00
03105             160.00    -9400.00
03106             160.00    -9400.00
03107             120.00    -9400.00
03108             160.00    -9200.00
03109             160.00    -9200.00
03110             160.00    -9000.00
03111             160.00    -9000.00
03112             160.00    -9000.00
03113             160.00    -8800.00
03114             160.00    -8600.00
03115             160.00    -8800.00
03116             120.00    -8600.00
03117             120.00    -8600.00
03118             160.00    -8400.00
03119             160.00    -8400.00
03120             160.00    -8200.00
03121             160.00    -8000.00
03122             160.00    -8000.00
03123             120.00    -7800.00
03124             160.00    -7600.00
03125             160.00    -7400.00
03126             160.00    -7400.00
03127             160.00    -7200.00
03128             160.00    -7000.00
03129             160.00    -6800.00
03130             120.00    -7000.00
03131             160.00    -6600.00
03132             160.00    -6600.00
03133             120.00    -6200.00
03134             120.00    -6200.00
03135             160.00    -6200.00
03136             120.00    -6000.00
03137             120.00    -5800.00
03138             120.00    -5600.00
03139             120.00    -5400.00
03140             120.00    -5400.00
03141             160.00    -5200.00
03142             120.00    -5000.00
03143             120.00    -5000.00
03144             120.00    -4600.00
03145             120.00    -4400.00
03146             120.00    -4200.00
03147             120.00    -4200.00
03148             120.00    -3800.00
03149              80.00    -4000.00
03150             120.00    -3600.00
03151              40.00    -3400.00
03152             120.00    -3200.00
03153              40.00    -3000.00
03154             120.00    -2800.00
03155              80.00    -2600.00
03156              40.00    -2600.00
03157              40.00    -2200.00
03158               0.00    -2200.00
03159              40.00    -2000.00
03160             120.00    -1800.00
03161              40.00    -1800.00
03162              40.00    -1200.00
03163              40.00    -1200.00
03164              40.00    -1000.00
03165              40.00     -800.00
03166              40.00     -600.00
03167              40.00     -600.00
03168              40.00     -400.00
03169              40.00     -200.00
03170              40.00      200.00
03171              80.00      400.00
03172             120.00      400.00
03173             160.00      600.00
03174             160.00     1000.00
03175             120.00     1000.00
03176             120.00     1000.00
03177             120.00     1200.00
03178             160.00     1400.00
03179             760.00     1800.00
03180             960.00     2200.00
03181             120.00     2200.00
03182            -800.00     2200.00
03183           -1120.00     2200.00
03184            -520.00     3000.00
03185             800.00     3200.00
03186             200.00     2800.00
03187            -320.00     3400.00
03188             440.00     3000.00
03189             -80.00     3600.00
03190            -160.00     4200.00
03191             120.00     3400.00
03192             -40.00     4400.00
03193             360.00     4400.00
03194             -40.00     4200.00
03195            -280.00     5200.00
03196             160.00     4800.00
03197            -160.00     5000.00
03198               0.00     5400.00
03199               0.00     5000.00
03200               0.00     6000.00
03201             -40.00     5600.00
03202            -160.00     5800.00
03203             160.00     6200.00
03204            -120.00     5800.00
03205             -40.00     6600.00
03206               0.00     6200.00
03207             -40.00     6600.00
03208             -40.00     6800.00
03209            -120.00     6800.00
03210               0.00     7200.00
03211             -40.00     7000.00
03212               0.00     7400.00
03213             -80.00     7400.00
03214            -120.00     7600.00
03215            -120.00     7800.00
03216             -80.00     7800.00
03217             -40.00     8000.00
03218            -120.00     7800.00
03219            -120.00     8200.00
03220            -160.00     8200.00
03221             -40.00     8400.00
03222            -120.00     8600.00
03223             -40.00     8600.00
03224            -120.00     8600.00
03225            -160.00     8600.00
03226            -120.00     9000.00
03227             -80.00     9000.00
03228            -120.00     9000.00
03229            -120.00     9200.00
03230            -160.00     9200.00
03231            -160.00     9400.00
03232            -160.00     9400.00
03233             -40.00     9600.00
03234            -160.00     9400.00
03235            -120.00     9800.00
03236            -160.00     9800.00
03237            -120.00     9800.00
03238            -160.00     9800.00
03239            -160.00     9800.00
03240            -120.00     9800.00
03241            -120.00    10000.00
03242            -120.00    10200.00
03243            -160.00    10000.00
03244            -160.00    10000.00
03245            -160.00    10200.00
03246            -120.00    10200.00
03247            -160.00    10000.00
03248            -200.00    10000.00
03249            -160.00    10200.00
03250            -160.00    10000.00
03251            -160.00    10200.00
03252            -200.00    10200.00
03253            -160.00    10200.00
03254            -160.00    10200.00
03255            -160.00    10200.00
03256            -160.00    10000.00
03257            -160.00    10200.00
03258            -200.00    10000.00
03259            -200.00    10200.00
03260            -160.00    10200.00
03261            -120.00    10200.00
03262            -200.00    10000.00
03263            -200.00    10000.00
03264            -160.00    10000.00
03265            -160.00    10000.00
03266            -160.00     9800.00
03267            -160.00     9800.00
03268            -160.00    10000.00
03269            -160.00     9800.00
03270            -200.00     9800.00
03271            -160.00     9800.00
03272            -160.00     9400.00
03273            -200.00     9400.00
03274            -160.00     9400.00
03275            -160.00     9400.00
03276            -200.00     9200.00
03277            -160.00     9200.00
03278            -160.00     9200.00
03279            -160.00     9000.00
03280            -200.00     8800.00
03281            -200.00     8800.00
03282            -200.00     8600.00
03283            -160.00     8600.00
03284            -160.00     8600.00
03285            -160.00     8400.00
03286            -160.00     8200.00
03287            -200.00     8200.00
03288            -160.00     8200.00
03289            -160.00     7800.00
03290            -160.00     7800.00
03291            -160.00     7600.00
03292            -200.00     7600.00
03293            -160.00     7400.00
03294            -160.00     7400.00
03295            -160.00     7000.00
03296            -160.00     7000.00
03297            -160.00     6800.00
03298            -160.00     6600.00
03299            -160.00     6600.00
03300            -160.00     6600.00
03301            -120.00     6200.00
03302            -160.00     6200.00
03303            -160.00     6000.00
03304            -160.00     6000.00
03305            -160.00     5800.00
03306            -160.00     5600.00
03307            -120.00     5400.00
03308            -120.00     5200.00
03309            -120.00     5200.00
03310            -160.00     5000.00
03311            -160.00     4800.00
03312            -120.00     4400.00
03313            -120.00     4400.00
03314            -160.00     4200.00
03315            -120.00     4000.00
03316            -120.00     3800.00
03317            -120.00     3800.00
03318            -120.00     3400.00
03319            -120.00     3400.00
03320            -120.00     3000.00
03321             -80.00     3000.00
03322             -40.00     2800.00
03323            -120.00     2600.00
03324            -120.00     2200.00
03325             -80.00     2200.00
03326            -120.00     2000.00
03327             -40.00     1800.00
03328             -40.00     1600.00
03329            -120.00     1400.00
03330             -80.00     1000.00
03331             -40.00     1200.00
03332             -40.00      600.00
03333             -40.00      600.00
03334             -40.00      400.00
03335             -40.00      400.00
03336             -40.00      200.00
03337             -40.00        0.00
03338               0.00     -200.00
03339              40.00     -400.00
03340              80.00     -600.00
03341               0.00     -800.00
03342               0.00     -800.00
03343               0.00    -1200.00
03344               0.00    -1400.00
03345               0.00    -1400.00
03346             200.00    -1400.00
03347             680.00    -2000.00
03348             640.00    -2400.00
03349            -120.00    -2400.00
03350            -680.00    -2600.00
03351            -800.00    -2600.00
03352            -640.00    -2600.00
03353             360.00    -2800.00
03354             280.00    -3400.00
03355            -280.00    -3000.00
03356             280.00    -3600.00
03357              40.00    -3600.00
03358            -120.00    -3400.00
03359             200.00    -4400.00
03360             -40.00    -4200.00
03361             160.00    -4600.00
03362             240.00    -4600.00
03363            -160.00    -4600.00
03364            -120.00    -5200.00
03365               0.00    -4600.00
03366              80.00    -5400.00
03367               0.00    -5400.00
03368              40.00    -5400.00
03369              40.00    -5800.00
03370             -40.00    -5800.00
03371             120.00    -6200.00
03372             120.00    -6200.00
03373               0.00    -6200.00
03374             120.00    -6600.00
03375             120.00    -6600.00
03376              80.00    -7000.00
03377               0.00    -6800.00
03378              40.00    -7000.00
03379             120.00    -7200.00
03380             120.00    -7400.00
03381              40.00    -7600.00
03382             120.00    -7400.00
03383             120.00    -7800.00
03384             120.00    -7800.00
03385              80.00    -7800.00
03386             120.00    -8200.00
03387              40.00    -8400.00
03388             120.00    -8400.00
03389             120.00    -8400.00
03390             120.00    -8600.00
03391             120.00    -8600.00
03392             120.00    -8800.00
03393             120.00    -8600.00
03394             120.00    -9000.00
03395             160.00    -9000.00
03396             120.00    -9200.00
03397             120.00    -9200.00
03398             120.00    -9400.00
03399             120.00    -9400.00
03400             120.00    -9400.00
03401             160.00    -9400.00
03402             160.00    -9600.00
03403             160.00    -9600.00
03404             120.00    -9800.00
03405             160.00    -9800.00
03406             120.00    -9800.00
03407             120.00    -9800.00
03408             160.00    -9800.00
03409             160.00   -10000.00
03410             120.00   -10000.00
03411             120.00   -10000.00
03412             120.00   -10200.00
03413             160.00   -10000.00
03414             120.00   -10000.00
03415             160.00   -10200.00
03416             160.00   -10000.00
03417             160.00   -10200.00
03418             120.00   -10000.00
03419             160.00   -10200.00
03420             120.00   -10200.00
03421             160.00   -10200.00
03422             160.00   -10200.00
03423             120.00   -10000.00
03424             160.00   -10200.00
03425             160.00   -10200.00
03426             120.00   -10000.00
03427             160.00   -10000.00
03428             120.00   -10000.00
03429             160.00   -10000.00
03430             160.00   -10000.00
03431             160.00   -10000.00
03432             160.00   -10000.00
03433             160.00    -9800.00
03434             160.00    -9800.00
03435             160.00    -9800.00
03436             160.00    -9800.00
03437             120.00    -9800.00
03438             160.00    -9800.00
03439             160.00    -9400.00
03440             160.00    -9400.00
03441             160.00    -9400.00
03442             160.00    -9200.00
03443             160.00    -9200.00
03444             160.00    -9200.00
03445             160.00    -9200.00
03446             120.00    -9000.00
03447             160.00    -9000.00
03448             160.00    -9000.00
03449             160.00    -8600.00
03450             160.00    -8600.00
03451             160.00    -8600.00
03452             160.00    -8400.00
03453             160.00    -8400.00
03454             160.00    -8200.00
03455             160.00    -8200.00
03456             160.00    -8000.00
03457             160.00    -7800.00
03458             160.00    -7600.00
03459             160.00    -7600.00
03460             160.00    -7400.00
03461             160.00    -7200.00
03462             160.00    -7000.00
03463             160.00    -7000.00
03464             160.00    -6800.00
03465             160.00    -6800.00
03466             160.00    -6600.00
03467             120.00    -6600.00
03468             160.00    -6400.00
03469             160.00    -6200.00
03470             160.00    -6000.00
03471             120.00    -6000.00
03472             120.00    -5600.00
03473             160.00    -5400.00
03474             120.00    -5400.00
03475             120.00    -5200.00
03476             120.00    -5000.00
03477             120.00    -5000.00
03478              80.00    -4600.00
03479             120.00    -4600.00
03480             120.00    -4400.00
03481             120.00    -4200.00
03482             120.00    -4000.00
03483              40.00    -3800.00
03484              80.00    -3600.00
03485              40.00    -3600.00
03486              40.00    -3400.00
03487              40.00    -3200.00
03488             120.00    -3000.00
03489              40.00    -2800.00
03490             120.00    -2600.00
03491              40.00    -2600.00
03492              40.00    -2200.00
03493              40.00    -2200.00
03494              40.00    -1800.00
03495              80.00    -1800.00
03496              40.00    -1400.00
03497              40.00    -1400.00
03498              40.00    -1000.00
03499              40.00     -800.00
03500              40.00     -600.00
03501              80.00     -600.00
03502              40.00     -400.00
03503              40.00     -200.00
03504              40.00        0.00
03505              40.00      200.00
03506             120.00      400.00
03507             160.00      600.00
03508             160.00      600.00
03509             120.00     1000.00
03510             120.00     1000.00
03511              80.00     1200.00
03512             120.00     1400.00
03513             440.00     1800.00
03514             960.00     2000.00
03515             640.00     2200.00
03516            -360.00     2200.00
03517           -1000.00     2200.00
03518           -1000.00     2600.00
03519             200.00     3400.00
03520             760.00     2800.00
03521            -320.00     3000.00
03522              40.00     3400.00
03523             280.00     3000.00
03524            -320.00     4200.00
03525             120.00     3800.00
03526             -40.00     3600.00
03527             120.00     4600.00
03528             320.00     4000.00
03529            -320.00     4600.00
03530               0.00     5000.00
03531               0.00     4600.00
03532            -120.00     5200.00
03533              80.00     5000.00
03534               0.00     5400.00
03535               0.00     5800.00
03536            -200.00     5400.00
03537               0.00     6200.00
03538              40.00     5800.00
03539            -160.00     6200.00
03540               0.00     6400.00
03541             -40.00     6200.00
03542             -40.00     6800.00
03543            -120.00     6600.00
03544             -40.00     7200.00
03545               0.00     7000.00
03546             -40.00     7000.00
03547             -80.00     7400.00
03548            -120.00     7600.00
03549             -80.00     7800.00
03550             -80.00     7600.00
03551             -40.00     7800.00
03552             -80.00     7800.00
03553            -120.00     8200.00
03554            -120.00     8200.00
03555            -120.00     8400.00
03556            -120.00     8400.00
03557             -40.00     8600.00
03558             -40.00     9000.00
03559            -160.00     8600.00
03560            -160.00     8800.00
03561             -80.00     9000.00
03562            -120.00     9000.00
03563            -120.00     9200.00
03564            -160.00     9200.00
03565            -160.00     9400.00
03566            -160.00     9400.00
03567            -120.00     9400.00
03568            -120.00     9600.00
03569            -120.00     9400.00
03570            -120.00     9800.00
03571            -120.00     9800.00
03572            -120.00     9800.00
03573            -160.00     9800.00
03574            -160.00     9800.00
03575            -160.00    10000.00
03576            -160.00    10000.00
03577            -120.00    10000.00
03578            -160.00    10200.00
03579            -160.00    10000.00
03580            -160.00    10200.00
03581            -120.00    10200.00
03582            -160.00    10200.00
03583            -200.00    10200.00
03584            -160.00    10200.00
03585            -160.00    10200.00
03586            -120.00    10200.00
03587            -160.00    10000.00
03588            -160.00    10200.00
03589            -160.00    10200.00
03590            -160.00    10200.00
03591            -160.00    10200.00
03592            -160.00    10200.00
03593            -160.00    10200.00
03594            -160.00    10200.00
03595            -160.00    10000.00
03596            -160.00    10000.00
03597            -200.00    10200.00
03598            -160.00    10000.00
03599            -160.00    10000.00
03600            -200.00     9800.00
03601            -160.00    10000.00
03602            -160.00     9800.00
03603            -200.00     9800.00
03604            -160.00     9800.00
03605            -200.00     9600.00
03606            -200.00     9800.00
03607            -200.00     9400.00
03608            -160.00     9400.00
03609            -160.00     9400.00
03610            -160.00     9200.00
03611            -200.00     9200.00
03612            -200.00     9200.00
03613            -160.00     9200.00
03614            -160.00     9000.00
03615            -200.00     9000.00
03616            -200.00     8600.00
03617            -200.00     8600.00
03618            -160.00     8600.00
03619            -200.00     8400.00
03620            -160.00     8400.00
03621            -160.00     8200.00
03622            -200.00     8200.00
03623            -160.00     8000.00
03624            -160.00     7800.00
03625            -160.00     7800.00
03626            -160.00     7600.00
03627            -160.00     7400.00
03628            -160.00     7400.00
03629            -160.00     7200.00
03630            -160.00     7000.00
03631            -160.00     7000.00
03632            -160.00     7000.00
03633            -160.00     6600.00
03634            -120.00     6600.00
03635            -160.00     6400.00
03636            -160.00     6000.00
03637            -160.00     6000.00
03638            -160.00     6000.00
03639            -160.00     5600.00
03640            -160.00     5800.00
03641            -120.00     5400.00
03642            -120.00     5200.00
03643            -120.00     5200.00
03644            -120.00     5000.00
03645            -160.00     4800.00
03646            -120.00     4600.00
03647            -120.00     4400.00
03648            -120.00     4200.00
03649            -120.00     4200.00
03650            -120.00     3800.00
03651            -120.00     3600.00
03652            -120.00     3600.00
03653            -120.00     3400.00
03654             -80.00     3200.00
03655            -120.00     2800.00
03656            -120.00     2800.00
03657            -120.00     2800.00
03658             -40.00     2600.00
03659             -80.00     2200.00
03660             -80.00     2000.00
03661             -40.00     1800.00
03662             -40.00     1800.00
03663            -120.00     1400.00
03664             -40.00     1400.00
03665            -120.00     1200.00
03666             -40.00     1000.00
03667             -40.00      800.00
03668             -80.00      600.00
03669             -40.00      400.00
03670             -40.00      400.00
03671             -40.00      200.00
03672             -40.00     -400.00
03673               0.00     -200.00
03674              40.00     -600.00
03675              40.00     -600.00
03676              40.00     -800.00
03677               0.00    -1000.00
03678               0.00    -1200.00
03679              40.00    -1200.00
03680             120.00    -1400.00
03681             440.00    -1800.00
03682             800.00    -2000.00
03683             320.00    -2400.00
03684            -480.00    -2600.00
03685            -760.00    -2600.00
03686            -800.00    -2600.00
03687            -200.00    -2600.00
03688             520.00    -3400.00
03689            -160.00    -3200.00
03690             -40.00    -3400.00
03691             320.00    -4200.00
03692            -160.00    -3400.00
03693             160.00    -4000.00
03694             120.00    -4200.00
03695               0.00    -4200.00
03696             280.00    -4600.00
03697               0.00    -4600.00
03698            -200.00    -5000.00
03699               0.00    -5000.00
03700              80.00    -5000.00
03701              40.00    -5400.00
03702               0.00    -5200.00
03703             120.00    -5800.00
03704               0.00    -5800.00
03705              40.00    -6000.00
03706             160.00    -6200.00
03707               0.00    -6000.00
03708              40.00    -6600.00
03709             120.00    -6600.00
03710             120.00    -6600.00
03711              40.00    -7000.00
03712               0.00    -7000.00
03713             120.00    -7200.00
03714             120.00    -7200.00
03715              40.00    -7400.00
03716             120.00    -7400.00
03717             120.00    -7600.00
03718             120.00    -7800.00
03719             120.00    -8000.00
03720             120.00    -8200.00
03721             120.00    -8200.00
03722              80.00    -8200.00
03723             120.00    -8400.00
03724             120.00    -8600.00
03725             120.00    -8600.00
03726             120.00    -8600.00
03727             160.00    -9000.00
03728             120.00    -9000.00
03729             120.00    -9000.00
03730             120.00    -9000.00
03731             120.00    -9200.00
03732             120.00    -9200.00
03733             120.00    -9400.00
03734             120.00    -9400.00
03735             160.00    -9400.00
03736             120.00    -9600.00
03737             120.00    -9600.00
03738             120.00    -9800.00
03739             120.00    -9800.00
03740             120.00    -9800.00
03741             120.00    -9800.00
03742             120.00    -9800.00
03743             160.00   -10000.00
03744             160.00   -10000.00
03745             160.00   -10000.00
03746             120.00   -10000.00
03747             120.00   -10000.00
03748             120.00   -10000.00
03749             160.00   -10000.00
03750             160.00   -10200.00
03751             160.00   -10000.00
03752             120.00   -10200.00
03753             120.00   -10200.00
03754             120.00   -10200.00
03755             160.00   -10200.00
03756             160.00   -10200.00
03757             160.00   -10200.00
03758             160.00   -10200.00
03759             120.00   -10000.00
03760             120.00   -10000.00
03761             160.00   -10200.00
03762             160.00   -10000.00
03763             160.00   -10000.00
03764             160.00   -10000.00
03765             160.00   -10000.00
03766             160.00   -10000.00
03767             160.00   -10000.00
03768             160.00    -9800.00
03769             160.00    -9800.00
03770             160.00    -9800.00
03771             160.00    -9800.00
03772             160.00    -9600.00
03773             160.00    -9800.00
03774             160.00    -9400.00
03775             160.00    -9400.00
03776             160.00    -9400.00
03777             160.00    -9400.00
03778             160.00    -9400.00
03779             160.00    -9200.00
03780             120.00    -9200.00
03781             160.00    -9000.00
03782             160.00    -9000.00
03783             160.00    -8800.00
03784             160.00    -8600.00
03785             160.00    -8600.00
03786             120.00    -8600.00
03787             120.00    -8400.00
03788             160.00    -8200.00
03789             160.00    -8200.00
03790             160.00    -8200.00
03791             160.00    -7800.00
03792             160.00    -7800.00
03793             160.00    -7400.00
03794             160.00    -7600.00
03795             120.00    -7400.00
03796             160.00    -7200.00
03797             160.00    -7000.00
03798             160.00    -7000.00
03799             160.00    -6800.00
03800             160.00    -6600.00
03801             120.00    -6600.00
03802             120.00    -6400.00
03803             120.00    -6400.00
03804             120.00    -6000.00
03805             160.00    -6000.00
03806             120.00    -5800.00
03807             120.00    -5600.00
03808             120.00    -5400.00
03809             120.00    -5400.00
03810             120.00    -5000.00
03811             120.00    -5000.00
03812             120.00    -5000.00
03813             120.00    -4600.00
03814             120.00    -4400.00
03815             120.00    -4400.00
03816             120.00    -4200.00
03817             120.00    -3800.00
03818             120.00    -3800.00
03819             120.00    -3600.00
03820              80.00    -3400.00
03821             120.00    -3200.00
03822             120.00    -3000.00
03823             120.00    -3000.00
03824              40.00    -2600.00
03825             120.00    -2600.00
03826              40.00    -2400.00
03827              40.00    -2200.00
03828              40.00    -2000.00
03829              40.00    -1800.00
03830              40.00    -1400.00
03831              80.00    -1400.00
03832              40.00    -1000.00
03833              40.00    -1000.00
03834              40.00     -800.00
03835              40.00     -600.00
03836              40.00     -400.00
03837              40.00     -200.00
03838              40.00        0.00
03839              40.00      400.00
03840              80.00      200.00
03841             160.00      600.00
03842             160.00      600.00
03843             160.00      800.00
03844             120.00     1000.00
03845             120.00     1200.00
03846             120.00     1400.00
03847             200.00     1400.00
03848             760.00     1800.00
03849             960.00     2000.00
03850             160.00     2200.00
03851            -760.00     2200.00
03852           -1120.00     2200.00
03853            -600.00     2800.00
03854             760.00     3000.00
03855             200.00     2800.00
03856            -360.00     3400.00
03857             360.00     3200.00
03858             -80.00     3600.00
03859            -160.00     4400.00
03860             160.00     3400.00
03861             -80.00     4400.00
03862             360.00     4600.00
03863             -40.00     4000.00
03864            -280.00     5200.00
03865             120.00     4600.00
03866            -160.00     5000.00
03867               0.00     5200.00
03868               0.00     5000.00
03869               0.00     6000.00
03870             -80.00     5400.00
03871            -160.00     5800.00
03872             120.00     6200.00
03873            -120.00     5800.00
03874             -80.00     6600.00
03875               0.00     6200.00
03876             -40.00     6600.00
03877             -40.00     6800.00
03878            -160.00     6800.00
03879             -40.00     7400.00
03880             -40.00     7000.00
03881               0.00     7400.00
03882            -120.00     7400.00
03883             -80.00     7600.00
03884            -120.00     7600.00
03885             -40.00     7600.00
03886             -40.00     7800.00
03887            -120.00     8000.00
03888             -80.00     8200.00
03889            -160.00     8400.00
03890             -80.00     8200.00
03891             -80.00     8400.00
03892            -120.00     8600.00
03893            -120.00     8600.00
03894            -160.00     9000.00
03895            -120.00     9000.00
03896             -80.00     9000.00
03897            -120.00     9200.00
03898            -120.00     9200.00
03899            -120.00     9400.00
03900            -160.00     9400.00
03901            -120.00     9200.00
03902            -120.00     9600.00
03903            -120.00     9600.00
03904            -160.00     9600.00
03905            -120.00     9800.00
03906            -120.00     9800.00
03907            -160.00     9800.00
03908            -120.00    10000.00
03909            -120.00    10000.00
03910            -120.00    10000.00
03911            -120.00    10000.00
03912            -160.00    10200.00
03913            -160.00    10200.00
03914            -160.00    10000.00
03915            -120.00    10200.00
03916            -120.00    10200.00
03917            -160.00    10200.00
03918            -160.00    10200.00
03919            -160.00    10200.00
03920            -120.00    10200.00
03921            -160.00    10200.00
03922            -160.00    10200.00
03923            -160.00    10200.00
03924            -160.00    10200.00
03925            -160.00    10200.00
03926            -160.00    10200.00
03927            -160.00    10000.00
03928            -160.00    10200.00
03929            -160.00    10000.00
03930            -160.00    10200.00
03931            -160.00    10000.00
03932            -160.00    10000.00
03933            -160.00     9800.00
03934            -200.00    10000.00
03935            -160.00     9800.00
03936            -200.00     9800.00
03937            -160.00     9800.00
03938            -160.00     9800.00
03939            -160.00     9800.00
03940            -160.00     9600.00
03941            -200.00     9400.00
03942            -160.00     9400.00
03943            -160.00     9400.00
03944            -160.00     9400.00
03945            -160.00     9200.00
03946            -160.00     9200.00
03947            -160.00     9000.00
03948            -200.00     9000.00
03949            -160.00     9000.00
03950            -200.00     8800.00
03951            -200.00     8600.00
03952            -160.00     8600.00
03953            -160.00     8400.00
03954            -160.00     8400.00
03955            -160.00     8200.00
03956            -160.00     8200.00
03957            -160.00     8200.00
03958            -160.00     7800.00
03959            -160.00     7800.00
03960            -160.00     7800.00
03961            -160.00     7400.00
03962            -120.00     7600.00
03963            -160.00     7400.00
03964            -160.00     7000.00
03965            -160.00     7000.00
03966            -200.00     7000.00
03967            -160.00     6800.00
03968            -120.00     6600.00
03969            -160.00     6600.00
03970            -160.00     6200.00
03971            -160.00     6200.00
03972            -160.00     6200.00
03973            -120.00     5800.00
03974            -120.00     5800.00
03975            -120.00     5600.00
03976            -120.00     5400.00
03977            -120.00     5200.00
03978            -120.00     5200.00
03979            -120.00     4800.00
03980            -120.00     4600.00
03981            -120.00     4600.00
03982            -120.00     4600.00
03983            -120.00     4200.00
03984            -120.00     4000.00
03985            -120.00     3800.00
03986            -120.00     3600.00
03987            -120.00     3600.00
03988            -120.00     3400.00
03989             -80.00     3200.00
03990            -120.00     3000.00
03991            -120.00     2800.00
03992            -120.00     2400.00
03993            -120.00     2600.00
03994             -80.00     2200.00
03995            -120.00     2000.00
03996             -80.00     1800.00
03997             -40.00     1400.00
03998             -80.00     1200.00
03999             -40.00     1200.00
04000            -120.00     1000.00
04001             -40.00     1000.00
04002             -40.00      800.00
04003             -40.00      400.00
04004             -40.00      200.00
04005             -40.00      200.00
04006             -40.00        0.00
04007             -40.00     -200.00
04008               0.00     -400.00
04009              40.00     -600.00
04010              40.00     -600.00
04011               0.00    -1000.00
04012               0.00    -1200.00
04013               0.00    -1200.00
04014              40.00    -1400.00
04015             200.00    -1600.00
04016             640.00    -2000.00
04017             720.00    -2200.00
04018             -40.00    -2600.00
04019            -680.00    -2600.00
04020            -800.00    -2800.00
04021            -640.00    -2600.00
04022             320.00    -3000.00
04023             320.00    -3400.00
04024            -280.00    -3000.00
04025             280.00    -3800.00
04026             120.00    -3600.00
04027             -80.00    -3400.00
04028             200.00    -4400.00
04029             -40.00    -4200.00
04030             160.00    -4600.00
04031             280.00    -4600.00
04032            -160.00    -4600.00
04033            -120.00    -5200.00
04034              40.00    -5000.00
04035             120.00    -5400.00
04036              40.00    -5400.00
04037              40.00    -5600.00
04038               0.00    -6000.00
04039               0.00    -5800.00
04040             160.00    -6200.00
04041             120.00    -6000.00
04042               0.00    -6400.00
04043              80.00    -6800.00
04044              80.00    -6200.00
04045              40.00    -6800.00
04046               0.00    -6800.00
04047             120.00    -7000.00
04048             120.00    -7200.00
04049             120.00    -7400.00
04050              40.00    -7600.00
04051              80.00    -7400.00
04052             120.00    -7600.00
04053             120.00    -8000.00
04054             120.00    -8000.00
04055             120.00    -8200.00
04056              40.00    -8200.00
04057              40.00    -8400.00
04058             160.00    -8400.00
04059             120.00    -8600.00
04060             120.00    -8600.00
04061             120.00    -8600.00
04062              80.00    -8800.00
04063             120.00    -9000.00
04064             120.00    -9200.00
04065             120.00    -9200.00
04066             160.00    -9200.00
04067              80.00    -9400.00
04068              40.00    -9400.00
04069             120.00    -9400.00
04070             160.00    -9400.00
04071             160.00    -9600.00
04072             120.00    -9800.00
04073             120.00    -9800.00
04074             120.00    -9800.00
04075             120.00    -9800.00
04076             160.00    -9800.00
04077             120.00    -9800.00
04078             120.00   -10000.00
04079             120.00   -10000.00
04080             120.00   -10200.00
04081             160.00   -10000.00
04082             160.00   -10200.00
04083             120.00   -10000.00
04084             160.00   -10200.00
04085             120.00   -10200.00
04086             120.00   -10200.00
04087             120.00   -10200.00
04088             120.00   -10200.00
04089             120.00   -10200.00
04090             160.00   -10000.00
04091             160.00   -10200.00
04092             160.00   -10200.00
04093             160.00   -10200.00
04094             160.00   -10000.00
04095             160.00   -10000.00
04096             160.00   -10000.00
04097             200.00   -10000.00
04098             200.00   -10000.00
04099             160.00   -10000.00
04100             160.00   -10000.00
04101             160.00   -10000.00
04102             160.00    -9800.00
04103             200.00    -9800.00
04104             200.00    -9800.00
04105             160.00    -9800.00
04106             200.00    -9800.00
04107             160.00    -9600.00
04108             120.00    -9400.00
04109             160.00    -9400.00
04110             200.00    -9400.00
04111             200.00    -9200.00
04112             160.00    -9400.00
04113             160.00    -9200.00
04114             160.00    -9000.00
04115             160.00    -9000.00
04116             120.00    -9000.00
04117             160.00    -8800.00
04118             200.00    -8600.00
04119             160.00    -8600.00
04120             160.00    -8400.00
04121             160.00    -8400.00
04122             160.00    -8200.00
04123             160.00    -8200.00
04124             160.00    -8200.00
04125             160.00    -8000.00
04126             160.00    -7800.00
04127             160.00    -7800.00
04128             120.00    -7600.00
04129             120.00    -7600.00
04130             120.00    -7200.00
04131             160.00    -7000.00
04132             120.00    -7000.00
04133             120.00    -7000.00
04134             120.00    -6800.00
04135             160.00    -6600.00
04136             160.00    -6600.00
04137             120.00    -6200.00
04138             120.00    -6200.00
04139             120.00    -6000.00
04140             120.00    -5800.00
04141             160.00    -5800.00
04142             120.00    -5400.00
04143             120.00    -5400.00
04144             120.00    -5200.00
04145             120.00    -5200.00
04146             120.00    -5000.00
04147             120.00    -4600.00
04148             120.00    -4600.00
04149             120.00    -4400.00
04150              80.00    -4400.00
04151             120.00    -4200.00
04152             120.00    -3800.00
04153             120.00    -3800.00
04154             120.00    -3400.00
04155             120.00    -3400.00
04156             120.00    -3000.00
04157              40.00    -3000.00
04158             120.00    -2600.00
04159             120.00    -2600.00
04160              40.00    -2400.00
04161              40.00    -2200.00
04162              40.00    -2200.00
04163             120.00    -2000.00
04164             120.00    -1600.00
04165              80.00    -1400.00
04166              40.00    -1200.00
04167             120.00    -1000.00
04168              40.00     -800.00
04169              40.00     -800.00
04170              40.00     -600.00
04171              40.00     -400.00
04172              40.00     -200.00
04173              40.00        0.00
04174              40.00      200.00
04175              40.00      400.00
04176             160.00      600.00
04177             160.00      800.00
04178             160.00     1000.00
04179             120.00     1000.00
04180             120.00     1200.00
04181             160.00     1400.00
04182             360.00     1800.00
04183             960.00     2000.00
04184             640.00     2200.00
04185            -360.00     2200.00
04186           -1000.00     2200.00
04187           -1040.00     2600.00
04188             160.00     3200.00
04189             800.00     2800.00
04190            -320.00     3000.00
04191               0.00     3400.00
04192             320.00     3200.00
04193            -280.00     4200.00
04194              40.00     3800.00
04195             -40.00     3600.00
04196             120.00     4600.00
04197             320.00     4000.00
04198            -320.00     4600.00
04199             -40.00     5000.00
04200               0.00     4600.00
04201            -160.00     5400.00
04202              40.00     5000.00
04203             -40.00     5600.00
04204               0.00     5800.00
04205            -200.00     5400.00
04206               0.00     6200.00
04207              40.00     6000.00
04208            -160.00     6200.00
04209               0.00     6400.00
04210             -40.00     6200.00
04211             -40.00     7000.00
04212            -120.00     6400.00
04213             -80.00     7000.00
04214             -40.00     7000.00
04215             -40.00     7000.00
04216             -40.00     7400.00
04217            -120.00     7400.00
04218             -40.00     7600.00
04219            -120.00     7600.00
04220             -40.00     7800.00
04221             -40.00     7800.00
04222            -120.00     8200.00
04223            -120.00     8400.00
04224            -120.00     8400.00
04225             -40.00     8200.00
04226             -40.00     8600.00
04227             -80.00     8600.00
04228            -160.00     8600.00
04229            -160.00     8800.00
04230            -120.00     9000.00
04231             -80.00     9000.00
04232             -40.00     9200.00
04233            -160.00     9200.00
04234            -160.00     9400.00
04235            -120.00     9400.00
04236            -120.00     9400.00
04237             -80.00     9600.00
04238            -120.00     9400.00
04239            -160.00     9600.00
04240            -160.00     9800.00
04241            -160.00     9800.00
04242            -160.00     9800.00
04243            -120.00    10000.00
04244            -160.00    10000.00
04245            -120.00    10000.00
04246            -120.00    10000.00
04247            -160.00    10000.00
04248            -160.00    10000.00
04249            -160.00    10000.00
04250            -120.00    10200.00
04251            -160.00    10200.00
04252            -160.00    10200.00
04253            -160.00    10000.00
04254            -160.00    10200.00
04255            -160.00    10000.00
04256            -160.00    10200.00
04257            -160.00    10200.00
04258            -160.00    10200.00
04259            -160.00    10200.00
04260            -160.00    10200.00
04261            -200.00    10200.00
04262            -200.00    10000.00
04263            -160.00    10000.00
04264            -160.00    10200.00
04265            -200.00    10000.00
04266            -200.00    10000.00
04267            -200.00    10000.00
04268            -200.00    10000.00
04269            -200.00    10000.00
04270            -160.00     9800.00
04271            -200.00     9800.00
04272            -160.00     9800.00
04273            -160.00     9800.00
04274            -160.00     9800.00
04275            -200.00     9400.00
04276            -200.00     9400.00
04277            -160.00     9400.00
04278            -160.00     9400.00
04279            -200.00     9200.00
04280            -160.00     9200.00
04281            -160.00     9000.00
04282            -200.00     9200.00
04283            -160.00     8800.00
04284            -160.00     9000.00
04285            -200.00     8600.00
04286            -160.00     8600.00
04287            -160.00     8600.00
04288            -160.00     8400.00
04289            -160.00     8400.00
04290            -160.00     8200.00
04291            -120.00     8200.00
04292            -200.00     7800.00
04293            -160.00     8000.00
04294            -160.00     7800.00
04295            -160.00     7600.00
04296            -160.00     7400.00
04297            -160.00     7400.00
04298            -160.00     7400.00
04299            -120.00     7000.00
04300            -160.00     6800.00
04301            -160.00     6800.00
04302            -160.00     6800.00
04303            -120.00     6600.00
04304            -160.00     6200.00
04305            -120.00     6200.00
04306            -160.00     6000.00
04307            -160.00     6000.00
04308            -160.00     5800.00
04309            -120.00     5800.00
04310            -160.00     5400.00
04311            -160.00     5200.00
04312            -120.00     5200.00
04313            -120.00     4800.00
04314            -120.00     4800.00
04315            -120.00     4600.00
04316            -120.00     4600.00
04317            -120.00     4200.00
04318            -120.00     4000.00
04319            -120.00     4000.00
04320             -80.00     3600.00
04321            -120.00     3600.00
04322            -120.00     3400.00
04323            -120.00     3400.00
04324            -120.00     3000.00
04325            -120.00     2800.00
04326            -120.00     2600.00
04327            -120.00     2400.00
04328            -120.00     2200.00
04329            -120.00     2000.00
04330             -80.00     2000.00
04331             -40.00     1800.00
04332             -80.00     1400.00
04333             -80.00     1400.00
04334            -120.00     1200.00
04335             -80.00     1000.00
04336             -40.00     1000.00
04337             -40.00      600.00
04338             -40.00      400.00
04339             -40.00      200.00
04340             -40.00      200.00
04341             -40.00     -200.00
04342               0.00     -400.00
04343              40.00     -400.00
04344              40.00     -600.00
04345              40.00     -800.00
04346               0.00    -1000.00
04347              40.00    -1200.00
04348               0.00    -1200.00
04349              40.00    -1400.00
04350             400.00    -1800.00
04351             800.00    -2000.00
04352             360.00    -2400.00
04353            -480.00    -2400.00
04354            -760.00    -2600.00
04355            -840.00    -2600.00
04356            -200.00    -2600.00
04357             520.00    -3400.00
04358            -120.00    -3200.00
04359             -40.00    -3400.00
04360             320.00    -3800.00
04361            -120.00    -3400.00
04362             120.00    -3800.00
04363             120.00    -4200.00
04364               0.00    -4200.00
04365             320.00    -4600.00
04366              40.00    -4400.00
04367            -160.00    -5000.00
04368             -40.00    -5000.00
04369             120.00    -5000.00
04370              80.00    -5400.00
04371             -40.00    -5400.00
04372             120.00    -5800.00
04373               0.00    -5800.00
04374              40.00    -6000.00
04375             200.00    -6200.00
04376               0.00    -6000.00
04377              40.00    -6600.00
04378             120.00    -6600.00
04379              80.00    -6600.00
04380              40.00    -7000.00
04381               0.00    -7000.00
04382             120.00    -7200.00
04383             120.00    -7200.00
04384             120.00    -7600.00
04385               0.00    -7400.00
04386             120.00    -7600.00
04387             120.00    -7800.00
04388             120.00    -8000.00
04389              80.00    -8200.00
04390              40.00    -8400.00
04391               0.00    -8200.00
04392             120.00    -8400.00
04393              80.00    -8400.00
04394             120.00    -8600.00
04395             120.00    -8800.00
04396             120.00    -9000.00
04397              40.00    -9000.00
04398             120.00    -9000.00
04399             160.00    -9000.00
04400             120.00    -9200.00
04401             120.00    -9400.00
04402              80.00    -9400.00
04403             120.00    -9200.00
04404             120.00    -9400.00
04405             160.00    -9400.00
04406             120.00    -9600.00
04407             120.00    -9800.00
04408             120.00    -9800.00
04409             120.00    -9800.00
04410             120.00    -9800.00
04411             120.00    -9800.00
04412             160.00   -10000.00
04413             160.00   -10000.00
04414             120.00   -10000.00
04415             160.00   -10000.00
04416             120.00   -10000.00
04417             120.00   -10200.00
04418             160.00   -10000.00
04419             160.00   -10200.00
04420             160.00   -10000.00
04421             160.00   -10200.00
04422             120.00   -10200.00
04423             160.00   -10200.00
04424             160.00   -10200.00
04425             160.00   -10200.00
04426             160.00   -10200.00
04427             160.00   -10000.00
04428             160.00   -10200.00
04429             160.00   -10000.00
04430             160.00   -10200.00
04431             160.00   -10200.00
04432             160.00   -10000.00
04433             160.00   -10000.00
04434             160.00   -10000.00
04435             160.00    -9800.00
04436             120.00   -10000.00
04437             160.00    -9800.00
04438             200.00    -9800.00
04439             160.00    -9800.00
04440             200.00    -9800.00
04441             200.00    -9600.00
04442             160.00    -9600.00
04443             160.00    -9400.00
04444             160.00    -9400.00
04445             160.00    -9400.00
04446             200.00    -9200.00
04447             160.00    -9200.00
04448             160.00    -9200.00
04449             160.00    -9000.00
04450             160.00    -9000.00
04451             160.00    -9000.00
04452             200.00    -8600.00
04453             160.00    -8800.00
04454             160.00    -8600.00
04455             160.00    -8400.00
04456             160.00    -8400.00
04457             120.00    -8200.00
04458             160.00    -8200.00
04459             160.00    -7800.00
04460             120.00    -7800.00
04461             160.00    -7800.00
04462             120.00    -7600.00
04463             120.00    -7400.00
04464             160.00    -7200.00
04465             160.00    -7400.00
04466             120.00    -7000.00
04467             120.00    -7000.00
04468             120.00    -6800.00
04469             120.00    -6800.00
04470             120.00    -6600.00
04471             120.00    -6400.00
04472             120.00    -6200.00
04473             120.00    -6200.00
04474             120.00    -6000.00
04475             120.00    -6000.00
04476             120.00    -5600.00
04477             120.00    -5400.00
04478             160.00    -5400.00
04479             120.00    -5200.00
04480             120.00    -5000.00
04481             120.00    -5000.00
04482             120.00    -4600.00
04483              80.00    -4600.00
04484             120.00    -4400.00
04485             160.00    -4200.00
04486             120.00    -4000.00
04487             120.00    -3800.00
04488             120.00    -3400.00
04489              40.00    -3400.00
04490             120.00    -3400.00
04491             120.00    -3000.00
04492             120.00    -3000.00
04493             120.00    -2600.00
04494              80.00    -2600.00
04495              80.00    -2200.00
04496              40.00    -2200.00
04497              40.00    -2000.00
04498             120.00    -1800.00
04499             120.00    -1400.00
04500              40.00    -1400.00
04501              80.00    -1200.00
04502              40.00    -1000.00
04503              40.00     -800.00
04504              40.00     -600.00
04505              40.00     -400.00
04506              40.00     -200.00
04507             120.00     -200.00
04508              40.00      200.00
04509              40.00      400.00
04510             120.00      400.00
04511             160.00      600.00
04512             160.00      800.00
04513             120.00     1000.00
04514             160.00     1200.00
04515             120.00     1400.00
04516             200.00     1400.00
04517             680.00     2000.00
04518             960.00     2000.00
04519             160.00     2200.00
04520            -800.00     2200.00
04521           -1120.00     2200.00
04522            -640.00     2800.00
04523             760.00     3200.00
04524             280.00     2800.00
04525            -360.00     3400.00
04526             320.00     3200.00
04527             -40.00     3600.00
04528            -200.00     4200.00
04529             120.00     3600.00
04530             -40.00     4400.00
04531             360.00     4400.00
04532             -40.00     4000.00
04533            -320.00     5000.00
04534              80.00     4800.00
04535            -160.00     4800.00
04536             -40.00     5400.00
04537              40.00     5000.00
04538               0.00     5800.00
04539             -40.00     5400.00
04540            -160.00     5800.00
04541             160.00     6200.00
04542            -120.00     6000.00
04543            -120.00     6600.00
04544               0.00     6200.00
04545             -40.00     6800.00
04546             -40.00     6800.00
04547            -160.00     6800.00
04548             -40.00     7400.00
04549             -40.00     7000.00
04550             -40.00     7400.00
04551             -40.00     7400.00
04552            -120.00     7400.00
04553             -80.00     7800.00
04554             -40.00     7800.00
04555             -40.00     8000.00
04556            -160.00     8000.00
04557             -40.00     8200.00
04558            -120.00     8200.00
04559             -40.00     8400.00
04560             -40.00     8600.00
04561             -40.00     8600.00
04562             -80.00     8600.00
04563            -160.00     8800.00
04564            -120.00     9000.00
04565             -40.00     9000.00
04566            -120.00     9200.00
04567            -120.00     9200.00
04568            -120.00     9400.00
04569            -160.00     9400.00
04570            -120.00     9400.00
04571            -120.00     9400.00
04572            -120.00     9600.00
04573            -120.00     9600.00
04574            -120.00     9800.00
04575            -120.00     9800.00
04576            -120.00     9800.00
04577            -120.00    10000.00
04578            -120.00    10000.00
04579            -160.00    10000.00
04580            -160.00    10000.00
04581            -120.00    10000.00
04582            -160.00    10200.00
04583            -160.00    10200.00
04584            -120.00    10200.00
04585            -120.00    10000.00
04586            -160.00    10200.00
04587            -160.00    10200.00
04588            -160.00    10200.00
04589            -200.00    10400.00
04590            -160.00    10200.00
04591            -160.00    10200.00
04592            -160.00    10200.00
04593            -160.00    10000.00
04594            -160.00    10200.00
04595            -160.00    10200.00
04596            -200.00    10200.00
04597            -200.00    10200.00
04598            -160.00    10200.00
04599            -160.00    10000.00
04600            -200.00    10000.00
04601            -160.00    10000.00
04602            -160.00    10000.00
04603            -200.00    10000.00
04604            -160.00    10000.00
04605            -160.00     9800.00
04606            -160.00     9800.00
04607            -160.00     9800.00
04608            -200.00     9800.00
04609            -200.00     9600.00
04610            -200.00     9400.00
04611            -160.00     9400.00
04612            -160.00     9400.00
04613            -160.00     9200.00
04614            -160.00     9400.00
04615            -160.00     9200.00
04616            -160.00     9200.00
04617            -160.00     9200.00
04618            -160.00     8800.00
04619            -160.00     9000.00
04620            -160.00     8600.00
04621            -160.00     8600.00
04622            -160.00     8600.00
04623            -160.00     8200.00
04624            -160.00     8400.00
04625            -160.00     8200.00
04626            -120.00     8000.00
04627            -120.00     8000.00
04628            -160.00     7800.00
04629            -160.00     7600.00
04630            -120.00     7600.00
04631            -160.00     7400.00
04632            -120.00     7200.00
04633            -200.00     7000.00
04634            -200.00     7200.00
04635            -200.00     6800.00
04636            -200.00     6800.00
04637             -80.00     6600.00
04638             -80.00     6600.00
04639             -40.00     6400.00
04640             -40.00     6200.00
04641            -120.00     6000.00
04642            -160.00     5800.00
04643            -200.00     5800.00
04644            -200.00     5400.00
04645            -160.00     5400.00
04646            -120.00     5200.00
04647            -160.00     5000.00
04648            -120.00     4800.00
04649             -40.00     4600.00
04650            -120.00     4600.00
04651            -120.00     4400.00
04652            -120.00     4200.00
04653            -160.00     4000.00
04654            -200.00     3800.00
04655            -200.00     3800.00
04656            -160.00     3400.00
04657             -80.00     3400.00
04658             -40.00     3200.00
04659            -120.00     2800.00
04660             -40.00     2800.00
04661             -80.00     2600.00
04662            -120.00     2200.00
04663            -120.00     2200.00
04664            -160.00     2000.00
04665            -160.00     1800.00
04666            -120.00     1800.00
04667            -120.00     1400.00
04668             -40.00     1200.00
04669             -40.00     1200.00
04670             -40.00      800.00
04671             -40.00      600.00
04672             -40.00      400.00
04673            -120.00      400.00
04674             -40.00      200.00
04675             -80.00        0.00
04676             -40.00     -400.00
04677              40.00     -200.00
04678             120.00     -600.00
04679             120.00     -800.00
04680              40.00     -800.00
04681               0.00    -1000.00
04682               0.00    -1200.00
04683               0.00    -1400.00
04684             160.00    -1600.00
04685             680.00    -1800.00
04686             680.00    -2200.00
04687             -40.00    -2400.00
04688            -640.00    -2600.00
04689            -760.00    -2600.00
04690            -640.00    -2600.00
04691             320.00    -2800.00
04692             320.00    -3400.00
04693            -320.00    -3000.00
04694             240.00    -3800.00
04695             160.00    -3600.00
04696             -80.00    -3400.00
04697             280.00    -4200.00
04698             -40.00    -4000.00
04699             160.00    -4600.00
04700             280.00    -4600.00
04701            -120.00    -4600.00
04702            -120.00    -5200.00
04703              40.00    -4800.00
04704             120.00    -5400.00
04705               0.00    -5400.00
04706              40.00    -5400.00
04707              80.00    -6000.00
04708             -40.00    -5600.00
04709             160.00    -6000.00
04710             120.00    -6200.00
04711               0.00    -6200.00
04712             120.00    -6600.00
04713             120.00    -6600.00
04714              40.00    -6800.00
04715               0.00    -7000.00
04716             120.00    -7000.00
04717             120.00    -7000.00
04718             120.00    -7400.00
04719              40.00    -7600.00
04720              40.00    -7600.00
04721              80.00    -7800.00
04722              80.00    -8000.00
04723             120.00    -8000.00
04724              80.00    -8200.00
04725              40.00    -8200.00
04726             120.00    -8400.00
04727             160.00    -8400.00
04728             120.00    -8600.00
04729              80.00    -8600.00
04730             120.00    -8600.00
04731              80.00    -8800.00
04732             120.00    -9000.00
04733             120.00    -9200.00
04734             120.00    -9200.00
04735             120.00    -9200.00
04736             120.00    -9200.00
04737             120.00    -9400.00
04738             120.00    -9400.00
04739             160.00    -9400.00
04740             160.00    -9400.00
04741             120.00    -9800.00
04742             120.00    -9800.00
04743             120.00    -9800.00
04744             120.00    -9800.00
04745             120.00   -10000.00
04746             160.00    -9800.00
04747             120.00    -9800.00
04748             120.00   -10000.00
04749             160.00   -10000.00
04750             160.00   -10000.00
04751             160.00   -10000.00
04752             160.00   -10000.00
04753             160.00   -10200.00
04754             120.00   -10200.00
04755             160.00   -10000.00
04756             160.00   -10000.00
04757             160.00   -10200.00
04758             120.00   -10000.00
04759             160.00   -10000.00
04760             160.00   -10200.00
04761             160.00   -10000.00
04762             160.00   -10200.00
04763             160.00   -10000.00
04764             160.00   -10000.00
04765             160.00   -10000.00
04766             160.00   -10000.00
04767             160.00   -10000.00
04768             160.00   -10000.00
04769             160.00   -10000.00
04770             160.00   -10000.00
04771             160.00    -9800.00
04772             160.00   -10000.00
04773             200.00    -9800.00
04774             200.00    -9800.00
04775             160.00    -9800.00
04776             160.00    -9800.00
04777             160.00    -9600.00
04778             160.00    -9400.00
04779             160.00    -9400.00
04780             160.00    -9400.00
04781             160.00    -9400.00
04782             160.00    -9200.00
04783             160.00    -9000.00
04784             160.00    -9200.00
04785             160.00    -9000.00
04786             160.00    -9000.00
04787             160.00    -8800.00
04788             160.00    -8600.00
04789             120.00    -8600.00
04790             160.00    -8600.00
04791             160.00    -8200.00
04792             120.00    -8200.00
04793             160.00    -8200.00
04794             160.00    -7800.00
04795             120.00    -7800.00
04796             120.00    -7600.00
04797             160.00    -7600.00
04798             120.00    -7400.00
04799             160.00    -7400.00
04800             120.00    -7200.00
04801             120.00    -7000.00
04802             120.00    -7000.00
04803             120.00    -6800.00
04804             120.00    -6600.00
04805             120.00    -6600.00
04806             120.00    -6400.00
04807             160.00    -6200.00
04808             120.00    -6000.00
04809             160.00    -6000.00
04810             120.00    -5800.00
04811             160.00    -5600.00
04812             120.00    -5200.00
04813             120.00    -5400.00
04814             120.00    -5200.00
04815             120.00    -5000.00
04816             120.00    -4600.00
04817             120.00    -4600.00
04818             120.00    -4400.00
04819             120.00    -4200.00
04820             120.00    -4200.00
04821             120.00    -3800.00
04822             120.00    -3800.00
04823             120.00    -3600.00
04824             120.00    -3400.00
04825              80.00    -3000.00
04826             120.00    -3000.00
04827             120.00    -2800.00
04828             120.00    -2600.00
04829             120.00    -2600.00
04830              40.00    -2200.00
04831              80.00    -2000.00
04832              40.00    -1800.00
04833             120.00    -1800.00
04834              80.00    -1400.00
04835              40.00    -1200.00
04836              40.00    -1000.00
04837              40.00     -800.00
04838              40.00     -600.00
04839              80.00     -600.00
04840              40.00     -400.00
04841              80.00     -200.00
04842              40.00     -200.00
04843              40.00      200.00
04844              40.00      400.00
04845             160.00      600.00
04846             160.00      600.00
04847             120.00     1000.00
04848              80.00     1000.00
04849              40.00     1200.00
04850             120.00     1400.00
04851             320.00     1800.00
04852             960.00     2000.00
04853             680.00     2000.00
04854            -320.00     2200.00
04855           -1000.00     2200.00
04856           -1080.00     2600.00
04857             120.00     3000.00
04858             800.00     3000.00
04859            -320.00     3000.00
04860               0.00     3400.00
04861             280.00     3200.00
04862            -280.00     4200.00
04863             120.00     3800.00
04864             -40.00     3600.00
04865             120.00     4800.00
04866             320.00     4000.00
04867            -320.00     4400.00
04868             -40.00     5200.00
04869               0.00     4800.00
04870            -120.00     5200.00
04871              40.00     5000.00
04872             -40.00     5600.00
04873              40.00     5800.00
04874            -160.00     5400.00
04875               0.00     6200.00
04876             120.00     6000.00
04877            -160.00     6200.00
04878               0.00     6600.00
04879             -40.00     6200.00
04880             -40.00     7000.00
04881            -120.00     6600.00
04882            -120.00     7000.00
04883             -40.00     7200.00
04884               0.00     7200.00
04885             -40.00     7400.00
04886            -120.00     7400.00
04887             -40.00     7600.00
04888            -120.00     7600.00
04889             -40.00     7800.00
04890             -40.00     7800.00
04891             -40.00     8200.00
04892             -80.00     8200.00
04893            -120.00     8400.00
04894             -40.00     8400.00
04895             -40.00     8600.00
04896             -40.00     8600.00
04897            -160.00     8600.00
04898            -120.00     8800.00
04899             -40.00     9000.00
04900            -120.00     9000.00
04901             -80.00     9200.00
04902            -160.00     9200.00
04903            -200.00     9400.00
04904            -120.00     9400.00
04905             -80.00     9400.00
04906            -120.00     9600.00
04907            -120.00     9600.00
04908            -160.00     9800.00
04909            -160.00     9800.00
04910            -120.00     9800.00
04911            -200.00    10000.00
04912            -160.00     9800.00
04913            -160.00    10000.00
04914            -160.00    10000.00
04915            -160.00    10000.00
04916            -160.00    10000.00
04917            -160.00    10000.00
04918            -160.00    10000.00
04919            -120.00    10200.00
04920            -160.00    10000.00
04921            -200.00    10200.00
04922            -200.00    10200.00
04923            -160.00    10200.00
04924            -160.00    10200.00
04925            -160.00    10200.00
04926            -160.00    10200.00
04927            -160.00    10000.00
04928            -160.00    10200.00
04929            -160.00    10000.00
04930            -200.00    10200.00
04931            -200.00    10000.00
04932            -200.00    10200.00
04933            -160.00    10200.00
04934            -160.00    10200.00
04935            -160.00     9800.00
04936            -160.00    10200.00
04937            -160.00    10000.00
04938            -160.00     9800.00
04939            -160.00    10000.00
04940            -160.00    10000.00
04941            -160.00     9800.00
04942            -160.00     9800.00
04943            -160.00     9600.00
04944            -200.00     9600.00
04945            -160.00     9600.00
04946            -160.00     9400.00
04947            -160.00     9400.00
04948            -160.00     9400.00
04949            -200.00     9400.00
04950            -200.00     9200.00
04951            -160.00     9000.00
04952            -200.00     9000.00
04953            -160.00     8800.00
04954            -160.00     8800.00
04955            -160.00     8600.00
04956            -200.00     8600.00
04957            -160.00     8400.00
04958            -200.00     8200.00
04959            -160.00     8200.00
04960            -160.00     8200.00
04961            -160.00     8000.00
04962            -160.00     7800.00
04963            -160.00     7600.00
04964            -160.00     7600.00
04965            -160.00     7400.00
04966            -160.00     7400.00
04967            -160.00     7400.00
04968            -160.00     7000.00
04969            -160.00     7000.00
04970            -160.00     6800.00
04971            -160.00     6800.00
04972            -120.00     6600.00
04973            -160.00     6200.00
04974            -120.00     6200.00
04975            -160.00     6000.00
04976            -160.00     6000.00
04977            -160.00     5800.00
04978            -160.00     5600.00
04979            -160.00     5400.00
04980            -160.00     5200.00
04981            -160.00     5200.00
04982            -120.00     5000.00
04983            -160.00     4800.00
04984            -120.00     4600.00
04985            -120.00     4600.00
04986            -120.00     4200.00
04987            -120.00     4000.00
04988            -120.00     3800.00
04989            -160.00     3800.00
04990            -160.00     3600.00
04991            -120.00     3400.00
04992            -120.00     3400.00
04993            -120.00     3000.00
04994            -120.00     3000.00
04995            -120.00     2600.00
04996            -120.00     2600.00
04997            -120.00     2200.00
04998            -120.00     2000.00
04999             -80.00     2000.00
05000            -120.00     1800.00
