Unit:(mV)
                     CH1         CH2
Frequency              ? 298.933 kHz
00001              80.00    -1400.00
00002             520.00    -1800.00
00003             960.00    -2200.00
00004             360.00    -2400.00
00005            -640.00    -2600.00
00006           -1280.00    -2600.00
00007           -1480.00    -2600.00
00008            -240.00    -2600.00
00009             640.00    -3400.00
00010               0.00    -2800.00
00011             360.00    -3400.00
00012             320.00    -3600.00
00013            -160.00    -3400.00
00014             120.00    -4200.00
00015            -120.00    -3800.00
00016            -120.00    -4200.00
00017             280.00    -4600.00
00018            -120.00    -4400.00
00019            -240.00    -4800.00
00020            -160.00    -4600.00
00021             -40.00    -5000.00
00022             -40.00    -5400.00
00023             -40.00    -5200.00
00024               0.00    -5600.00
00025            -200.00    -5400.00
00026             -40.00    -5800.00
00027              40.00    -6000.00
00028            -120.00    -5800.00
00029               0.00    -6400.00
00030             -40.00    -6200.00
00031             -40.00    -6600.00
00032            -120.00    -6600.00
00033            -120.00    -6800.00
00034               0.00    -7000.00
00035               0.00    -7000.00
00036             -40.00    -7400.00
00037            -120.00    -7200.00
00038             -40.00    -7400.00
00039             -80.00    -7800.00
00040             -40.00    -7600.00
00041             -80.00    -7800.00
00042            -120.00    -7800.00
00043            -120.00    -8200.00
00044             -40.00    -8200.00
00045             -40.00    -8200.00
00046             -80.00    -8600.00
00047               0.00    -8400.00
00048            -120.00    -8600.00
00049             -40.00    -8600.00
00050            -120.00    -8600.00
00051             -40.00    -8600.00
00052             -40.00    -9000.00
00053             -80.00    -9000.00
00054            -120.00    -9000.00
00055            -120.00    -9000.00
00056             -40.00    -9200.00
00057             -40.00    -9200.00
00058             -40.00    -9400.00
00059             -80.00    -9400.00
00060            -120.00    -9400.00
00061             -80.00    -9400.00
00062             -40.00    -9600.00
00063             -40.00    -9600.00
00064             -40.00    -9600.00
00065             -40.00    -9600.00
00066             -40.00    -9800.00
00067            -120.00    -9800.00
00068             -40.00    -9800.00
00069             -80.00    -9800.00
00070             -40.00    -9800.00
00071             -40.00    -9800.00
00072             -40.00    -9800.00
00073             -80.00    -9800.00
00074            -120.00    -9800.00
00075             -40.00    -9800.00
00076             -40.00    -9800.00
00077             -40.00    -9800.00
00078               0.00    -9800.00
00079             -40.00    -9800.00
00080             -40.00    -9800.00
00081             -40.00    -9800.00
00082             -80.00    -9800.00
00083             -40.00    -9800.00
00084             -40.00    -9800.00
00085               0.00    -9600.00
00086             -40.00    -9600.00
00087             -40.00    -9400.00
00088             -40.00    -9600.00
00089             -40.00    -9400.00
00090             -40.00    -9400.00
00091               0.00    -9400.00
00092             -40.00    -9400.00
00093             -40.00    -9200.00
00094             -40.00    -9400.00
00095             -40.00    -9200.00
00096             -40.00    -9200.00
00097               0.00    -9200.00
00098               0.00    -9000.00
00099               0.00    -8800.00
00100             -40.00    -8800.00
00101             -40.00    -8600.00
00102             -40.00    -8600.00
00103             -40.00    -8600.00
00104             -40.00    -8400.00
00105             -40.00    -8400.00
00106             -40.00    -8400.00
00107             -40.00    -8200.00
00108               0.00    -8200.00
00109             -40.00    -8000.00
00110               0.00    -7800.00
00111               0.00    -7600.00
00112               0.00    -7600.00
00113             -40.00    -7200.00
00114             -40.00    -7400.00
00115             -40.00    -7200.00
00116               0.00    -7000.00
00117               0.00    -7000.00
00118             -40.00    -6800.00
00119               0.00    -6600.00
00120               0.00    -6600.00
00121               0.00    -6600.00
00122               0.00    -6400.00
00123               0.00    -6200.00
00124               0.00    -6000.00
00125               0.00    -6000.00
00126               0.00    -5800.00
00127             -40.00    -5600.00
00128               0.00    -5400.00
00129               0.00    -5400.00
00130               0.00    -5200.00
00131              40.00    -5000.00
00132               0.00    -4800.00
00133               0.00    -4600.00
00134               0.00    -4600.00
00135               0.00    -4200.00
00136               0.00    -4200.00
00137               0.00    -4000.00
00138               0.00    -3800.00
00139               0.00    -3600.00
00140               0.00    -3400.00
00141               0.00    -3400.00
00142               0.00    -3000.00
00143               0.00    -2800.00
00144              40.00    -2800.00
00145               0.00    -2600.00
00146               0.00    -2200.00
00147               0.00    -2200.00
00148               0.00    -2000.00
00149               0.00    -1800.00
00150              40.00    -1800.00
00151              40.00    -1400.00
00152               0.00    -1200.00
00153              40.00    -1200.00
00154               0.00    -1000.00
00155               0.00     -600.00
00156              40.00     -600.00
00157              40.00     -400.00
00158              40.00     -200.00
00159              40.00        0.00
00160              40.00      200.00
00161              40.00      200.00
00162             120.00      600.00
00163             200.00      600.00
00164             160.00     1000.00
00165             120.00     1000.00
00166             120.00     1200.00
00167             120.00     1400.00
00168             200.00     1600.00
00169             960.00     1800.00
00170            1160.00     2000.00
00171             200.00     2000.00
00172           -1080.00     2000.00
00173           -1800.00     2200.00
00174            -960.00     3000.00
00175             920.00     3000.00
00176             440.00     2800.00
00177             240.00     3200.00
00178             680.00     3000.00
00179             -80.00     3800.00
00180             -80.00     4200.00
00181              40.00     3400.00
00182             -40.00     4200.00
00183             520.00     4400.00
00184             -40.00     3800.00
00185            -160.00     5000.00
00186             160.00     4600.00
00187            -160.00     4800.00
00188             120.00     5200.00
00189             120.00     5000.00
00190             120.00     5800.00
00191               0.00     5200.00
00192             -40.00     5800.00
00193             280.00     6000.00
00194               0.00     5800.00
00195              40.00     6200.00
00196             120.00     6000.00
00197              40.00     6600.00
00198              40.00     6600.00
00199               0.00     6600.00
00200             120.00     7000.00
00201              80.00     6600.00
00202             120.00     7200.00
00203              80.00     7200.00
00204              40.00     7200.00
00205              40.00     7400.00
00206             120.00     7600.00
00207             120.00     7800.00
00208              40.00     7800.00
00209              40.00     8000.00
00210               0.00     8000.00
00211              80.00     8200.00
00212             120.00     8200.00
00213             120.00     8400.00
00214              40.00     8600.00
00215               0.00     8400.00
00216              40.00     8600.00
00217              40.00     8800.00
00218              80.00     8800.00
00219             120.00     8800.00
00220               0.00     9000.00
00221               0.00     9200.00
00222              80.00     9000.00
00223             120.00     9400.00
00224              40.00     9200.00
00225              80.00     9200.00
00226              40.00     9400.00
00227               0.00     9400.00
00228               0.00     9400.00
00229              40.00     9400.00
00230              40.00     9600.00
00231              80.00     9800.00
00232             120.00     9600.00
00233              40.00     9600.00
00234               0.00     9800.00
00235               0.00     9800.00
00236              40.00     9800.00
00237              40.00     9800.00
00238              40.00     9800.00
00239              40.00     9800.00
00240              40.00     9800.00
00241              40.00    10000.00
00242              40.00     9800.00
00243              40.00     9800.00
00244              40.00     9800.00
00245              40.00     9800.00
00246              40.00     9800.00
00247               0.00     9800.00
00248               0.00     9800.00
00249               0.00     9800.00
00250               0.00     9800.00
00251              40.00     9800.00
00252              40.00     9800.00
00253               0.00     9800.00
00254               0.00     9800.00
00255               0.00     9600.00
00256               0.00     9600.00
00257               0.00     9400.00
00258              40.00     9400.00
00259              40.00     9400.00
00260              40.00     9400.00
00261               0.00     9400.00
00262               0.00     9200.00
00263              40.00     9200.00
00264              40.00     9000.00
00265              40.00     9000.00
00266               0.00     9000.00
00267               0.00     9000.00
00268               0.00     8600.00
00269               0.00     8600.00
00270               0.00     8600.00
00271               0.00     8600.00
00272               0.00     8400.00
00273               0.00     8400.00
00274               0.00     8200.00
00275               0.00     8000.00
00276               0.00     8000.00
00277              40.00     7800.00
00278              40.00     7800.00
00279               0.00     7600.00
00280               0.00     7600.00
00281               0.00     7400.00
00282               0.00     7400.00
00283              40.00     7000.00
00284               0.00     7000.00
00285               0.00     7000.00
00286               0.00     6800.00
00287               0.00     6600.00
00288               0.00     6600.00
00289               0.00     6400.00
00290               0.00     6200.00
00291               0.00     6000.00
00292               0.00     5800.00
00293               0.00     5800.00
00294               0.00     5600.00
00295             -40.00     5400.00
00296               0.00     5400.00
00297             -40.00     5200.00
00298               0.00     5000.00
00299             -40.00     4800.00
00300             -40.00     4600.00
00301             -40.00     4600.00
00302             -40.00     4400.00
00303               0.00     4200.00
00304               0.00     4000.00
00305               0.00     3800.00
00306             -40.00     3600.00
00307             -40.00     3600.00
00308             -40.00     3400.00
00309             -40.00     3200.00
00310               0.00     2800.00
00311             -40.00     2800.00
00312             -40.00     2600.00
00313             -40.00     2400.00
00314               0.00     2200.00
00315             -40.00     2200.00
00316             -40.00     1800.00
00317             -40.00     1800.00
00318               0.00     1400.00
00319             -40.00     1400.00
00320             -40.00     1200.00
00321             -40.00     1000.00
00322             -40.00     1000.00
00323             -40.00      600.00
00324               0.00      400.00
00325             -40.00      400.00
00326             -40.00      200.00
00327             -40.00        0.00
00328               0.00     -400.00
00329              40.00     -400.00
00330             120.00     -400.00
00331              40.00     -600.00
00332              40.00    -1000.00
00333               0.00    -1200.00
00334               0.00    -1200.00
00335               0.00    -1200.00
00336             280.00    -1600.00
00337             880.00    -1800.00
00338             800.00    -2200.00
00339            -120.00    -2200.00
00340           -1000.00    -2600.00
00341           -1480.00    -2600.00
00342           -1000.00    -2200.00
00343             440.00    -3000.00
00344             320.00    -3000.00
00345             120.00    -3000.00
00346             520.00    -3600.00
00347               0.00    -3400.00
00348               0.00    -3600.00
00349              80.00    -4200.00
00350            -200.00    -3800.00
00351             160.00    -4600.00
00352              80.00    -4400.00
00353            -280.00    -4600.00
00354            -160.00    -4800.00
00355            -120.00    -4600.00
00356               0.00    -5200.00
00357             -40.00    -5200.00
00358               0.00    -5400.00
00359            -120.00    -5600.00
00360            -160.00    -5600.00
00361              80.00    -6000.00
00362             -40.00    -5800.00
00363            -120.00    -6200.00
00364             -40.00    -6200.00
00365             -40.00    -6200.00
00366             -80.00    -6800.00
00367            -160.00    -6800.00
00368             -40.00    -7000.00
00369               0.00    -7000.00
00370             -40.00    -7000.00
00371             -40.00    -7200.00
00372             -40.00    -7200.00
00373             -40.00    -7600.00
00374             -40.00    -7600.00
00375             -40.00    -7800.00
00376            -120.00    -7800.00
00377            -120.00    -8000.00
00378             -40.00    -8200.00
00379             -40.00    -8200.00
00380             -40.00    -8400.00
00381             -40.00    -8400.00
00382             -40.00    -8400.00
00383            -120.00    -8600.00
00384            -120.00    -8600.00
00385            -120.00    -8800.00
00386             -40.00    -8800.00
00387             -80.00    -9000.00
00388             -40.00    -9000.00
00389            -120.00    -9000.00
00390            -120.00    -9200.00
00391             -40.00    -9400.00
00392             -40.00    -9200.00
00393             -40.00    -9400.00
00394             -80.00    -9400.00
00395             -80.00    -9400.00
00396            -120.00    -9400.00
00397             -80.00    -9400.00
00398             -40.00    -9600.00
00399             -40.00    -9800.00
00400             -40.00    -9600.00
00401             -40.00    -9600.00
00402             -40.00    -9800.00
00403             -40.00    -9800.00
00404             -40.00   -10000.00
00405             -40.00    -9800.00
00406             -40.00    -9800.00
00407             -40.00    -9800.00
00408            -120.00    -9800.00
00409             -40.00    -9800.00
00410             -40.00    -9800.00
00411             -40.00   -10000.00
00412               0.00    -9800.00
00413             -40.00    -9800.00
00414             -40.00    -9800.00
00415             -40.00    -9800.00
00416             -40.00    -9800.00
00417             -40.00    -9800.00
00418             -40.00    -9800.00
00419             -40.00    -9600.00
00420             -40.00    -9800.00
00421               0.00    -9400.00
00422             -40.00    -9600.00
00423             -40.00    -9400.00
00424             -40.00    -9400.00
00425             -40.00    -9400.00
00426             -40.00    -9400.00
00427             -40.00    -9400.00
00428             -40.00    -9400.00
00429             -40.00    -9200.00
00430             -40.00    -9200.00
00431             -40.00    -9200.00
00432               0.00    -9000.00
00433             -40.00    -9000.00
00434               0.00    -9000.00
00435             -40.00    -8800.00
00436             -40.00    -8800.00
00437             -40.00    -8600.00
00438             -40.00    -8600.00
00439               0.00    -8400.00
00440             -40.00    -8400.00
00441               0.00    -8200.00
00442             -40.00    -8200.00
00443             -40.00    -8200.00
00444             -40.00    -8000.00
00445               0.00    -7800.00
00446               0.00    -7600.00
00447               0.00    -7600.00
00448             -40.00    -7400.00
00449               0.00    -7200.00
00450             -40.00    -7200.00
00451               0.00    -7000.00
00452               0.00    -7000.00
00453               0.00    -6800.00
00454             -40.00    -6600.00
00455               0.00    -6600.00
00456             -40.00    -6400.00
00457               0.00    -6200.00
00458               0.00    -6200.00
00459               0.00    -6000.00
00460               0.00    -5800.00
00461               0.00    -5400.00
00462               0.00    -5400.00
00463             -40.00    -5400.00
00464               0.00    -5200.00
00465               0.00    -5000.00
00466               0.00    -5000.00
00467               0.00    -4600.00
00468              40.00    -4600.00
00469               0.00    -4400.00
00470               0.00    -4200.00
00471               0.00    -4000.00
00472               0.00    -3800.00
00473               0.00    -3800.00
00474               0.00    -3600.00
00475               0.00    -3400.00
00476               0.00    -3200.00
00477               0.00    -3000.00
00478              40.00    -2800.00
00479               0.00    -2800.00
00480               0.00    -2600.00
00481               0.00    -2200.00
00482               0.00    -2200.00
00483               0.00    -2000.00
00484              40.00    -1800.00
00485              40.00    -1800.00
00486              40.00    -1400.00
00487              40.00    -1200.00
00488               0.00     -800.00
00489              40.00     -800.00
00490               0.00     -600.00
00491              40.00     -400.00
00492              40.00     -200.00
00493              40.00     -200.00
00494              40.00     -200.00
00495              40.00      400.00
00496              40.00      600.00
00497             160.00      600.00
00498             160.00      600.00
00499             160.00     1000.00
00500             120.00     1000.00
00501              80.00     1200.00
00502             120.00     1400.00
00503             480.00     1600.00
00504            1240.00     2000.00
00505             800.00     2000.00
00506            -480.00     2200.00
00507           -1520.00     2200.00
00508           -1760.00     2600.00
00509             120.00     3000.00
00510             960.00     2800.00
00511              40.00     3000.00
00512             600.00     3400.00
00513             440.00     3200.00
00514            -280.00     4200.00
00515             120.00     3600.00
00516            -120.00     3600.00
00517             280.00     4600.00
00518             320.00     3800.00
00519            -320.00     4400.00
00520             120.00     5000.00
00521             -40.00     4400.00
00522            -120.00     5200.00
00523             200.00     5000.00
00524             120.00     5400.00
00525             160.00     5600.00
00526             -80.00     5200.00
00527             160.00     6000.00
00528             160.00     5800.00
00529             -40.00     6000.00
00530             160.00     6200.00
00531              40.00     6200.00
00532              80.00     6800.00
00533               0.00     6400.00
00534              40.00     6800.00
00535             120.00     7000.00
00536             160.00     6800.00
00537             120.00     7400.00
00538              40.00     7000.00
00539              40.00     7400.00
00540              40.00     7400.00
00541             120.00     7800.00
00542              40.00     7800.00
00543              40.00     8000.00
00544              40.00     8200.00
00545               0.00     8000.00
00546             120.00     8200.00
00547             120.00     8200.00
00548             120.00     8400.00
00549               0.00     8400.00
00550              40.00     8600.00
00551              40.00     8600.00
00552             120.00     8600.00
00553             120.00     8800.00
00554              40.00     9000.00
00555               0.00     9000.00
00556               0.00     9200.00
00557             120.00     9000.00
00558              80.00     9200.00
00559              40.00     9200.00
00560              80.00     9200.00
00561               0.00     9400.00
00562               0.00     9400.00
00563              40.00     9400.00
00564              40.00     9600.00
00565              40.00     9600.00
00566              80.00     9800.00
00567              40.00     9800.00
00568               0.00     9800.00
00569               0.00     9800.00
00570              40.00     9800.00
00571             120.00     9800.00
00572              40.00     9800.00
00573              40.00     9800.00
00574              40.00     9800.00
00575               0.00    10000.00
00576               0.00    10000.00
00577              40.00     9800.00
00578              40.00    10000.00
00579              40.00     9800.00
00580              40.00    10000.00
00581              40.00    10000.00
00582               0.00     9800.00
00583               0.00    10000.00
00584              40.00     9800.00
00585              40.00     9800.00
00586              40.00     9800.00
00587               0.00     9800.00
00588               0.00     9800.00
00589              40.00     9600.00
00590               0.00     9800.00
00591               0.00     9600.00
00592               0.00     9400.00
00593              40.00     9400.00
00594              40.00     9400.00
00595               0.00     9400.00
00596               0.00     9200.00
00597               0.00     9200.00
00598              40.00     9000.00
00599              40.00     9000.00
00600               0.00     9000.00
00601               0.00     9000.00
00602               0.00     9000.00
00603               0.00     8800.00
00604              40.00     8800.00
00605              40.00     8600.00
00606              40.00     8400.00
00607               0.00     8400.00
00608               0.00     8400.00
00609               0.00     8200.00
00610               0.00     8000.00
00611              40.00     7800.00
00612               0.00     7800.00
00613              40.00     7800.00
00614               0.00     7600.00
00615               0.00     7400.00
00616               0.00     7400.00
00617               0.00     7400.00
00618               0.00     7000.00
00619               0.00     7000.00
00620               0.00     6800.00
00621               0.00     6800.00
00622               0.00     6600.00
00623               0.00     6400.00
00624               0.00     6200.00
00625               0.00     6200.00
00626               0.00     6000.00
00627               0.00     6000.00
00628               0.00     5800.00
00629             -40.00     5600.00
00630             -40.00     5400.00
00631               0.00     5200.00
00632               0.00     5200.00
00633             -40.00     5000.00
00634             -40.00     5000.00
00635             -40.00     4600.00
00636             -40.00     4400.00
00637               0.00     4200.00
00638             -40.00     4200.00
00639             -40.00     4000.00
00640               0.00     3800.00
00641             -40.00     3600.00
00642             -40.00     3400.00
00643               0.00     3400.00
00644               0.00     3000.00
00645             -40.00     3000.00
00646               0.00     2800.00
00647             -40.00     2600.00
00648             -40.00     2200.00
00649             -40.00     2200.00
00650             -40.00     2000.00
00651             -40.00     1800.00
00652               0.00     1800.00
00653             -40.00     1400.00
00654             -40.00     1200.00
00655             -40.00     1200.00
00656             -40.00     1000.00
00657             -40.00      800.00
00658             -40.00      600.00
00659             -40.00      400.00
00660             -40.00      200.00
00661               0.00        0.00
00662             -40.00     -200.00
00663               0.00     -400.00
00664             120.00     -600.00
00665             120.00     -600.00
00666              40.00     -800.00
00667               0.00     -800.00
00668               0.00    -1200.00
00669               0.00    -1200.00
00670              80.00    -1400.00
00671             520.00    -1600.00
00672             960.00    -2200.00
00673             440.00    -2200.00
00674            -640.00    -2600.00
00675           -1280.00    -2600.00
00676           -1480.00    -2400.00
00677            -280.00    -2600.00
00678             640.00    -3200.00
00679              40.00    -2800.00
00680             320.00    -3400.00
00681             360.00    -3600.00
00682            -160.00    -3200.00
00683             120.00    -4200.00
00684            -160.00    -4000.00
00685            -120.00    -4200.00
00686             280.00    -4400.00
00687            -120.00    -4400.00
00688            -200.00    -5000.00
00689            -160.00    -4600.00
00690             -40.00    -5000.00
00691             -40.00    -5400.00
00692               0.00    -5200.00
00693               0.00    -5800.00
00694            -200.00    -5400.00
00695               0.00    -5800.00
00696              40.00    -6000.00
00697            -120.00    -6000.00
00698             -80.00    -6600.00
00699             -40.00    -6200.00
00700             -40.00    -6600.00
00701            -120.00    -6600.00
00702            -120.00    -6800.00
00703               0.00    -7000.00
00704             -40.00    -7000.00
00705             -40.00    -7200.00
00706            -120.00    -7200.00
00707             -40.00    -7400.00
00708             -40.00    -7800.00
00709             -40.00    -7600.00
00710            -120.00    -7800.00
00711            -120.00    -7800.00
00712            -120.00    -8200.00
00713               0.00    -8000.00
00714             -40.00    -8200.00
00715             -40.00    -8400.00
00716             -40.00    -8400.00
00717             -80.00    -8600.00
00718            -120.00    -8600.00
00719             -80.00    -8800.00
00720             -40.00    -8600.00
00721             -40.00    -9000.00
00722             -40.00    -9000.00
00723             -80.00    -9000.00
00724             -80.00    -9200.00
00725             -40.00    -9200.00
00726             -40.00    -9200.00
00727             -40.00    -9200.00
00728             -40.00    -9400.00
00729            -120.00    -9400.00
00730             -80.00    -9400.00
00731             -40.00    -9400.00
00732             -40.00    -9400.00
00733             -40.00    -9600.00
00734             -40.00    -9800.00
00735             -40.00    -9800.00
00736             -40.00    -9800.00
00737             -40.00    -9800.00
00738             -40.00    -9800.00
00739             -40.00    -9800.00
00740             -40.00    -9800.00
00741             -40.00    -9800.00
00742             -40.00    -9800.00
00743             -40.00    -9800.00
00744             -80.00    -9800.00
00745             -40.00    -9800.00
00746             -40.00   -10000.00
00747               0.00    -9800.00
00748             -40.00    -9800.00
00749             -40.00    -9800.00
00750             -80.00    -9800.00
00751             -40.00    -9800.00
00752               0.00    -9800.00
00753             -40.00    -9800.00
00754             -40.00    -9600.00
00755             -40.00    -9800.00
00756             -40.00    -9600.00
00757             -80.00    -9600.00
00758             -40.00    -9400.00
00759             -40.00    -9400.00
00760               0.00    -9400.00
00761               0.00    -9400.00
00762             -80.00    -9400.00
00763             -40.00    -9200.00
00764            -120.00    -9400.00
00765            -120.00    -9200.00
00766            -120.00    -9200.00
00767             -40.00    -9000.00
00768              40.00    -8800.00
00769               0.00    -9000.00
00770              40.00    -8600.00
00771             -40.00    -8800.00
00772             -40.00    -8600.00
00773            -160.00    -8600.00
00774            -160.00    -8400.00
00775            -120.00    -8200.00
00776             -40.00    -8200.00
00777              40.00    -8200.00
00778              40.00    -8000.00
00779              40.00    -7800.00
00780               0.00    -7800.00
00781             -40.00    -7600.00
00782             -40.00    -7600.00
00783             -80.00    -7400.00
00784             -40.00    -7200.00
00785             -40.00    -7000.00
00786             -40.00    -7000.00
00787               0.00    -7000.00
00788               0.00    -6800.00
00789               0.00    -6600.00
00790               0.00    -6600.00
00791               0.00    -6400.00
00792             -40.00    -6200.00
00793             -40.00    -6000.00
00794             -40.00    -6000.00
00795             -40.00    -5600.00
00796               0.00    -5800.00
00797             -40.00    -5400.00
00798               0.00    -5200.00
00799               0.00    -5200.00
00800              40.00    -5000.00
00801              40.00    -4800.00
00802               0.00    -4600.00
00803               0.00    -4400.00
00804             -40.00    -4400.00
00805             -40.00    -4200.00
00806               0.00    -3800.00
00807              40.00    -3800.00
00808              40.00    -3600.00
00809              40.00    -3400.00
00810               0.00    -3200.00
00811               0.00    -3000.00
00812               0.00    -3000.00
00813               0.00    -2800.00
00814               0.00    -2600.00
00815               0.00    -2600.00
00816             -40.00    -2200.00
00817               0.00    -2000.00
00818              40.00    -1800.00
00819             120.00    -1800.00
00820              40.00    -1400.00
00821               0.00    -1200.00
00822             -40.00    -1000.00
00823             -40.00     -800.00
00824              40.00     -600.00
00825              40.00     -600.00
00826              40.00     -400.00
00827              80.00     -200.00
00828              40.00        0.00
00829               0.00      200.00
00830               0.00      200.00
00831             120.00      600.00
00832             160.00      600.00
00833             160.00      800.00
00834             160.00      800.00
00835             120.00     1200.00
00836              80.00     1400.00
00837             240.00     1400.00
00838             920.00     1800.00
00839            1240.00     2000.00
00840             240.00     2200.00
00841           -1080.00     2200.00
00842           -1880.00     2200.00
00843           -1040.00     2800.00
00844             840.00     3000.00
00845             440.00     2600.00
00846             200.00     3400.00
00847             760.00     3000.00
00848             -40.00     3600.00
00849             -80.00     4200.00
00850               0.00     3400.00
00851             -40.00     4400.00
00852             480.00     4200.00
00853             -40.00     4000.00
00854            -200.00     5000.00
00855             160.00     4600.00
00856            -160.00     4800.00
00857             160.00     5000.00
00858             160.00     5000.00
00859             160.00     5800.00
00860               0.00     5200.00
00861             -40.00     5600.00
00862             280.00     6000.00
00863             -40.00     5800.00
00864              40.00     6200.00
00865             120.00     6000.00
00866              40.00     6600.00
00867              40.00     6600.00
00868               0.00     6600.00
00869             120.00     7000.00
00870              80.00     6800.00
00871             120.00     7000.00
00872             120.00     7000.00
00873              40.00     7400.00
00874              40.00     7600.00
00875             120.00     7400.00
00876             120.00     7800.00
00877              40.00     7800.00
00878              80.00     8000.00
00879               0.00     8000.00
00880             120.00     8200.00
00881             120.00     8200.00
00882             120.00     8400.00
00883              40.00     8600.00
00884               0.00     8400.00
00885              40.00     8600.00
00886              80.00     8600.00
00887             120.00     8800.00
00888              40.00     8800.00
00889               0.00     9000.00
00890               0.00     9000.00
00891              40.00     9200.00
00892             120.00     9200.00
00893              40.00     9200.00
00894              80.00     9200.00
00895               0.00     9400.00
00896               0.00     9400.00
00897               0.00     9400.00
00898              40.00     9400.00
00899              40.00     9600.00
00900              40.00     9600.00
00901              40.00     9400.00
00902              40.00     9800.00
00903               0.00     9800.00
00904               0.00     9800.00
00905              80.00     9800.00
00906              40.00     9800.00
00907              40.00     9800.00
00908               0.00     9800.00
00909              40.00     9800.00
00910               0.00     9800.00
00911              40.00     9800.00
00912              40.00    10000.00
00913              40.00     9800.00
00914               0.00     9800.00
00915              40.00     9800.00
00916               0.00    10000.00
00917               0.00     9800.00
00918              40.00     9800.00
00919              80.00     9800.00
00920              40.00     9800.00
00921              40.00     9800.00
00922              40.00     9600.00
00923               0.00     9800.00
00924              40.00     9800.00
00925              40.00     9600.00
00926              40.00     9400.00
00927              40.00     9400.00
00928              40.00     9400.00
00929               0.00     9400.00
00930               0.00     9200.00
00931               0.00     9200.00
00932               0.00     9200.00
00933              40.00     9000.00
00934              40.00     9200.00
00935               0.00     9000.00
00936               0.00     8800.00
00937               0.00     8800.00
00938               0.00     8600.00
00939               0.00     8600.00
00940              40.00     8600.00
00941               0.00     8400.00
00942               0.00     8400.00
00943               0.00     8200.00
00944               0.00     8000.00
00945               0.00     8000.00
00946               0.00     7800.00
00947              40.00     7800.00
00948               0.00     7600.00
00949               0.00     7600.00
00950               0.00     7400.00
00951             -40.00     7400.00
00952               0.00     7000.00
00953               0.00     7000.00
00954               0.00     6800.00
00955             -40.00     6800.00
00956               0.00     6600.00
00957               0.00     6600.00
00958             -40.00     6400.00
00959               0.00     6200.00
00960             -40.00     6000.00
00961             -40.00     5800.00
00962               0.00     5800.00
00963             -40.00     5800.00
00964             -40.00     5400.00
00965             -40.00     5600.00
00966               0.00     5200.00
00967             -40.00     5000.00
00968               0.00     4800.00
00969             -40.00     4600.00
00970             -40.00     4600.00
00971             -40.00     4400.00
00972               0.00     4200.00
00973             -40.00     4000.00
00974             -40.00     3600.00
00975             -40.00     3600.00
00976             -40.00     3600.00
00977             -40.00     3400.00
00978             -40.00     3400.00
00979               0.00     3000.00
00980               0.00     2800.00
00981               0.00     2600.00
00982             -40.00     2400.00
00983             -80.00     2200.00
00984             -40.00     2000.00
00985             -40.00     1800.00
00986               0.00     1800.00
00987               0.00     1600.00
00988               0.00     1400.00
00989             -40.00     1200.00
00990             -40.00     1000.00
00991             -40.00      800.00
00992             -40.00      600.00
00993             -40.00      600.00
00994             -40.00      400.00
00995             -40.00      200.00
00996             -40.00      200.00
00997               0.00     -400.00
00998              40.00     -400.00
00999             120.00     -600.00
01000              40.00     -800.00
01001               0.00    -1000.00
01002               0.00    -1000.00
01003               0.00    -1200.00
01004               0.00    -1400.00
01005             280.00    -1400.00
01006             920.00    -2000.00
01007             840.00    -2200.00
01008            -120.00    -2200.00
01009           -1000.00    -2600.00
01010           -1480.00    -2600.00
01011           -1080.00    -2400.00
01012             440.00    -3000.00
01013             360.00    -3200.00
01014               0.00    -3000.00
01015             480.00    -3800.00
01016              40.00    -3400.00
01017               0.00    -3400.00
01018              40.00    -4400.00
01019            -200.00    -3800.00
01020             120.00    -4400.00
01021              80.00    -4400.00
01022            -280.00    -4600.00
01023            -200.00    -5000.00
01024            -120.00    -4800.00
01025             -40.00    -5200.00
01026            -120.00    -5200.00
01027               0.00    -5400.00
01028             -40.00    -5800.00
01029            -160.00    -5600.00
01030             120.00    -6000.00
01031             -40.00    -6000.00
01032            -120.00    -6200.00
01033             -40.00    -6400.00
01034               0.00    -6400.00
01035             -40.00    -6800.00
01036            -160.00    -6800.00
01037             -80.00    -6800.00
01038             -40.00    -7000.00
01039             -40.00    -7000.00
01040             -40.00    -7400.00
01041             -40.00    -7200.00
01042             -40.00    -7600.00
01043             -40.00    -7600.00
01044             -40.00    -7800.00
01045             -80.00    -7800.00
01046            -120.00    -8000.00
01047             -40.00    -8000.00
01048               0.00    -8200.00
01049             -40.00    -8200.00
01050               0.00    -8400.00
01051             -40.00    -8600.00
01052            -120.00    -8600.00
01053             -80.00    -8600.00
01054             -40.00    -8600.00
01055             -40.00    -8800.00
01056             -40.00    -9000.00
01057             -40.00    -9000.00
01058             -40.00    -9000.00
01059             -80.00    -9200.00
01060             -40.00    -9200.00
01061               0.00    -9200.00
01062             -40.00    -9400.00
01063             -40.00    -9400.00
01064             -40.00    -9400.00
01065            -120.00    -9400.00
01066            -120.00    -9600.00
01067             -40.00    -9600.00
01068               0.00    -9600.00
01069               0.00    -9800.00
01070             -40.00    -9800.00
01071             -40.00    -9800.00
01072            -120.00    -9800.00
01073             -40.00    -9800.00
01074             -40.00    -9800.00
01075             -40.00    -9800.00
01076             -40.00    -9800.00
01077             -40.00    -9800.00
01078             -40.00    -9800.00
01079             -80.00    -9800.00
01080             -40.00   -10000.00
01081             -40.00   -10000.00
01082             -40.00    -9800.00
01083             -40.00    -9800.00
01084             -40.00    -9800.00
01085            -120.00    -9800.00
01086             -40.00    -9800.00
01087             -40.00    -9800.00
01088             -40.00    -9800.00
01089             -40.00    -9800.00
01090             -40.00    -9800.00
01091             -40.00    -9600.00
01092             -40.00    -9400.00
01093             -40.00    -9400.00
01094               0.00    -9400.00
01095             -40.00    -9400.00
01096             -40.00    -9400.00
01097             -40.00    -9200.00
01098             -40.00    -9200.00
01099             -40.00    -9200.00
01100             -40.00    -9200.00
01101             -40.00    -9000.00
01102             -40.00    -9000.00
01103             -40.00    -9000.00
01104             -80.00    -8800.00
01105             -40.00    -8800.00
01106               0.00    -8600.00
01107               0.00    -8400.00
01108             -40.00    -8400.00
01109               0.00    -8400.00
01110             -40.00    -8200.00
01111             -40.00    -8000.00
01112               0.00    -8000.00
01113             -40.00    -7800.00
01114               0.00    -7800.00
01115               0.00    -7800.00
01116             -40.00    -7600.00
01117             -40.00    -7200.00
01118             -40.00    -7400.00
01119               0.00    -7000.00
01120               0.00    -7000.00
01121               0.00    -6800.00
01122               0.00    -6800.00
01123               0.00    -6600.00
01124               0.00    -6600.00
01125               0.00    -6600.00
01126               0.00    -6200.00
01127               0.00    -6000.00
01128               0.00    -6000.00
01129               0.00    -5800.00
01130               0.00    -5600.00
01131               0.00    -5400.00
01132               0.00    -5400.00
01133               0.00    -5200.00
01134               0.00    -5000.00
01135              40.00    -5000.00
01136               0.00    -4600.00
01137               0.00    -4600.00
01138               0.00    -4400.00
01139               0.00    -4200.00
01140               0.00    -3800.00
01141               0.00    -4000.00
01142               0.00    -3800.00
01143               0.00    -3600.00
01144               0.00    -3400.00
01145               0.00    -3200.00
01146               0.00    -3000.00
01147              40.00    -2800.00
01148               0.00    -2800.00
01149               0.00    -2600.00
01150               0.00    -2400.00
01151               0.00    -2000.00
01152               0.00    -2000.00
01153               0.00    -1800.00
01154               0.00    -1600.00
01155               0.00    -1400.00
01156               0.00    -1200.00
01157              40.00    -1200.00
01158               0.00     -800.00
01159               0.00     -800.00
01160               0.00     -400.00
01161               0.00     -400.00
01162              40.00     -200.00
01163              40.00        0.00
01164              40.00      200.00
01165             120.00      400.00
01166             160.00      600.00
01167             160.00      600.00
01168             160.00      800.00
01169             120.00     1000.00
01170             120.00     1200.00
01171             120.00     1400.00
01172             480.00     1600.00
01173            1200.00     2000.00
01174             880.00     2000.00
01175            -440.00     2200.00
01176           -1520.00     2200.00
01177           -1760.00     2400.00
01178              40.00     3000.00
01179            1000.00     2800.00
01180             120.00     3000.00
01181             560.00     3200.00
01182             440.00     3000.00
01183            -240.00     4200.00
01184             120.00     3800.00
01185            -120.00     3600.00
01186             280.00     4600.00
01187             360.00     4000.00
01188            -280.00     4400.00
01189             120.00     5000.00
01190               0.00     4400.00
01191             -80.00     5000.00
01192             160.00     5000.00
01193             120.00     5400.00
01194             160.00     5600.00
01195             -40.00     5200.00
01196             160.00     6200.00
01197             160.00     5800.00
01198             -40.00     6000.00
01199             120.00     6200.00
01200              40.00     6200.00
01201              40.00     6800.00
01202               0.00     6400.00
01203              40.00     6800.00
01204             120.00     6800.00
01205             120.00     6800.00
01206             120.00     7400.00
01207              40.00     7000.00
01208              40.00     7600.00
01209              40.00     7400.00
01210             120.00     7600.00
01211               0.00     7800.00
01212              40.00     7800.00
01213              40.00     8000.00
01214              40.00     8000.00
01215             120.00     8200.00
01216              40.00     8400.00
01217              80.00     8400.00
01218               0.00     8400.00
01219               0.00     8600.00
01220              40.00     8600.00
01221              40.00     8600.00
01222              80.00     9000.00
01223              40.00     9000.00
01224               0.00     9000.00
01225               0.00     9200.00
01226              80.00     9000.00
01227              40.00     9400.00
01228              40.00     9200.00
01229              40.00     9400.00
01230               0.00     9400.00
01231               0.00     9400.00
01232               0.00     9600.00
01233              40.00     9600.00
01234              40.00     9600.00
01235              80.00     9800.00
01236              40.00     9800.00
01237               0.00     9800.00
01238               0.00     9800.00
01239              40.00     9800.00
01240             120.00     9800.00
01241              40.00     9800.00
01242               0.00     9800.00
01243              40.00     9800.00
01244               0.00    10000.00
01245               0.00     9800.00
01246              40.00     9800.00
01247              40.00    10000.00
01248             120.00     9800.00
01249              40.00     9800.00
01250               0.00     9800.00
01251               0.00     9800.00
01252               0.00    10000.00
01253              40.00     9800.00
01254             120.00     9800.00
01255              40.00     9800.00
01256              40.00     9600.00
01257              40.00     9800.00
01258               0.00     9400.00
01259              40.00     9600.00
01260               0.00     9400.00
01261              40.00     9400.00
01262              40.00     9400.00
01263              40.00     9400.00
01264              40.00     9400.00
01265               0.00     9400.00
01266               0.00     9200.00
01267               0.00     9200.00
01268               0.00     9000.00
01269               0.00     9000.00
01270               0.00     9000.00
01271               0.00     8800.00
01272               0.00     9000.00
01273               0.00     8600.00
01274               0.00     8400.00
01275               0.00     8400.00
01276               0.00     8400.00
01277               0.00     8400.00
01278               0.00     8200.00
01279               0.00     8000.00
01280               0.00     8000.00
01281              40.00     7800.00
01282               0.00     7600.00
01283               0.00     7600.00
01284               0.00     7400.00
01285               0.00     7400.00
01286               0.00     7000.00
01287               0.00     7000.00
01288               0.00     6800.00
01289               0.00     6800.00
01290               0.00     6800.00
01291               0.00     6600.00
01292               0.00     6600.00
01293               0.00     6200.00
01294               0.00     6200.00
01295             -40.00     6000.00
01296               0.00     5800.00
01297             -40.00     5800.00
01298             -40.00     5600.00
01299             -40.00     5400.00
01300             -40.00     5400.00
01301               0.00     5200.00
01302               0.00     5000.00
01303             -40.00     4800.00
01304             -40.00     4600.00
01305             -40.00     4400.00
01306               0.00     4200.00
01307               0.00     4200.00
01308               0.00     3800.00
01309             -40.00     3800.00
01310             -40.00     3600.00
01311             -40.00     3400.00
01312             -40.00     3400.00
01313               0.00     3000.00
01314             -40.00     3000.00
01315             -40.00     2800.00
01316             -40.00     2600.00
01317             -40.00     2400.00
01318             -40.00     2200.00
01319             -40.00     2000.00
01320             -40.00     1800.00
01321               0.00     1600.00
01322               0.00     1400.00
01323             -40.00     1200.00
01324             -40.00     1200.00
01325             -40.00     1000.00
01326             -40.00      800.00
01327             -40.00      600.00
01328             -40.00      400.00
01329             -40.00      400.00
01330             -40.00     -200.00
01331             -40.00     -200.00
01332               0.00     -400.00
01333              80.00     -400.00
01334             120.00     -600.00
01335              40.00     -800.00
01336               0.00     -800.00
01337               0.00    -1200.00
01338               0.00    -1200.00
01339              80.00    -1400.00
01340             480.00    -1800.00
01341             960.00    -2200.00
01342             440.00    -2200.00
01343            -640.00    -2600.00
01344           -1280.00    -2600.00
01345           -1480.00    -2600.00
01346            -360.00    -2600.00
01347             640.00    -3200.00
01348              40.00    -3000.00
01349             320.00    -3400.00
01350             320.00    -3800.00
01351            -160.00    -3200.00
01352             120.00    -4200.00
01353            -160.00    -4000.00
01354             -80.00    -4200.00
01355             280.00    -4600.00
01356            -120.00    -4400.00
01357            -240.00    -5000.00
01358            -200.00    -4800.00
01359             -40.00    -5000.00
01360             -80.00    -5200.00
01361             -40.00    -5200.00
01362               0.00    -5600.00
01363            -200.00    -5400.00
01364               0.00    -5800.00
01365              40.00    -6000.00
01366            -160.00    -5800.00
01367             -40.00    -6400.00
01368               0.00    -6200.00
01369             -40.00    -6600.00
01370            -120.00    -6600.00
01371            -120.00    -6600.00
01372               0.00    -7000.00
01373             -40.00    -7000.00
01374             -80.00    -7400.00
01375            -120.00    -7200.00
01376            -120.00    -7400.00
01377             -40.00    -7600.00
01378             -40.00    -7600.00
01379             -40.00    -7800.00
01380            -120.00    -7800.00
01381            -120.00    -8200.00
01382             -40.00    -8000.00
01383             -40.00    -8200.00
01384             -40.00    -8400.00
01385               0.00    -8400.00
01386             -40.00    -8600.00
01387             -80.00    -8600.00
01388             -40.00    -8600.00
01389             -40.00    -8800.00
01390             -40.00    -9000.00
01391            -120.00    -9000.00
01392            -120.00    -9000.00
01393            -120.00    -9000.00
01394             -40.00    -9200.00
01395             -40.00    -9400.00
01396             -40.00    -9200.00
01397             -40.00    -9400.00
01398            -120.00    -9400.00
01399             -80.00    -9400.00
01400             -40.00    -9400.00
01401             -40.00    -9600.00
01402             -40.00    -9800.00
01403             -40.00    -9400.00
01404             -40.00    -9600.00
01405             -40.00    -9800.00
01406             -40.00    -9800.00
01407            -120.00    -9800.00
01408            -120.00    -9800.00
01409             -80.00    -9800.00
01410             -40.00    -9800.00
01411             -40.00    -9800.00
01412             -40.00    -9800.00
01413            -120.00   -10000.00
01414             -40.00    -9800.00
01415             -40.00    -9800.00
01416             -40.00   -10000.00
01417             -40.00    -9800.00
01418             -80.00    -9800.00
01419             -80.00    -9800.00
01420             -40.00    -9800.00
01421             -40.00    -9800.00
01422             -40.00    -9600.00
01423               0.00    -9800.00
01424             -40.00    -9600.00
01425             -80.00    -9600.00
01426             -40.00    -9600.00
01427            -120.00    -9400.00
01428             -40.00    -9400.00
01429             -40.00    -9400.00
01430               0.00    -9400.00
01431             -40.00    -9200.00
01432             -80.00    -9400.00
01433             -40.00    -9200.00
01434             -40.00    -9200.00
01435             -40.00    -9000.00
01436               0.00    -9000.00
01437             -40.00    -9000.00
01438             -40.00    -8800.00
01439             -40.00    -8600.00
01440             -40.00    -8600.00
01441             -40.00    -8600.00
01442             -40.00    -8400.00
01443               0.00    -8400.00
01444               0.00    -8200.00
01445             -40.00    -8200.00
01446             -40.00    -8200.00
01447               0.00    -7800.00
01448               0.00    -7800.00
01449             -40.00    -7800.00
01450               0.00    -7600.00
01451               0.00    -7400.00
01452               0.00    -7200.00
01453             -40.00    -7200.00
01454             -40.00    -7200.00
01455               0.00    -7000.00
01456               0.00    -6800.00
01457               0.00    -6800.00
01458               0.00    -6600.00
01459               0.00    -6400.00
01460             -40.00    -6400.00
01461               0.00    -6200.00
01462               0.00    -6000.00
01463               0.00    -6000.00
01464               0.00    -5800.00
01465               0.00    -5400.00
01466               0.00    -5400.00
01467               0.00    -5200.00
01468               0.00    -5200.00
01469               0.00    -5000.00
01470               0.00    -4600.00
01471               0.00    -4800.00
01472               0.00    -4400.00
01473               0.00    -4400.00
01474               0.00    -4200.00
01475               0.00    -4200.00
01476               0.00    -3800.00
01477               0.00    -3800.00
01478             -40.00    -3600.00
01479               0.00    -3400.00
01480               0.00    -3200.00
01481               0.00    -2800.00
01482               0.00    -2800.00
01483               0.00    -2600.00
01484               0.00    -2600.00
01485               0.00    -2200.00
01486               0.00    -2200.00
01487               0.00    -2000.00
01488              40.00    -1800.00
01489              40.00    -1400.00
01490              40.00    -1200.00
01491               0.00    -1000.00
01492               0.00     -800.00
01493               0.00     -800.00
01494              40.00     -600.00
01495              40.00     -400.00
01496              40.00     -200.00
01497               0.00        0.00
01498              40.00      200.00
01499              40.00      400.00
01500             120.00      400.00
01501             200.00      800.00
01502             160.00     1000.00
01503             120.00     1000.00
01504             120.00     1200.00
01505             120.00     1400.00
01506             200.00     1400.00
01507             920.00     1800.00
01508            1160.00     2000.00
01509             280.00     2000.00
01510           -1000.00     2000.00
01511           -1840.00     2200.00
01512           -1080.00     2800.00
01513             840.00     3000.00
01514             480.00     2800.00
01515             200.00     3400.00
01516             760.00     3000.00
01517             -40.00     3600.00
01518             -40.00     4200.00
01519              40.00     3400.00
01520             -40.00     4400.00
01521             520.00     4400.00
01522               0.00     3800.00
01523            -200.00     5000.00
01524             160.00     4600.00
01525            -160.00     4800.00
01526             120.00     5200.00
01527             160.00     5000.00
01528             160.00     5800.00
01529               0.00     5200.00
01530               0.00     5600.00
01531             280.00     6000.00
01532             -40.00     5600.00
01533              40.00     6400.00
01534             160.00     6000.00
01535              40.00     6600.00
01536              40.00     6600.00
01537               0.00     6600.00
01538             120.00     7000.00
01539             120.00     6600.00
01540             120.00     7000.00
01541              40.00     7200.00
01542              40.00     7400.00
01543              40.00     7400.00
01544              40.00     7600.00
01545             120.00     7800.00
01546              40.00     7800.00
01547              80.00     7800.00
01548               0.00     8000.00
01549              40.00     8200.00
01550              80.00     8200.00
01551             120.00     8400.00
01552               0.00     8200.00
01553               0.00     8600.00
01554               0.00     8600.00
01555              40.00     8600.00
01556             120.00     9000.00
01557              40.00     8800.00
01558               0.00     9000.00
01559               0.00     9000.00
01560              40.00     9000.00
01561              80.00     9200.00
01562              40.00     9200.00
01563              40.00     9200.00
01564              40.00     9400.00
01565               0.00     9400.00
01566               0.00     9400.00
01567              40.00     9600.00
01568              40.00     9600.00
01569              40.00     9800.00
01570             120.00     9800.00
01571              40.00     9800.00
01572               0.00     9800.00
01573               0.00     9800.00
01574             120.00    10000.00
01575             120.00     9800.00
01576              40.00     9800.00
01577              40.00     9800.00
01578              40.00    10000.00
01579              40.00     9800.00
01580              40.00     9800.00
01581              40.00     9800.00
01582              40.00     9800.00
01583              40.00    10000.00
01584               0.00     9800.00
01585              40.00    10000.00
01586              40.00     9800.00
01587              40.00     9800.00
01588              40.00     9800.00
01589              40.00     9800.00
01590              40.00     9800.00
01591              40.00     9800.00
01592               0.00     9800.00
01593               0.00     9800.00
01594              40.00     9400.00
01595               0.00     9600.00
01596              40.00     9400.00
01597              40.00     9400.00
01598               0.00     9400.00
01599               0.00     9200.00
01600               0.00     9200.00
01601               0.00     9200.00
01602              40.00     9000.00
01603              40.00     9000.00
01604               0.00     9000.00
01605               0.00     8800.00
01606               0.00     8800.00
01607               0.00     8600.00
01608               0.00     8600.00
01609               0.00     8400.00
01610               0.00     8400.00
01611               0.00     8400.00
01612               0.00     8200.00
01613               0.00     8200.00
01614             -40.00     8000.00
01615               0.00     8000.00
01616               0.00     7800.00
01617               0.00     7600.00
01618               0.00     7600.00
01619               0.00     7400.00
01620             -40.00     7200.00
01621               0.00     7000.00
01622               0.00     7000.00
01623               0.00     6800.00
01624             -40.00     6800.00
01625             -40.00     6600.00
01626               0.00     6600.00
01627               0.00     6200.00
01628               0.00     6200.00
01629               0.00     6000.00
01630               0.00     6000.00
01631               0.00     5800.00
01632               0.00     5800.00
01633               0.00     5400.00
01634               0.00     5600.00
01635               0.00     5200.00
01636               0.00     5000.00
01637             -40.00     5000.00
01638               0.00     4800.00
01639             -40.00     4600.00
01640             -40.00     4200.00
01641             -40.00     4200.00
01642               0.00     4200.00
01643             -40.00     3800.00
01644             -40.00     3800.00
01645             -40.00     3600.00
01646             -40.00     3400.00
01647               0.00     3200.00
01648               0.00     3000.00
01649             -40.00     2800.00
01650             -40.00     2800.00
01651             -40.00     2600.00
01652             -40.00     2200.00
01653               0.00     2000.00
01654             -40.00     2000.00
01655               0.00     1800.00
01656             -40.00     1400.00
01657               0.00     1400.00
01658             -40.00     1200.00
01659             -40.00     1000.00
01660             -40.00     1000.00
01661             -40.00      600.00
01662             -40.00      600.00
01663             -40.00      200.00
01664             -40.00      200.00
01665             -40.00     -200.00
01666             -40.00     -400.00
01667              40.00     -200.00
01668             120.00     -600.00
01669              40.00     -600.00
01670              40.00    -1000.00
01671               0.00    -1000.00
01672               0.00    -1200.00
01673               0.00    -1400.00
01674             200.00    -1600.00
01675             800.00    -1800.00
01676             840.00    -2200.00
01677            -120.00    -2400.00
01678           -1000.00    -2600.00
01679           -1440.00    -2600.00
01680           -1120.00    -2400.00
01681             360.00    -3000.00
01682             360.00    -3000.00
01683              40.00    -2800.00
01684             480.00    -3600.00
01685               0.00    -3400.00
01686             -40.00    -3400.00
01687              40.00    -4400.00
01688            -240.00    -3800.00
01689             120.00    -4400.00
01690             120.00    -4400.00
01691            -280.00    -4600.00
01692            -200.00    -5000.00
01693            -160.00    -4600.00
01694               0.00    -5200.00
01695             -40.00    -5200.00
01696               0.00    -5200.00
01697             -40.00    -5800.00
01698            -200.00    -5400.00
01699              80.00    -5800.00
01700             -40.00    -5800.00
01701            -120.00    -6200.00
01702             -40.00    -6400.00
01703             -40.00    -6200.00
01704             -40.00    -6800.00
01705            -160.00    -6600.00
01706             -40.00    -6800.00
01707               0.00    -7000.00
01708             -40.00    -7000.00
01709             -80.00    -7200.00
01710             -40.00    -7200.00
01711             -40.00    -7400.00
01712             -40.00    -7600.00
01713             -40.00    -7600.00
01714             -40.00    -7800.00
01715             -80.00    -7800.00
01716             -40.00    -8200.00
01717             -40.00    -8200.00
01718             -40.00    -8200.00
01719             -40.00    -8400.00
01720             -40.00    -8400.00
01721            -120.00    -8400.00
01722            -120.00    -8600.00
01723             -40.00    -8600.00
01724             -40.00    -8800.00
01725             -40.00    -9000.00
01726             -40.00    -9000.00
01727             -40.00    -9000.00
01728             -80.00    -9200.00
01729               0.00    -9200.00
01730             -40.00    -9200.00
01731             -40.00    -9400.00
01732            -120.00    -9400.00
01733            -120.00    -9400.00
01734             -80.00    -9400.00
01735            -120.00    -9400.00
01736             -40.00    -9600.00
01737             -40.00    -9600.00
01738             -40.00    -9800.00
01739             -40.00    -9800.00
01740            -120.00    -9800.00
01741            -120.00    -9800.00
01742             -40.00    -9800.00
01743             -40.00    -9800.00
01744             -40.00    -9800.00
01745             -40.00    -9800.00
01746            -120.00    -9800.00
01747            -120.00    -9800.00
01748             -40.00    -9800.00
01749             -40.00    -9800.00
01750             -40.00    -9800.00
01751             -40.00    -9800.00
01752             -80.00    -9800.00
01753             -80.00    -9800.00
01754             -40.00    -9800.00
01755             -40.00    -9800.00
01756             -40.00    -9800.00
01757             -40.00    -9800.00
01758             -40.00    -9800.00
01759             -40.00    -9800.00
01760             -40.00    -9600.00
01761             -40.00    -9400.00
01762             -40.00    -9600.00
01763               0.00    -9400.00
01764             -40.00    -9400.00
01765             -40.00    -9400.00
01766             -40.00    -9400.00
01767             -40.00    -9400.00
01768             -40.00    -9200.00
01769             -40.00    -9200.00
01770               0.00    -9000.00
01771               0.00    -9000.00
01772               0.00    -9000.00
01773             -40.00    -8800.00
01774             -40.00    -8800.00
01775             -40.00    -8800.00
01776               0.00    -8400.00
01777               0.00    -8600.00
01778             -40.00    -8200.00
01779             -40.00    -8200.00
01780             -40.00    -8200.00
01781               0.00    -7800.00
01782             -40.00    -7800.00
01783               0.00    -7800.00
01784               0.00    -7800.00
01785             -40.00    -7600.00
01786             -40.00    -7200.00
01787             -40.00    -7400.00
01788               0.00    -7000.00
01789               0.00    -7000.00
01790               0.00    -7000.00
01791             -40.00    -6800.00
01792             -40.00    -6800.00
01793               0.00    -6600.00
01794               0.00    -6400.00
01795               0.00    -6200.00
01796               0.00    -6200.00
01797               0.00    -6000.00
01798               0.00    -5800.00
01799               0.00    -5800.00
01800               0.00    -5400.00
01801               0.00    -5400.00
01802               0.00    -5400.00
01803               0.00    -5000.00
01804               0.00    -5000.00
01805               0.00    -4600.00
01806             -40.00    -4600.00
01807             -40.00    -4400.00
01808               0.00    -4200.00
01809               0.00    -4200.00
01810               0.00    -4000.00
01811               0.00    -3600.00
01812               0.00    -3600.00
01813               0.00    -3400.00
01814               0.00    -3200.00
01815               0.00    -3000.00
01816               0.00    -2800.00
01817               0.00    -2600.00
01818               0.00    -2600.00
01819             -40.00    -2400.00
01820               0.00    -2200.00
01821               0.00    -2000.00
01822              40.00    -1800.00
01823               0.00    -1600.00
01824               0.00    -1400.00
01825               0.00    -1200.00
01826              40.00    -1200.00
01827               0.00     -800.00
01828               0.00     -600.00
01829              40.00     -600.00
01830              40.00     -400.00
01831              40.00        0.00
01832              40.00        0.00
01833              40.00      200.00
01834             120.00      400.00
01835             160.00      600.00
01836             200.00      800.00
01837             160.00     1000.00
01838             160.00     1000.00
01839             120.00     1200.00
01840             120.00     1400.00
01841             480.00     1600.00
01842            1240.00     2000.00
01843             920.00     2000.00
01844            -440.00     2200.00
01845           -1480.00     2000.00
01846           -1760.00     2400.00
01847               0.00     3000.00
01848            1000.00     2800.00
01849             120.00     3000.00
01850             600.00     3200.00
01851             480.00     3200.00
01852            -280.00     4000.00
01853             120.00     3800.00
01854             -40.00     3600.00
01855             280.00     4600.00
01856             400.00     3800.00
01857            -280.00     4400.00
01858              40.00     5000.00
01859               0.00     4600.00
01860            -120.00     5200.00
01861             200.00     4800.00
01862             120.00     5400.00
01863             160.00     5600.00
01864             -80.00     5200.00
01865             120.00     6000.00
01866             160.00     5800.00
01867             -80.00     6000.00
01868             120.00     6200.00
01869              40.00     6200.00
01870              40.00     6600.00
01871               0.00     6400.00
01872               0.00     6800.00
01873             120.00     6800.00
01874             120.00     6800.00
01875             120.00     7200.00
01876               0.00     7200.00
01877              40.00     7400.00
01878               0.00     7400.00
01879             120.00     7600.00
01880              40.00     7600.00
01881              40.00     7800.00
01882              40.00     8200.00
01883               0.00     7800.00
01884              80.00     8200.00
01885             120.00     8200.00
01886             120.00     8400.00
01887               0.00     8400.00
01888               0.00     8600.00
01889              40.00     8600.00
01890              40.00     8600.00
01891              80.00     8800.00
01892              40.00     9000.00
01893               0.00     9200.00
01894              40.00     9000.00
01895             120.00     9200.00
01896             120.00     9200.00
01897              40.00     9400.00
01898              40.00     9400.00
01899              40.00     9400.00
01900              40.00     9400.00
01901              40.00     9600.00
01902              80.00     9600.00
01903              40.00     9600.00
01904              40.00     9600.00
01905             120.00     9800.00
01906              40.00     9800.00
01907              40.00     9800.00
01908              40.00     9800.00
01909             120.00     9800.00
01910              40.00    10000.00
01911              40.00     9800.00
01912              40.00     9800.00
01913              40.00    10000.00
01914              40.00    10000.00
01915              40.00     9800.00
01916               0.00     9800.00
01917              40.00    10000.00
01918               0.00    10000.00
01919               0.00    10000.00
01920              40.00     9800.00
01921               0.00     9800.00
01922              40.00    10000.00
01923               0.00     9800.00
01924              40.00    10000.00
01925              40.00     9800.00
01926               0.00     9800.00
01927              40.00     9800.00
01928               0.00     9800.00
01929               0.00     9800.00
01930               0.00     9400.00
01931              40.00     9400.00
01932               0.00     9400.00
01933               0.00     9400.00
01934               0.00     9200.00
01935               0.00     9200.00
01936              40.00     9200.00
01937              40.00     9000.00
01938               0.00     9000.00
01939               0.00     9000.00
01940               0.00     8800.00
01941               0.00     8600.00
01942               0.00     8600.00
01943               0.00     8400.00
01944               0.00     8400.00
01945               0.00     8400.00
01946               0.00     8200.00
01947               0.00     8200.00
01948               0.00     8000.00
01949               0.00     8000.00
01950               0.00     7800.00
01951               0.00     7800.00
01952               0.00     7600.00
01953               0.00     7400.00
01954               0.00     7400.00
01955             -40.00     7200.00
01956               0.00     7000.00
01957               0.00     7000.00
01958               0.00     6800.00
01959               0.00     6800.00
01960               0.00     6600.00
01961               0.00     6600.00
01962               0.00     6200.00
01963             -40.00     6200.00
01964               0.00     6000.00
01965               0.00     5800.00
01966               0.00     5800.00
01967               0.00     5400.00
01968               0.00     5400.00
01969               0.00     5400.00
01970               0.00     5000.00
01971               0.00     5000.00
01972             -40.00     4800.00
01973             -40.00     4600.00
01974               0.00     4400.00
01975               0.00     4400.00
01976             -40.00     4200.00
01977             -40.00     4000.00
01978             -40.00     3800.00
01979             -40.00     3600.00
01980             -40.00     3400.00
01981             -40.00     3400.00
01982             -40.00     3000.00
01983             -40.00     3000.00
01984               0.00     2800.00
01985             -40.00     2600.00
01986             -40.00     2200.00
01987             -40.00     2200.00
01988             -40.00     2000.00
01989               0.00     2000.00
01990               0.00     1600.00
01991             -40.00     1400.00
01992             -40.00     1200.00
01993             -40.00     1000.00
01994             -40.00      800.00
01995             -40.00      600.00
01996             -40.00      600.00
01997             -40.00      400.00
01998             -40.00      200.00
01999             -40.00      200.00
02000             -40.00     -200.00
02001               0.00     -200.00
02002              40.00     -600.00
02003              80.00     -600.00
02004              40.00     -800.00
02005               0.00    -1000.00
02006             -40.00    -1200.00
02007             -40.00    -1200.00
02008              40.00    -1400.00
02009             520.00    -1600.00
02010             960.00    -2200.00
02011             440.00    -2400.00
02012            -600.00    -2200.00
02013           -1280.00    -2600.00
02014           -1480.00    -2600.00
02015            -360.00    -2600.00
02016             640.00    -3200.00
02017              40.00    -3000.00
02018             320.00    -3400.00
02019             360.00    -3800.00
02020            -160.00    -3200.00
02021             120.00    -4000.00
02022             -80.00    -4200.00
02023            -120.00    -4200.00
02024             280.00    -4600.00
02025            -120.00    -4400.00
02026            -280.00    -5000.00
02027            -200.00    -4800.00
02028             -40.00    -5000.00
02029               0.00    -5400.00
02030             -40.00    -5200.00
02031               0.00    -5800.00
02032            -160.00    -5600.00
02033               0.00    -5800.00
02034             120.00    -6000.00
02035            -160.00    -6000.00
02036             -40.00    -6200.00
02037               0.00    -6200.00
02038             -40.00    -6600.00
02039             -80.00    -6600.00
02040            -120.00    -6800.00
02041               0.00    -7000.00
02042               0.00    -7000.00
02043             -40.00    -7400.00
02044             -80.00    -7200.00
02045             -40.00    -7400.00
02046             -40.00    -7600.00
02047             -40.00    -7400.00
02048             -40.00    -7800.00
02049            -120.00    -7800.00
02050             -40.00    -8000.00
02051             -40.00    -8000.00
02052             -40.00    -8400.00
02053             -40.00    -8200.00
02054             -40.00    -8400.00
02055            -120.00    -8600.00
02056            -120.00    -8600.00
02057             -40.00    -8600.00
02058             -40.00    -8800.00
02059             -40.00    -8800.00
02060             -40.00    -9000.00
02061             -80.00    -9000.00
02062             -80.00    -9200.00
02063            -120.00    -9200.00
02064             -40.00    -9200.00
02065             -40.00    -9400.00
02066             -80.00    -9200.00
02067             -80.00    -9400.00
02068            -120.00    -9400.00
02069            -120.00    -9400.00
02070             -80.00    -9600.00
02071             -40.00    -9400.00
02072             -40.00    -9600.00
02073             -40.00    -9800.00
02074             -40.00    -9800.00
02075            -120.00    -9800.00
02076            -120.00    -9800.00
02077             -40.00    -9800.00
02078             -40.00    -9800.00
02079             -40.00    -9800.00
02080             -80.00    -9800.00
02081             -40.00    -9800.00
02082             -40.00    -9800.00
02083             -80.00    -9800.00
02084             -40.00    -9800.00
02085             -40.00    -9800.00
02086             -40.00    -9800.00
02087             -40.00   -10000.00
02088             -40.00    -9800.00
02089             -40.00    -9800.00
02090             -40.00    -9800.00
02091               0.00    -9600.00
02092               0.00    -9800.00
02093             -40.00    -9600.00
02094             -40.00    -9600.00
02095             -40.00    -9400.00
02096             -40.00    -9400.00
02097               0.00    -9400.00
02098               0.00    -9400.00
02099             -40.00    -9400.00
02100             -40.00    -9200.00
02101             -40.00    -9200.00
02102             -40.00    -9200.00
02103             -40.00    -9000.00
02104             -40.00    -9200.00
02105               0.00    -9000.00
02106             -40.00    -8800.00
02107             -40.00    -8800.00
02108             -40.00    -8600.00
02109             -40.00    -8600.00
02110             -40.00    -8600.00
02111               0.00    -8400.00
02112               0.00    -8400.00
02113             -40.00    -8400.00
02114             -40.00    -8200.00
02115             -40.00    -8200.00
02116               0.00    -7800.00
02117               0.00    -7800.00
02118               0.00    -7800.00
02119               0.00    -7600.00
02120               0.00    -7600.00
02121             -40.00    -7200.00
02122             -40.00    -7200.00
02123               0.00    -7000.00
02124               0.00    -7000.00
02125               0.00    -6800.00
02126             -40.00    -6800.00
02127             -40.00    -6600.00
02128             -40.00    -6600.00
02129             -40.00    -6400.00
02130             -40.00    -6000.00
02131               0.00    -6000.00
02132               0.00    -5800.00
02133               0.00    -5800.00
02134               0.00    -5600.00
02135               0.00    -5400.00
02136               0.00    -5200.00
02137               0.00    -5200.00
02138               0.00    -5000.00
02139               0.00    -4800.00
02140               0.00    -4600.00
02141               0.00    -4400.00
02142               0.00    -4200.00
02143               0.00    -4200.00
02144               0.00    -4000.00
02145               0.00    -3800.00
02146               0.00    -3600.00
02147               0.00    -3400.00
02148               0.00    -3400.00
02149               0.00    -3000.00
02150               0.00    -3000.00
02151               0.00    -2800.00
02152               0.00    -2600.00
02153               0.00    -2400.00
02154               0.00    -2200.00
02155               0.00    -2000.00
02156               0.00    -2000.00
02157               0.00    -1800.00
02158               0.00    -1600.00
02159               0.00    -1400.00
02160               0.00    -1200.00
02161              40.00    -1000.00
02162               0.00     -800.00
02163              40.00     -600.00
02164              40.00     -400.00
02165               0.00     -400.00
02166               0.00     -200.00
02167              40.00      200.00
02168              40.00      400.00
02169             120.00      600.00
02170             160.00      600.00
02171             200.00      600.00
02172             160.00     1000.00
02173             120.00     1200.00
02174              40.00     1400.00
02175             200.00     1600.00
02176             840.00     1800.00
02177            1240.00     2000.00
02178             320.00     2200.00
02179            -960.00     2200.00
02180           -1800.00     2200.00
02181           -1120.00     2800.00
02182             840.00     3000.00
02183             520.00     2800.00
02184             160.00     3400.00
02185             760.00     3000.00
02186               0.00     3600.00
02187            -120.00     4200.00
02188             120.00     3400.00
02189             -40.00     4200.00
02190             480.00     4200.00
02191             -40.00     3800.00
02192            -200.00     5000.00
02193             160.00     4600.00
02194            -160.00     4800.00
02195              40.00     5200.00
02196             120.00     4800.00
02197             120.00     5800.00
02198               0.00     5400.00
02199             -40.00     5800.00
02200             280.00     6000.00
02201               0.00     5600.00
02202               0.00     6200.00
02203             120.00     6000.00
02204               0.00     6600.00
02205              40.00     6600.00
02206               0.00     6400.00
02207             120.00     7000.00
02208             120.00     6600.00
02209             120.00     7000.00
02210               0.00     7200.00
02211               0.00     7400.00
02212               0.00     7400.00
02213              40.00     7400.00
02214             120.00     7600.00
02215               0.00     7800.00
02216              80.00     8000.00
02217               0.00     7800.00
02218              40.00     8200.00
02219             120.00     8200.00
02220             120.00     8400.00
02221              40.00     8400.00
02222               0.00     8600.00
02223              40.00     8600.00
02224              40.00     8600.00
02225              80.00     8800.00
02226              40.00     9000.00
02227              40.00     9000.00
02228               0.00     9000.00
02229              80.00     9200.00
02230             120.00     9400.00
02231              80.00     9200.00
02232              40.00     9200.00
02233              40.00     9400.00
02234              40.00     9400.00
02235               0.00     9400.00
02236              80.00     9600.00
02237              40.00     9600.00
02238              40.00     9600.00
02239             120.00     9800.00
02240              40.00     9800.00
02241               0.00     9800.00
02242               0.00     9800.00
02243              40.00    10000.00
02244              80.00     9800.00
02245               0.00     9800.00
02246              40.00     9800.00
02247               0.00    10000.00
02248               0.00     9800.00
02249              40.00    10000.00
02250               0.00     9800.00
02251              40.00     9800.00
02252              40.00     9800.00
02253              40.00     9800.00
02254               0.00     9800.00
02255               0.00     9800.00
02256               0.00     9800.00
02257               0.00     9800.00
02258              40.00     9800.00
02259              40.00     9800.00
02260               0.00     9800.00
02261               0.00     9800.00
02262               0.00     9400.00
02263               0.00     9600.00
02264               0.00     9800.00
02265              40.00     9400.00
02266              40.00     9400.00
02267               0.00     9400.00
02268               0.00     9400.00
02269               0.00     9200.00
02270               0.00     9200.00
02271              40.00     9200.00
02272              40.00     9000.00
02273               0.00     9000.00
02274               0.00     8600.00
02275               0.00     8800.00
02276               0.00     8600.00
02277               0.00     8600.00
02278               0.00     8400.00
02279               0.00     8400.00
02280               0.00     8400.00
02281               0.00     8200.00
02282               0.00     8200.00
02283               0.00     8200.00
02284               0.00     7800.00
02285               0.00     7800.00
02286               0.00     7600.00
02287               0.00     7600.00
02288               0.00     7400.00
02289               0.00     7400.00
02290               0.00     7200.00
02291               0.00     7000.00
02292               0.00     6800.00
02293               0.00     6800.00
02294               0.00     6800.00
02295               0.00     6600.00
02296               0.00     6400.00
02297               0.00     6200.00
02298               0.00     6000.00
02299               0.00     6000.00
02300               0.00     5800.00
02301               0.00     5600.00
02302             -40.00     5400.00
02303             -40.00     5400.00
02304               0.00     5200.00
02305               0.00     5000.00
02306               0.00     5000.00
02307             -40.00     4600.00
02308             -40.00     4600.00
02309               0.00     4400.00
02310             -40.00     4200.00
02311               0.00     4200.00
02312               0.00     4000.00
02313             -40.00     3800.00
02314             -40.00     3600.00
02315             -40.00     3400.00
02316               0.00     3200.00
02317             -40.00     3000.00
02318               0.00     2800.00
02319             -40.00     2800.00
02320             -40.00     2400.00
02321             -40.00     2200.00
02322             -40.00     2000.00
02323             -40.00     1800.00
02324             -40.00     1800.00
02325             -40.00     1600.00
02326             -40.00     1400.00
02327             -40.00     1400.00
02328             -40.00     1000.00
02329             -40.00     1000.00
02330             -40.00      600.00
02331             -40.00      400.00
02332             -40.00      400.00
02333             -40.00      200.00
02334             -40.00     -200.00
02335             -40.00     -200.00
02336              40.00     -400.00
02337              40.00     -600.00
02338              80.00     -800.00
02339               0.00    -1000.00
02340             -40.00    -1200.00
02341             -40.00    -1200.00
02342               0.00    -1600.00
02343             200.00    -1600.00
02344             800.00    -1800.00
02345             840.00    -2200.00
02346             -40.00    -2400.00
02347           -1000.00    -2600.00
02348           -1480.00    -2800.00
02349           -1120.00    -2200.00
02350             320.00    -3000.00
02351             400.00    -3200.00
02352               0.00    -2800.00
02353             480.00    -3600.00
02354              40.00    -3600.00
02355             -80.00    -3400.00
02356             120.00    -4200.00
02357            -240.00    -3800.00
02358             120.00    -4400.00
02359             160.00    -4400.00
02360            -200.00    -4600.00
02361            -200.00    -5000.00
02362            -160.00    -4600.00
02363               0.00    -5200.00
02364             -40.00    -5200.00
02365               0.00    -5200.00
02366             -40.00    -5800.00
02367            -160.00    -5600.00
02368              40.00    -6200.00
02369             -40.00    -5800.00
02370            -120.00    -6200.00
02371             -40.00    -6200.00
02372             -40.00    -6200.00
02373             -40.00    -6600.00
02374            -120.00    -6600.00
02375             -40.00    -6800.00
02376               0.00    -7000.00
02377             -40.00    -7000.00
02378             -80.00    -7400.00
02379             -40.00    -7200.00
02380             -40.00    -7600.00
02381             -40.00    -7600.00
02382             -40.00    -7600.00
02383            -120.00    -8000.00
02384            -120.00    -8000.00
02385             -80.00    -8200.00
02386             -40.00    -8200.00
02387             -40.00    -8400.00
02388             -40.00    -8400.00
02389             -40.00    -8600.00
02390            -120.00    -8600.00
02391            -120.00    -8600.00
02392             -40.00    -8800.00
02393             -40.00    -8800.00
02394             -40.00    -9000.00
02395            -120.00    -9000.00
02396            -120.00    -9000.00
02397            -120.00    -9200.00
02398             -40.00    -9200.00
02399             -40.00    -9200.00
02400             -40.00    -9200.00
02401             -80.00    -9400.00
02402            -120.00    -9400.00
02403             -40.00    -9400.00
02404            -120.00    -9600.00
02405             -40.00    -9800.00
02406             -40.00    -9600.00
02407             -80.00    -9800.00
02408             -40.00    -9800.00
02409             -40.00    -9600.00
02410             -80.00    -9800.00
02411             -80.00    -9800.00
02412             -40.00    -9800.00
02413             -40.00    -9800.00
02414             -40.00    -9800.00
02415             -40.00    -9800.00
02416             -40.00    -9800.00
02417             -40.00    -9800.00
02418             -40.00   -10000.00
02419             -40.00    -9800.00
02420             -40.00    -9800.00
02421             -40.00    -9800.00
02422             -40.00    -9800.00
02423             -40.00    -9800.00
02424             -40.00    -9800.00
02425             -40.00    -9800.00
02426               0.00    -9600.00
02427             -40.00    -9800.00
02428             -40.00    -9600.00
02429             -40.00    -9400.00
02430             -40.00    -9400.00
02431             -40.00    -9400.00
02432               0.00    -9400.00
02433             -40.00    -9400.00
02434               0.00    -9400.00
02435             -40.00    -9200.00
02436             -40.00    -9400.00
02437             -40.00    -9200.00
02438               0.00    -9200.00
02439               0.00    -9200.00
02440             -40.00    -9000.00
02441             -40.00    -9000.00
02442             -40.00    -8800.00
02443             -40.00    -8600.00
02444             -40.00    -8600.00
02445               0.00    -8600.00
02446               0.00    -8400.00
02447             -40.00    -8400.00
02448             -40.00    -8200.00
02449             -40.00    -8200.00
02450             -40.00    -8000.00
02451             -40.00    -8000.00
02452               0.00    -7800.00
02453               0.00    -7600.00
02454             -40.00    -7600.00
02455               0.00    -7400.00
02456             -40.00    -7400.00
02457             -40.00    -7200.00
02458               0.00    -7000.00
02459               0.00    -7000.00
02460               0.00    -6800.00
02461               0.00    -6800.00
02462               0.00    -6600.00
02463             -40.00    -6400.00
02464               0.00    -6200.00
02465               0.00    -6200.00
02466               0.00    -6000.00
02467               0.00    -6000.00
02468               0.00    -5600.00
02469             -40.00    -5600.00
02470               0.00    -5400.00
02471               0.00    -5200.00
02472               0.00    -5000.00
02473               0.00    -5000.00
02474               0.00    -4600.00
02475               0.00    -4600.00
02476               0.00    -4400.00
02477             -40.00    -4200.00
02478               0.00    -4000.00
02479               0.00    -3800.00
02480               0.00    -3800.00
02481               0.00    -3600.00
02482               0.00    -3400.00
02483               0.00    -3200.00
02484              40.00    -3200.00
02485               0.00    -3000.00
02486              40.00    -2800.00
02487               0.00    -2600.00
02488               0.00    -2200.00
02489               0.00    -2200.00
02490               0.00    -1800.00
02491              40.00    -1800.00
02492              40.00    -1800.00
02493              40.00    -1200.00
02494              40.00    -1200.00
02495               0.00     -800.00
02496              40.00     -800.00
02497              40.00     -600.00
02498               0.00     -400.00
02499              40.00     -400.00
02500              40.00     -200.00
02501              40.00      200.00
02502              40.00      200.00
02503             120.00      400.00
02504             160.00      600.00
02505             200.00      800.00
02506             160.00     1000.00
02507             120.00     1000.00
02508              80.00     1200.00
02509             120.00     1400.00
02510             480.00     1600.00
02511            1240.00     1800.00
02512             920.00     2000.00
02513            -360.00     2200.00
02514           -1480.00     2200.00
02515           -1800.00     2200.00
02516             -40.00     3000.00
02517             960.00     2800.00
02518             120.00     2800.00
02519             520.00     3400.00
02520             480.00     3200.00
02521            -280.00     4200.00
02522             120.00     3600.00
02523            -120.00     3600.00
02524             200.00     4600.00
02525             360.00     3800.00
02526            -280.00     4200.00
02527             120.00     5000.00
02528               0.00     4400.00
02529            -120.00     5200.00
02530             160.00     4800.00
02531             120.00     5400.00
02532             120.00     5800.00
02533            -120.00     5000.00
02534             120.00     6200.00
02535             160.00     5600.00
02536             -40.00     6000.00
02537             160.00     6200.00
02538              40.00     6200.00
02539              40.00     6600.00
02540               0.00     6200.00
02541               0.00     6800.00
02542             120.00     6800.00
02543             120.00     6800.00
02544             120.00     7400.00
02545              40.00     7000.00
02546              40.00     7600.00
02547              40.00     7400.00
02548              80.00     7600.00
02549              40.00     7600.00
02550              40.00     7800.00
02551              40.00     8000.00
02552              40.00     8000.00
02553             120.00     8200.00
02554              80.00     8200.00
02555             120.00     8400.00
02556               0.00     8400.00
02557               0.00     8600.00
02558              40.00     8600.00
02559             120.00     8600.00
02560             120.00     8800.00
02561              80.00     9000.00
02562              40.00     9000.00
02563               0.00     9000.00
02564              80.00     9200.00
02565             120.00     9200.00
02566              40.00     9400.00
02567              40.00     9400.00
02568              80.00     9400.00
02569               0.00     9400.00
02570              40.00     9400.00
02571              40.00     9600.00
02572              40.00     9600.00
02573              80.00     9600.00
02574              80.00     9600.00
02575              80.00     9800.00
02576               0.00     9800.00
02577              40.00     9800.00
02578              40.00    10000.00
02579              80.00     9800.00
02580               0.00     9800.00
02581              40.00     9800.00
02582               0.00     9800.00
02583               0.00     9800.00
02584              40.00     9800.00
02585              40.00    10000.00
02586               0.00     9800.00
02587              40.00     9800.00
02588              40.00     9800.00
02589               0.00     9800.00
02590               0.00     9800.00
02591               0.00     9800.00
02592               0.00     9800.00
02593              40.00     9800.00
02594              40.00     9800.00
02595               0.00     9800.00
02596               0.00     9600.00
02597              40.00     9400.00
02598               0.00     9600.00
02599               0.00     9400.00
02600               0.00     9400.00
02601               0.00     9400.00
02602               0.00     9400.00
02603               0.00     9200.00
02604               0.00     9200.00
02605               0.00     9200.00
02606              40.00     9000.00
02607               0.00     9000.00
02608               0.00     8800.00
02609               0.00     8800.00
02610               0.00     8600.00
02611               0.00     8600.00
02612              40.00     8600.00
02613               0.00     8400.00
02614               0.00     8400.00
02615               0.00     8200.00
02616               0.00     8200.00
02617               0.00     8200.00
02618               0.00     8000.00
02619               0.00     7800.00
02620               0.00     7800.00
02621               0.00     7600.00
02622               0.00     7600.00
02623               0.00     7200.00
02624               0.00     7200.00
02625               0.00     7000.00
02626               0.00     7000.00
02627               0.00     6800.00
02628               0.00     6600.00
02629             -40.00     6600.00
02630               0.00     6400.00
02631               0.00     6400.00
02632               0.00     6200.00
02633               0.00     6000.00
02634               0.00     5800.00
02635               0.00     5800.00
02636               0.00     5400.00
02637             -40.00     5400.00
02638               0.00     5200.00
02639             -40.00     5200.00
02640               0.00     5000.00
02641             -40.00     4800.00
02642             -40.00     4600.00
02643               0.00     4400.00
02644             -40.00     4200.00
02645               0.00     4000.00
02646             -40.00     4000.00
02647             -40.00     3800.00
02648             -40.00     3600.00
02649             -40.00     3400.00
02650             -40.00     3400.00
02651             -40.00     3000.00
02652             -40.00     2800.00
02653             -40.00     2800.00
02654             -40.00     2400.00
02655             -40.00     2400.00
02656             -40.00     2000.00
02657             -40.00     2000.00
02658               0.00     1800.00
02659             -40.00     1800.00
02660             -40.00     1400.00
02661             -40.00     1200.00
02662             -40.00     1000.00
02663             -40.00     1000.00
02664             -40.00      800.00
02665             -40.00      600.00
02666             -40.00      400.00
02667             -40.00      200.00
02668             -40.00        0.00
02669             -40.00     -200.00
02670             -40.00     -400.00
02671              80.00     -400.00
02672             120.00     -600.00
02673              80.00     -800.00
02674               0.00    -1000.00
02675               0.00    -1000.00
02676             -40.00    -1400.00
02677              40.00    -1400.00
02678             480.00    -1600.00
02679             960.00    -2200.00
02680             440.00    -2200.00
02681            -600.00    -2600.00
02682           -1240.00    -2600.00
02683           -1480.00    -2400.00
02684            -400.00    -2600.00
02685             640.00    -3200.00
02686              40.00    -3000.00
02687             280.00    -3400.00
02688             360.00    -3800.00
02689            -160.00    -3200.00
02690             120.00    -4000.00
02691            -120.00    -4200.00
02692            -120.00    -4200.00
02693             280.00    -4400.00
02694             -40.00    -4400.00
02695            -200.00    -5000.00
02696            -160.00    -4800.00
02697             -40.00    -5000.00
02698             -40.00    -5400.00
02699             -40.00    -5200.00
02700               0.00    -5800.00
02701            -160.00    -5600.00
02702               0.00    -5800.00
02703              40.00    -6000.00
02704            -160.00    -5800.00
02705             -40.00    -6200.00
02706             -40.00    -6200.00
02707             -40.00    -6600.00
02708            -120.00    -6600.00
02709            -120.00    -6800.00
02710               0.00    -7000.00
02711             -40.00    -7000.00
02712             -80.00    -7200.00
02713            -120.00    -7200.00
02714             -40.00    -7400.00
02715             -40.00    -7800.00
02716             -40.00    -7600.00
02717             -40.00    -7800.00
02718             -80.00    -7800.00
02719            -120.00    -8200.00
02720             -40.00    -8200.00
02721             -40.00    -8200.00
02722             -40.00    -8400.00
02723               0.00    -8400.00
02724             -40.00    -8600.00
02725             -40.00    -8600.00
02726            -160.00    -8600.00
02727            -120.00    -8600.00
02728            -120.00    -8800.00
02729             -40.00    -9000.00
02730             -40.00    -9000.00
02731             -80.00    -9200.00
02732            -120.00    -9200.00
02733             -40.00    -9400.00
02734            -120.00    -9400.00
02735             -80.00    -9400.00
02736            -120.00    -9400.00
02737             -40.00    -9400.00
02738             -40.00    -9400.00
02739            -120.00    -9400.00
02740               0.00    -9600.00
02741             -40.00    -9800.00
02742             -40.00    -9800.00
02743             -40.00    -9800.00
02744            -120.00    -9600.00
02745             -40.00    -9800.00
02746             -40.00    -9800.00
02747             -40.00    -9800.00
02748             -40.00    -9800.00
02749            -120.00    -9800.00
02750             -40.00    -9800.00
02751             -40.00    -9800.00
02752               0.00    -9800.00
02753               0.00    -9800.00
02754             -40.00    -9800.00
02755             -40.00    -9800.00
02756             -40.00    -9800.00
02757             -40.00    -9800.00
02758             -40.00    -9600.00
02759             -40.00    -9800.00
02760               0.00    -9800.00
02761             -40.00    -9600.00
02762             -40.00    -9800.00
02763             -40.00    -9600.00
02764             -40.00    -9400.00
02765             -40.00    -9600.00
02766             -40.00    -9400.00
02767             -40.00    -9400.00
02768               0.00    -9400.00
02769             -40.00    -9400.00
02770             -40.00    -9200.00
02771             -40.00    -9200.00
02772             -40.00    -9200.00
02773               0.00    -9200.00
02774               0.00    -9000.00
02775             -40.00    -9000.00
02776             -80.00    -9000.00
02777             -40.00    -8600.00
02778             -40.00    -8600.00
02779               0.00    -8600.00
02780               0.00    -8600.00
02781               0.00    -8400.00
02782             -40.00    -8400.00
02783             -40.00    -8200.00
02784             -40.00    -8200.00
02785             -40.00    -8200.00
02786             -40.00    -7800.00
02787               0.00    -8000.00
02788               0.00    -7600.00
02789               0.00    -7600.00
02790             -40.00    -7400.00
02791               0.00    -7200.00
02792               0.00    -7000.00
02793               0.00    -7000.00
02794             -40.00    -7000.00
02795             -40.00    -6800.00
02796             -40.00    -6600.00
02797             -40.00    -6600.00
02798               0.00    -6400.00
02799             -40.00    -6200.00
02800               0.00    -6200.00
02801               0.00    -5800.00
02802               0.00    -5800.00
02803               0.00    -5600.00
02804               0.00    -5400.00
02805               0.00    -5400.00
02806               0.00    -5200.00
02807               0.00    -5000.00
02808               0.00    -4800.00
02809               0.00    -4600.00
02810               0.00    -4600.00
02811               0.00    -4400.00
02812               0.00    -4200.00
02813               0.00    -3800.00
02814               0.00    -3800.00
02815               0.00    -3600.00
02816               0.00    -3600.00
02817               0.00    -3400.00
02818               0.00    -3000.00
02819              40.00    -3000.00
02820               0.00    -2800.00
02821               0.00    -2600.00
02822              40.00    -2400.00
02823               0.00    -2200.00
02824              40.00    -2000.00
02825               0.00    -2000.00
02826               0.00    -1800.00
02827              40.00    -1400.00
02828              40.00    -1400.00
02829              40.00    -1200.00
02830               0.00     -800.00
02831              40.00     -800.00
02832              40.00     -600.00
02833              40.00     -600.00
02834              40.00     -200.00
02835              40.00     -200.00
02836              40.00      200.00
02837              40.00      400.00
02838             120.00      600.00
02839             160.00      600.00
02840             160.00     1000.00
02841             120.00     1000.00
02842              40.00     1200.00
02843              40.00     1200.00
02844             200.00     1400.00
02845             840.00     1800.00
02846            1240.00     2000.00
02847             320.00     2000.00
02848           -1000.00     2200.00
02849           -1800.00     2200.00
02850           -1120.00     2800.00
02851             800.00     3000.00
02852             520.00     2800.00
02853             160.00     3400.00
02854             680.00     3000.00
02855               0.00     3600.00
02856            -160.00     4200.00
02857             120.00     3400.00
02858             -80.00     4200.00
02859             480.00     4400.00
02860               0.00     3800.00
02861            -200.00     5000.00
02862             160.00     4600.00
02863            -160.00     4800.00
02864              80.00     5200.00
02865             160.00     4600.00
02866             120.00     5800.00
02867              40.00     5200.00
02868             -40.00     5800.00
02869             280.00     6000.00
02870               0.00     5600.00
02871              40.00     6200.00
02872             120.00     6000.00
02873              40.00     6400.00
02874              40.00     6600.00
02875             -40.00     6600.00
02876             120.00     7000.00
02877             120.00     6600.00
02878             160.00     7000.00
02879              40.00     7200.00
02880              40.00     7400.00
02881               0.00     7600.00
02882              40.00     7400.00
02883             120.00     7800.00
02884              40.00     7800.00
02885              40.00     7800.00
02886               0.00     8000.00
02887              80.00     8200.00
02888             120.00     8200.00
02889             120.00     8200.00
02890              40.00     8400.00
02891               0.00     8400.00
02892              40.00     8600.00
02893              40.00     8800.00
02894              80.00     8800.00
02895             120.00     9000.00
02896              40.00     9000.00
02897              40.00     9000.00
02898              40.00     9000.00
02899             120.00     9200.00
02900              80.00     9200.00
02901              40.00     9400.00
02902              40.00     9400.00
02903              40.00     9400.00
02904               0.00     9400.00
02905              40.00     9400.00
02906              40.00     9400.00
02907              40.00     9600.00
02908              40.00     9600.00
02909              40.00     9600.00
02910              40.00     9800.00
02911               0.00     9800.00
02912              40.00     9800.00
02913              40.00     9800.00
02914               0.00     9800.00
02915               0.00     9800.00
02916               0.00     9800.00
02917               0.00     9800.00
02918              40.00     9800.00
02919              40.00     9800.00
02920              40.00     9800.00
02921              40.00     9800.00
02922               0.00    10000.00
02923               0.00     9800.00
02924               0.00     9800.00
02925              40.00     9800.00
02926              40.00     9800.00
02927               0.00     9800.00
02928              40.00     9600.00
02929              80.00     9800.00
02930              40.00     9600.00
02931              40.00     9600.00
02932               0.00     9800.00
02933               0.00     9400.00
02934              40.00     9600.00
02935              40.00     9400.00
02936              40.00     9200.00
02937              40.00     9400.00
02938               0.00     9200.00
02939               0.00     9200.00
02940              40.00     9000.00
02941              40.00     9000.00
02942               0.00     9000.00
02943               0.00     9000.00
02944               0.00     8800.00
02945               0.00     8600.00
02946               0.00     8600.00
02947              40.00     8600.00
02948              40.00     8400.00
02949               0.00     8200.00
02950               0.00     8200.00
02951               0.00     8200.00
02952               0.00     8000.00
02953               0.00     7800.00
02954               0.00     7800.00
02955              40.00     7600.00
02956              40.00     7600.00
02957               0.00     7400.00
02958               0.00     7200.00
02959               0.00     7000.00
02960               0.00     7000.00
02961               0.00     6800.00
02962               0.00     6800.00
02963               0.00     6600.00
02964               0.00     6600.00
02965               0.00     6600.00
02966               0.00     6200.00
02967               0.00     6000.00
02968               0.00     6000.00
02969               0.00     5800.00
02970               0.00     5800.00
02971             -40.00     5400.00
02972             -40.00     5400.00
02973             -40.00     5200.00
02974             -40.00     5000.00
02975             -40.00     5000.00
02976             -40.00     4600.00
02977               0.00     4400.00
02978             -40.00     4400.00
02979             -40.00     4200.00
02980               0.00     4000.00
02981             -40.00     3800.00
02982               0.00     3600.00
02983               0.00     3400.00
02984             -40.00     3400.00
02985             -40.00     3200.00
02986             -40.00     3000.00
02987             -40.00     2800.00
02988             -40.00     2600.00
02989             -40.00     2400.00
02990             -40.00     2200.00
02991               0.00     2200.00
02992             -40.00     1800.00
02993             -80.00     1800.00
02994             -40.00     1600.00
02995             -40.00     1400.00
02996             -40.00     1200.00
02997             -40.00     1000.00
02998             -40.00     1000.00
02999             -40.00      600.00
03000             -40.00      400.00
03001             -40.00      200.00
03002             -40.00      200.00
03003             -40.00     -200.00
03004               0.00     -200.00
03005              40.00     -400.00
03006             120.00     -600.00
03007             120.00     -600.00
03008              40.00    -1000.00
03009               0.00    -1200.00
03010             -40.00    -1000.00
03011               0.00    -1400.00
03012             240.00    -1400.00
03013             840.00    -1800.00
03014             840.00    -2200.00
03015             -40.00    -2200.00
03016            -960.00    -2600.00
03017           -1480.00    -2600.00
03018           -1160.00    -2400.00
03019             360.00    -3000.00
03020             440.00    -3000.00
03021              40.00    -3000.00
03022             480.00    -3800.00
03023              40.00    -3400.00
03024             -80.00    -3600.00
03025             120.00    -4200.00
03026            -200.00    -4000.00
03027             120.00    -4400.00
03028             160.00    -4400.00
03029            -200.00    -4600.00
03030            -200.00    -5000.00
03031            -160.00    -4600.00
03032               0.00    -5200.00
03033             -40.00    -5200.00
03034               0.00    -5200.00
03035             -80.00    -5600.00
03036            -160.00    -5600.00
03037              40.00    -6000.00
03038             -40.00    -6000.00
03039            -160.00    -6200.00
03040             -40.00    -6600.00
03041             -40.00    -6200.00
03042             -40.00    -6600.00
03043            -120.00    -6600.00
03044             -40.00    -7000.00
03045             -40.00    -7000.00
03046            -120.00    -7000.00
03047             -80.00    -7400.00
03048             -40.00    -7200.00
03049             -40.00    -7600.00
03050             -40.00    -7600.00
03051             -40.00    -7600.00
03052            -120.00    -7800.00
03053            -120.00    -8000.00
03054            -120.00    -8200.00
03055             -40.00    -8200.00
03056             -40.00    -8400.00
03057             -40.00    -8400.00
03058             -40.00    -8400.00
03059            -120.00    -8600.00
03060            -120.00    -8600.00
03061             -40.00    -8800.00
03062             -40.00    -9000.00
03063             -80.00    -9000.00
03064            -120.00    -9000.00
03065             -80.00    -9200.00
03066             -40.00    -9200.00
03067             -40.00    -9200.00
03068             -40.00    -9200.00
03069             -40.00    -9200.00
03070             -40.00    -9400.00
03071            -120.00    -9400.00
03072             -40.00    -9600.00
03073            -120.00    -9400.00
03074             -40.00    -9400.00
03075               0.00    -9600.00
03076             -40.00    -9400.00
03077             -40.00    -9800.00
03078             -40.00    -9600.00
03079             -40.00    -9800.00
03080             -40.00    -9800.00
03081               0.00    -9800.00
03082             -40.00    -9800.00
03083             -40.00    -9800.00
03084             -40.00    -9800.00
03085             -40.00   -10000.00
03086             -80.00    -9800.00
03087             -40.00    -9800.00
03088               0.00    -9800.00
03089             -40.00    -9800.00
03090             -40.00    -9800.00
03091             -40.00    -9800.00
03092             -80.00    -9800.00
03093             -40.00    -9800.00
03094               0.00    -9800.00
03095               0.00    -9800.00
03096             -40.00    -9800.00
03097             -40.00    -9600.00
03098             -40.00    -9600.00
03099             -40.00    -9600.00
03100               0.00    -9400.00
03101               0.00    -9400.00
03102               0.00    -9400.00
03103             -40.00    -9400.00
03104             -40.00    -9400.00
03105             -80.00    -9400.00
03106             -40.00    -9200.00
03107             -40.00    -9200.00
03108             -40.00    -9200.00
03109               0.00    -9000.00
03110               0.00    -9000.00
03111             -40.00    -9000.00
03112               0.00    -8600.00
03113               0.00    -8600.00
03114             -40.00    -8600.00
03115             -40.00    -8400.00
03116             -80.00    -8400.00
03117             -40.00    -8200.00
03118            -120.00    -8200.00
03119             -40.00    -8000.00
03120               0.00    -7800.00
03121              40.00    -7800.00
03122              40.00    -7600.00
03123               0.00    -7600.00
03124             -40.00    -7600.00
03125             -40.00    -7200.00
03126             -80.00    -7200.00
03127            -120.00    -7200.00
03128             -40.00    -7000.00
03129               0.00    -7000.00
03130               0.00    -6600.00
03131               0.00    -6400.00
03132               0.00    -6200.00
03133               0.00    -6200.00
03134              40.00    -6200.00
03135               0.00    -6000.00
03136             -40.00    -5800.00
03137             -40.00    -5800.00
03138             -40.00    -5600.00
03139             -40.00    -5400.00
03140               0.00    -5200.00
03141              80.00    -5000.00
03142              40.00    -5000.00
03143               0.00    -4800.00
03144               0.00    -4600.00
03145               0.00    -4400.00
03146               0.00    -4200.00
03147               0.00    -4000.00
03148               0.00    -3800.00
03149               0.00    -3800.00
03150               0.00    -3600.00
03151               0.00    -3400.00
03152              40.00    -3200.00
03153              80.00    -3000.00
03154              80.00    -2800.00
03155               0.00    -2600.00
03156             -40.00    -2600.00
03157             -40.00    -2200.00
03158               0.00    -2200.00
03159               0.00    -2000.00
03160               0.00    -1800.00
03161              40.00    -1600.00
03162              40.00    -1400.00
03163              80.00    -1200.00
03164              40.00    -1000.00
03165               0.00     -800.00
03166               0.00     -600.00
03167               0.00     -600.00
03168               0.00     -400.00
03169               0.00     -200.00
03170              40.00      200.00
03171              40.00      200.00
03172              80.00      400.00
03173             160.00      600.00
03174             160.00      800.00
03175             120.00      800.00
03176             120.00     1000.00
03177              40.00     1200.00
03178             120.00     1400.00
03179             440.00     1800.00
03180            1160.00     1800.00
03181             960.00     2000.00
03182            -360.00     2000.00
03183           -1480.00     2000.00
03184           -1800.00     2200.00
03185            -160.00     3000.00
03186             960.00     2800.00
03187              80.00     3000.00
03188             520.00     3200.00
03189             480.00     3000.00
03190            -280.00     4200.00
03191             120.00     3600.00
03192            -120.00     3600.00
03193             200.00     4600.00
03194             440.00     3800.00
03195            -280.00     4400.00
03196              80.00     5000.00
03197               0.00     4400.00
03198             -80.00     5200.00
03199             200.00     5000.00
03200             120.00     5200.00
03201             160.00     5600.00
03202            -120.00     5200.00
03203             120.00     6000.00
03204             200.00     5800.00
03205             -40.00     6000.00
03206             160.00     6400.00
03207               0.00     6200.00
03208              80.00     6600.00
03209               0.00     6200.00
03210              40.00     7000.00
03211             120.00     6800.00
03212             120.00     6800.00
03213             120.00     7200.00
03214              40.00     7200.00
03215              40.00     7600.00
03216              40.00     7400.00
03217             120.00     7600.00
03218              40.00     7600.00
03219              80.00     7800.00
03220              80.00     8000.00
03221               0.00     8000.00
03222             120.00     8200.00
03223              40.00     8200.00
03224             120.00     8400.00
03225               0.00     8400.00
03226              40.00     8400.00
03227              80.00     8600.00
03228              80.00     8600.00
03229             120.00     9000.00
03230              40.00     9000.00
03231              40.00     9200.00
03232               0.00     9000.00
03233              40.00     9200.00
03234              40.00     9200.00
03235             120.00     9200.00
03236              40.00     9200.00
03237              40.00     9400.00
03238               0.00     9400.00
03239               0.00     9400.00
03240              40.00     9600.00
03241              40.00     9600.00
03242              80.00     9600.00
03243             120.00     9800.00
03244              40.00     9800.00
03245               0.00     9800.00
03246              40.00     9800.00
03247             120.00     9800.00
03248               0.00     9800.00
03249              40.00     9800.00
03250              40.00    10000.00
03251              40.00    10000.00
03252              40.00     9800.00
03253               0.00     9800.00
03254              40.00     9800.00
03255               0.00     9800.00
03256              40.00     9800.00
03257              40.00    10000.00
03258              40.00     9800.00
03259              40.00     9800.00
03260              40.00     9800.00
03261              40.00     9800.00
03262              40.00     9800.00
03263               0.00     9800.00
03264              40.00     9800.00
03265              40.00     9600.00
03266               0.00     9800.00
03267              40.00     9800.00
03268               0.00     9400.00
03269               0.00     9400.00
03270              40.00     9400.00
03271              40.00     9400.00
03272               0.00     9200.00
03273               0.00     9200.00
03274               0.00     9200.00
03275               0.00     9000.00
03276               0.00     9000.00
03277               0.00     9000.00
03278               0.00     8800.00
03279               0.00     8800.00
03280              40.00     8600.00
03281              40.00     8600.00
03282               0.00     8400.00
03283              40.00     8400.00
03284             -40.00     8200.00
03285               0.00     8200.00
03286               0.00     8200.00
03287               0.00     7800.00
03288               0.00     7800.00
03289               0.00     7800.00
03290               0.00     7600.00
03291               0.00     7600.00
03292               0.00     7400.00
03293               0.00     7200.00
03294               0.00     7400.00
03295               0.00     6800.00
03296               0.00     6800.00
03297               0.00     6800.00
03298             -40.00     6600.00
03299               0.00     6600.00
03300               0.00     6200.00
03301               0.00     6200.00
03302             -40.00     6000.00
03303             -40.00     5800.00
03304             -40.00     5800.00
03305             -40.00     5400.00
03306             -40.00     5400.00
03307               0.00     5400.00
03308               0.00     5200.00
03309               0.00     5000.00
03310             -40.00     4800.00
03311             -40.00     4600.00
03312             -40.00     4600.00
03313             -40.00     4200.00
03314             -40.00     4200.00
03315             -40.00     3800.00
03316             -40.00     3600.00
03317             -40.00     3600.00
03318             -40.00     3400.00
03319             -40.00     3400.00
03320             -40.00     3000.00
03321             -40.00     3000.00
03322             -40.00     2800.00
03323             -40.00     2600.00
03324             -40.00     2400.00
03325             -40.00     2200.00
03326             -40.00     2000.00
03327             -40.00     1800.00
03328             -40.00     1800.00
03329             -40.00     1400.00
03330             -80.00     1400.00
03331             -40.00     1200.00
03332             -40.00     1000.00
03333             -40.00      800.00
03334             -40.00      400.00
03335             -40.00      400.00
03336             -40.00      200.00
03337             -40.00      200.00
03338             -40.00     -200.00
03339               0.00     -400.00
03340             120.00     -600.00
03341             120.00     -600.00
03342              40.00     -600.00
03343              40.00    -1000.00
03344               0.00    -1200.00
03345             -40.00    -1200.00
03346              40.00    -1400.00
03347             480.00    -1600.00
03348            1000.00    -2200.00
03349             480.00    -2200.00
03350            -560.00    -2600.00
03351           -1240.00    -2600.00
03352           -1480.00    -2400.00
03353            -440.00    -2400.00
03354             640.00    -3400.00
03355             120.00    -3000.00
03356             280.00    -3400.00
03357             400.00    -3600.00
03358            -160.00    -3200.00
03359             120.00    -4000.00
03360            -120.00    -4200.00
03361            -160.00    -4200.00
03362             280.00    -4400.00
03363             -40.00    -4400.00
03364            -280.00    -4800.00
03365            -200.00    -4800.00
03366             -40.00    -5000.00
03367             -40.00    -5400.00
03368             -40.00    -5200.00
03369               0.00    -5600.00
03370            -200.00    -5600.00
03371               0.00    -6000.00
03372              40.00    -6000.00
03373            -160.00    -6000.00
03374             -40.00    -6400.00
03375             -40.00    -6200.00
03376             -40.00    -6400.00
03377            -120.00    -6800.00
03378            -120.00    -6800.00
03379             -40.00    -7000.00
03380             -40.00    -7000.00
03381            -120.00    -7200.00
03382             -80.00    -7400.00
03383             -40.00    -7400.00
03384             -40.00    -7800.00
03385             -40.00    -7600.00
03386             -80.00    -7800.00
03387            -120.00    -7800.00
03388            -120.00    -8000.00
03389             -40.00    -8200.00
03390             -40.00    -8200.00
03391             -40.00    -8400.00
03392             -40.00    -8400.00
03393             -40.00    -8400.00
03394             -80.00    -8600.00
03395             -40.00    -8800.00
03396             -40.00    -8800.00
03397             -80.00    -9000.00
03398             -40.00    -9000.00
03399             -40.00    -9000.00
03400             -80.00    -9000.00
03401             -40.00    -9200.00
03402               0.00    -9200.00
03403             -40.00    -9400.00
03404             -40.00    -9400.00
03405             -80.00    -9400.00
03406             -40.00    -9200.00
03407             -40.00    -9400.00
03408             -40.00    -9400.00
03409             -40.00    -9600.00
03410             -40.00    -9600.00
03411             -40.00    -9600.00
03412             -40.00    -9800.00
03413             -40.00    -9800.00
03414             -40.00    -9800.00
03415             -40.00    -9800.00
03416             -40.00    -9800.00
03417             -40.00    -9800.00
03418             -40.00    -9800.00
03419             -40.00    -9800.00
03420             -80.00    -9800.00
03421             -40.00    -9800.00
03422             -40.00    -9800.00
03423             -40.00    -9800.00
03424             -40.00    -9800.00
03425             -40.00    -9800.00
03426             -40.00    -9800.00
03427             -40.00    -9800.00
03428             -40.00    -9800.00
03429             -40.00    -9800.00
03430             -40.00    -9800.00
03431             -40.00    -9800.00
03432             -40.00    -9800.00
03433             -40.00    -9600.00
03434             -40.00    -9600.00
03435             -40.00    -9600.00
03436             -40.00    -9400.00
03437               0.00    -9400.00
03438             -40.00    -9400.00
03439             -40.00    -9200.00
03440             -40.00    -9200.00
03441             -40.00    -9200.00
03442             -40.00    -9000.00
03443               0.00    -9000.00
03444               0.00    -9000.00
03445             -40.00    -8800.00
03446             -40.00    -8800.00
03447             -40.00    -8800.00
03448             -40.00    -8600.00
03449               0.00    -8600.00
03450             -40.00    -8400.00
03451             -40.00    -8400.00
03452             -40.00    -8200.00
03453             -40.00    -8200.00
03454             -40.00    -8000.00
03455               0.00    -7800.00
03456               0.00    -7800.00
03457               0.00    -7600.00
03458               0.00    -7400.00
03459               0.00    -7400.00
03460               0.00    -7200.00
03461             -40.00    -7200.00
03462               0.00    -7000.00
03463               0.00    -6800.00
03464               0.00    -6800.00
03465             -40.00    -6400.00
03466               0.00    -6600.00
03467               0.00    -6400.00
03468               0.00    -6200.00
03469               0.00    -6000.00
03470               0.00    -6000.00
03471               0.00    -5800.00
03472               0.00    -5600.00
03473             -40.00    -5400.00
03474             -40.00    -5400.00
03475               0.00    -5200.00
03476              40.00    -5000.00
03477               0.00    -4800.00
03478               0.00    -4600.00
03479               0.00    -4400.00
03480               0.00    -4400.00
03481              40.00    -4200.00
03482               0.00    -3800.00
03483               0.00    -3800.00
03484               0.00    -3800.00
03485               0.00    -3400.00
03486               0.00    -3400.00
03487               0.00    -3000.00
03488               0.00    -3000.00
03489               0.00    -2800.00
03490              40.00    -2600.00
03491               0.00    -2400.00
03492               0.00    -2200.00
03493               0.00    -2200.00
03494               0.00    -1800.00
03495              40.00    -1800.00
03496               0.00    -1400.00
03497              40.00    -1200.00
03498               0.00    -1200.00
03499               0.00     -800.00
03500               0.00     -800.00
03501               0.00     -600.00
03502               0.00     -400.00
03503               0.00     -200.00
03504              40.00     -200.00
03505               0.00      200.00
03506              40.00      400.00
03507             120.00      400.00
03508             200.00      600.00
03509             200.00      800.00
03510             160.00     1000.00
03511              40.00     1000.00
03512             120.00     1400.00
03513             200.00     1400.00
03514             840.00     1800.00
03515            1240.00     2000.00
03516             360.00     2200.00
03517            -960.00     2200.00
03518           -1800.00     2200.00
03519           -1160.00     2600.00
03520             760.00     3000.00
03521             520.00     2800.00
03522             160.00     3200.00
03523             720.00     3000.00
03524               0.00     3400.00
03525            -160.00     4200.00
03526             120.00     3400.00
03527             -80.00     4200.00
03528             480.00     4400.00
03529               0.00     3800.00
03530            -200.00     5000.00
03531             160.00     4600.00
03532            -160.00     4800.00
03533             120.00     5200.00
03534             160.00     4800.00
03535             120.00     5800.00
03536              40.00     5200.00
03537             -40.00     5600.00
03538             200.00     6000.00
03539               0.00     5600.00
03540               0.00     6200.00
03541             160.00     6200.00
03542              40.00     6200.00
03543              40.00     6600.00
03544               0.00     6600.00
03545             120.00     7000.00
03546             120.00     6600.00
03547             120.00     7000.00
03548              40.00     7200.00
03549              40.00     7400.00
03550               0.00     7600.00
03551              40.00     7600.00
03552             120.00     7600.00
03553              40.00     7800.00
03554              40.00     8000.00
03555               0.00     8200.00
03556              80.00     8200.00
03557             120.00     8200.00
03558             120.00     8200.00
03559              40.00     8600.00
03560             -40.00     8600.00
03561              80.00     8600.00
03562              40.00     8600.00
03563              40.00     8800.00
03564              40.00     9000.00
03565               0.00     9000.00
03566               0.00     9000.00
03567              40.00     9200.00
03568              40.00     9200.00
03569              80.00     9200.00
03570              40.00     9200.00
03571              40.00     9400.00
03572               0.00     9400.00
03573               0.00     9400.00
03574               0.00     9800.00
03575              40.00     9600.00
03576              40.00     9800.00
03577              40.00     9600.00
03578              40.00     9600.00
03579               0.00     9800.00
03580               0.00     9800.00
03581              40.00     9800.00
03582              40.00     9800.00
03583               0.00     9800.00
03584               0.00    10000.00
03585              40.00     9800.00
03586              40.00     9800.00
03587              40.00     9800.00
03588              40.00     9800.00
03589              40.00    10000.00
03590              80.00     9800.00
03591               0.00     9800.00
03592              40.00     9800.00
03593               0.00     9800.00
03594               0.00     9800.00
03595              40.00     9800.00
03596              40.00     9800.00
03597               0.00     9800.00
03598              80.00     9800.00
03599              40.00     9600.00
03600              40.00     9600.00
03601              40.00     9600.00
03602              40.00     9400.00
03603               0.00     9400.00
03604              40.00     9400.00
03605              40.00     9400.00
03606               0.00     9400.00
03607               0.00     9200.00
03608              40.00     9200.00
03609              40.00     9200.00
03610              40.00     9000.00
03611              40.00     9000.00
03612              40.00     9000.00
03613              40.00     8800.00
03614               0.00     8600.00
03615               0.00     8600.00
03616              40.00     8600.00
03617               0.00     8400.00
03618               0.00     8400.00
03619               0.00     8200.00
03620               0.00     8200.00
03621               0.00     8200.00
03622              40.00     7800.00
03623               0.00     7800.00
03624               0.00     7800.00
03625               0.00     7600.00
03626               0.00     7400.00
03627               0.00     7200.00
03628               0.00     7000.00
03629               0.00     7000.00
03630               0.00     7000.00
03631               0.00     6600.00
03632               0.00     6600.00
03633             -40.00     6600.00
03634             -40.00     6600.00
03635             -40.00     6200.00
03636               0.00     6200.00
03637               0.00     6000.00
03638             -40.00     5800.00
03639             -40.00     5800.00
03640               0.00     5400.00
03641               0.00     5400.00
03642               0.00     5000.00
03643               0.00     5000.00
03644               0.00     5000.00
03645             -40.00     4600.00
03646             -40.00     4400.00
03647               0.00     4400.00
03648             -40.00     4200.00
03649             -40.00     4000.00
03650             -40.00     3800.00
03651             -40.00     3800.00
03652               0.00     3400.00
03653             -40.00     3400.00
03654             -40.00     3200.00
03655             -40.00     3000.00
03656             -40.00     3000.00
03657               0.00     2800.00
03658             -40.00     2400.00
03659             -40.00     2200.00
03660             -40.00     2200.00
03661               0.00     2000.00
03662               0.00     1800.00
03663             -40.00     1400.00
03664               0.00     1200.00
03665             -40.00     1200.00
03666             -40.00     1200.00
03667             -40.00      800.00
03668             -40.00      600.00
03669               0.00      600.00
03670               0.00      200.00
03671             -40.00      200.00
03672             -40.00        0.00
03673             -40.00     -200.00
03674               0.00     -400.00
03675             120.00     -600.00
03676             120.00     -600.00
03677              40.00    -1000.00
03678               0.00     -800.00
03679               0.00    -1200.00
03680               0.00    -1400.00
03681             200.00    -1400.00
03682             800.00    -1800.00
03683             880.00    -2200.00
03684               0.00    -2600.00
03685            -960.00    -2600.00
03686           -1440.00    -2600.00
03687           -1160.00    -2200.00
03688             280.00    -2800.00
03689             440.00    -3200.00
03690               0.00    -3000.00
03691             480.00    -3600.00
03692              80.00    -3400.00
03693             -80.00    -3400.00
03694             120.00    -4200.00
03695            -200.00    -4000.00
03696             120.00    -4400.00
03697             160.00    -4400.00
03698            -200.00    -4600.00
03699            -200.00    -5000.00
03700            -160.00    -4600.00
03701             -40.00    -5200.00
03702             -80.00    -5200.00
03703               0.00    -5400.00
03704             -40.00    -5600.00
03705            -160.00    -5400.00
03706              80.00    -6200.00
03707             -40.00    -6000.00
03708            -160.00    -6000.00
03709             -40.00    -6400.00
03710             -40.00    -6200.00
03711             -80.00    -6600.00
03712            -160.00    -6800.00
03713             -40.00    -6800.00
03714               0.00    -7000.00
03715             -40.00    -7000.00
03716             -40.00    -7200.00
03717             -40.00    -7200.00
03718             -40.00    -7600.00
03719             -40.00    -7600.00
03720             -40.00    -7600.00
03721             -40.00    -7800.00
03722            -120.00    -7800.00
03723            -120.00    -8000.00
03724             -40.00    -8200.00
03725             -40.00    -8400.00
03726             -40.00    -8400.00
03727             -40.00    -8400.00
03728             -80.00    -8600.00
03729             -40.00    -8800.00
03730             -40.00    -8800.00
03731             -40.00    -8800.00
03732             -40.00    -9000.00
03733             -80.00    -9200.00
03734             -80.00    -9200.00
03735             -40.00    -9200.00
03736             -40.00    -9200.00
03737               0.00    -9400.00
03738             -40.00    -9200.00
03739             -40.00    -9400.00
03740             -40.00    -9400.00
03741             -80.00    -9400.00
03742             -80.00    -9600.00
03743             -40.00    -9400.00
03744             -40.00    -9600.00
03745             -40.00    -9600.00
03746             -40.00    -9600.00
03747             -40.00    -9800.00
03748             -40.00    -9800.00
03749             -40.00    -9800.00
03750             -40.00    -9800.00
03751             -40.00    -9800.00
03752             -40.00   -10000.00
03753             -40.00    -9800.00
03754             -80.00    -9800.00
03755             -40.00    -9800.00
03756             -80.00   -10000.00
03757             -40.00    -9800.00
03758             -40.00    -9800.00
03759             -40.00    -9800.00
03760             -80.00    -9800.00
03761             -40.00    -9800.00
03762             -40.00    -9800.00
03763             -40.00    -9800.00
03764             -40.00    -9800.00
03765             -40.00    -9800.00
03766             -40.00    -9800.00
03767             -40.00    -9600.00
03768             -40.00    -9400.00
03769             -40.00    -9400.00
03770             -40.00    -9400.00
03771             -40.00    -9400.00
03772               0.00    -9400.00
03773             -40.00    -9400.00
03774             -40.00    -9200.00
03775             -40.00    -9200.00
03776             -40.00    -9200.00
03777             -40.00    -9000.00
03778               0.00    -9000.00
03779             -40.00    -9000.00
03780             -40.00    -8800.00
03781             -40.00    -8800.00
03782             -40.00    -8600.00
03783               0.00    -8400.00
03784               0.00    -8600.00
03785               0.00    -8400.00
03786               0.00    -8200.00
03787             -40.00    -8200.00
03788             -40.00    -8000.00
03789             -40.00    -8000.00
03790               0.00    -7600.00
03791               0.00    -7600.00
03792               0.00    -7600.00
03793               0.00    -7400.00
03794               0.00    -7200.00
03795               0.00    -7000.00
03796               0.00    -7000.00
03797               0.00    -7000.00
03798               0.00    -6800.00
03799               0.00    -6800.00
03800               0.00    -6600.00
03801               0.00    -6400.00
03802               0.00    -6200.00
03803               0.00    -6000.00
03804               0.00    -6000.00
03805               0.00    -5800.00
03806               0.00    -5800.00
03807               0.00    -5600.00
03808               0.00    -5400.00
03809               0.00    -5200.00
03810               0.00    -5200.00
03811              40.00    -5000.00
03812               0.00    -4600.00
03813               0.00    -4600.00
03814               0.00    -4400.00
03815               0.00    -4200.00
03816               0.00    -4200.00
03817               0.00    -3800.00
03818               0.00    -3600.00
03819               0.00    -3600.00
03820               0.00    -3400.00
03821               0.00    -3200.00
03822               0.00    -3200.00
03823               0.00    -2800.00
03824               0.00    -2800.00
03825               0.00    -2600.00
03826               0.00    -2400.00
03827               0.00    -2200.00
03828               0.00    -2000.00
03829               0.00    -2000.00
03830              40.00    -1800.00
03831               0.00    -1400.00
03832               0.00    -1200.00
03833               0.00    -1000.00
03834              40.00     -800.00
03835               0.00     -800.00
03836              40.00     -400.00
03837              40.00     -400.00
03838              40.00     -200.00
03839               0.00      200.00
03840              40.00      200.00
03841              40.00      400.00
03842             160.00      400.00
03843             200.00      600.00
03844             160.00     1000.00
03845             120.00     1000.00
03846              40.00     1200.00
03847             120.00     1400.00
03848             440.00     1600.00
03849            1200.00     2000.00
03850             960.00     2200.00
03851            -320.00     2200.00
03852           -1440.00     2000.00
03853           -1800.00     2600.00
03854            -200.00     3000.00
03855             960.00     2800.00
03856             120.00     3000.00
03857             480.00     3200.00
03858             520.00     3000.00
03859            -240.00     3800.00
03860             120.00     3800.00
03861             -40.00     3600.00
03862             200.00     4600.00
03863             440.00     4000.00
03864            -280.00     4400.00
03865              40.00     5000.00
03866              40.00     4400.00
03867            -120.00     5000.00
03868             200.00     4800.00
03869             120.00     5200.00
03870             160.00     5800.00
03871             -40.00     5200.00
03872             120.00     6000.00
03873             200.00     5800.00
03874             -40.00     6000.00
03875             160.00     6200.00
03876              40.00     6200.00
03877              40.00     6600.00
03878               0.00     6400.00
03879              40.00     6800.00
03880             120.00     7000.00
03881             120.00     6800.00
03882             120.00     7400.00
03883              40.00     7200.00
03884              80.00     7600.00
03885               0.00     7400.00
03886              40.00     7600.00
03887              40.00     7800.00
03888               0.00     7800.00
03889               0.00     8000.00
03890               0.00     8000.00
03891             120.00     8200.00
03892              40.00     8200.00
03893             120.00     8200.00
03894               0.00     8400.00
03895               0.00     8600.00
03896              40.00     8600.00
03897              40.00     8600.00
03898              40.00     9000.00
03899              40.00     9000.00
03900               0.00     9000.00
03901               0.00     9200.00
03902             120.00     9000.00
03903              40.00     9200.00
03904              40.00     9400.00
03905              40.00     9400.00
03906              40.00     9400.00
03907               0.00     9400.00
03908               0.00     9400.00
03909              40.00     9400.00
03910               0.00     9600.00
03911              40.00     9800.00
03912              80.00     9600.00
03913               0.00     9800.00
03914               0.00     9800.00
03915               0.00     9800.00
03916              40.00     9800.00
03917              80.00     9800.00
03918              40.00    10000.00
03919              40.00     9800.00
03920              40.00     9800.00
03921              40.00     9800.00
03922              40.00     9800.00
03923              40.00    10000.00
03924              40.00     9800.00
03925               0.00     9800.00
03926              40.00    10000.00
03927               0.00     9800.00
03928              40.00     9800.00
03929              40.00     9800.00
03930              40.00     9800.00
03931              40.00     9800.00
03932              40.00     9800.00
03933              40.00     9400.00
03934               0.00     9800.00
03935              40.00     9600.00
03936              40.00     9600.00
03937              40.00     9600.00
03938              40.00     9400.00
03939              40.00     9400.00
03940               0.00     9400.00
03941              40.00     9400.00
03942               0.00     9200.00
03943              40.00     9200.00
03944              40.00     9200.00
03945               0.00     9000.00
03946               0.00     9000.00
03947               0.00     8800.00
03948               0.00     8600.00
03949               0.00     8600.00
03950               0.00     8400.00
03951              40.00     8400.00
03952               0.00     8400.00
03953               0.00     8200.00
03954               0.00     8200.00
03955               0.00     8200.00
03956               0.00     7800.00
03957               0.00     7800.00
03958               0.00     7800.00
03959               0.00     7400.00
03960             -40.00     7400.00
03961               0.00     7400.00
03962               0.00     7200.00
03963               0.00     7000.00
03964               0.00     6800.00
03965               0.00     6800.00
03966               0.00     6600.00
03967               0.00     6600.00
03968             -40.00     6600.00
03969             -40.00     6200.00
03970               0.00     6200.00
03971               0.00     6000.00
03972               0.00     5800.00
03973               0.00     5800.00
03974             -40.00     5600.00
03975               0.00     5400.00
03976               0.00     5200.00
03977               0.00     5200.00
03978               0.00     5200.00
03979             -40.00     5000.00
03980               0.00     4600.00
03981               0.00     4400.00
03982               0.00     4400.00
03983             -40.00     4000.00
03984               0.00     4000.00
03985             -40.00     3600.00
03986             -40.00     3600.00
03987               0.00     3400.00
03988             -40.00     3400.00
03989               0.00     3000.00
03990             -40.00     3000.00
03991               0.00     2800.00
03992             -40.00     2600.00
03993             -40.00     2400.00
03994             -40.00     2200.00
03995             -40.00     2000.00
03996             -40.00     1800.00
03997               0.00     1800.00
03998             -40.00     1400.00
03999             -40.00     1200.00
04000             -40.00     1000.00
04001             -40.00     1000.00
04002             -40.00      800.00
04003               0.00      600.00
04004             -40.00      400.00
04005             -40.00      200.00
04006             -40.00     -200.00
04007               0.00     -200.00
04008               0.00     -400.00
04009             120.00     -400.00
04010             120.00     -600.00
04011              40.00     -800.00
04012               0.00    -1000.00
04013               0.00    -1200.00
04014               0.00    -1200.00
04015              40.00    -1400.00
04016             480.00    -1600.00
04017             960.00    -2000.00
04018             520.00    -2200.00
04019            -520.00    -2400.00
04020           -1240.00    -2600.00
04021           -1480.00    -2600.00
04022            -480.00    -2600.00
04023             600.00    -3400.00
04024              40.00    -3000.00
04025             240.00    -3400.00
04026             400.00    -3800.00
04027            -160.00    -3200.00
04028             120.00    -3800.00
04029            -120.00    -4200.00
04030            -160.00    -4200.00
04031             240.00    -4400.00
04032             -40.00    -4400.00
04033            -240.00    -5000.00
04034            -200.00    -4800.00
04035             -40.00    -4800.00
04036               0.00    -5400.00
04037             -40.00    -5000.00
04038               0.00    -5600.00
04039            -160.00    -5800.00
04040             -40.00    -5800.00
04041              40.00    -6000.00
04042            -160.00    -6000.00
04043            -120.00    -6400.00
04044             -40.00    -6400.00
04045             -40.00    -6400.00
04046            -120.00    -6600.00
04047            -120.00    -6600.00
04048               0.00    -7000.00
04049               0.00    -7000.00
04050             -40.00    -7200.00
04051             -80.00    -7400.00
04052             -40.00    -7200.00
04053             -40.00    -7600.00
04054             -40.00    -7600.00
04055             -40.00    -7800.00
04056            -120.00    -8000.00
04057             -80.00    -8000.00
04058             -40.00    -8200.00
04059             -40.00    -8200.00
04060             -40.00    -8400.00
04061             -40.00    -8600.00
04062             -40.00    -8600.00
04063            -120.00    -8400.00
04064             -80.00    -8800.00
04065             -40.00    -8600.00
04066             -40.00    -8600.00
04067             -40.00    -9000.00
04068             -40.00    -9000.00
04069            -120.00    -9000.00
04070             -80.00    -9200.00
04071             -40.00    -9200.00
04072               0.00    -9400.00
04073             -40.00    -9200.00
04074             -40.00    -9400.00
04075             -80.00    -9400.00
04076             -40.00    -9400.00
04077             -40.00    -9600.00
04078             -40.00    -9600.00
04079             -40.00    -9600.00
04080             -40.00    -9800.00
04081             -40.00    -9800.00
04082            -120.00    -9800.00
04083            -120.00    -9800.00
04084             -40.00    -9800.00
04085             -40.00    -9800.00
04086             -80.00    -9800.00
04087             -40.00    -9800.00
04088            -120.00    -9800.00
04089             -40.00   -10000.00
04090             -40.00    -9800.00
04091             -40.00    -9800.00
04092             -40.00    -9800.00
04093             -40.00    -9800.00
04094             -40.00    -9800.00
04095             -40.00    -9800.00
04096             -40.00    -9800.00
04097             -40.00    -9800.00
04098             -40.00    -9800.00
04099             -40.00    -9600.00
04100             -40.00    -9800.00
04101             -80.00    -9600.00
04102             -40.00    -9600.00
04103             -40.00    -9600.00
04104             -40.00    -9400.00
04105             -40.00    -9400.00
04106             -40.00    -9400.00
04107             -40.00    -9200.00
04108             -40.00    -9400.00
04109               0.00    -9200.00
04110             -40.00    -9200.00
04111               0.00    -9000.00
04112               0.00    -9000.00
04113             -40.00    -9000.00
04114             -40.00    -8800.00
04115             -40.00    -8600.00
04116             -40.00    -8800.00
04117               0.00    -8600.00
04118               0.00    -8400.00
04119               0.00    -8200.00
04120               0.00    -8400.00
04121               0.00    -8200.00
04122               0.00    -8200.00
04123               0.00    -7800.00
04124               0.00    -7800.00
04125               0.00    -7800.00
04126               0.00    -7600.00
04127               0.00    -7400.00
04128               0.00    -7200.00
04129               0.00    -7200.00
04130               0.00    -7200.00
04131               0.00    -7000.00
04132               0.00    -6800.00
04133               0.00    -6800.00
04134               0.00    -6600.00
04135               0.00    -6600.00
04136             -40.00    -6400.00
04137               0.00    -6200.00
04138               0.00    -6000.00
04139               0.00    -6000.00
04140               0.00    -5800.00
04141               0.00    -5600.00
04142               0.00    -5400.00
04143               0.00    -5200.00
04144               0.00    -5200.00
04145               0.00    -5000.00
04146               0.00    -5000.00
04147               0.00    -4600.00
04148               0.00    -4400.00
04149             -40.00    -4200.00
04150               0.00    -4200.00
04151               0.00    -4200.00
04152               0.00    -3800.00
04153               0.00    -3600.00
04154               0.00    -3400.00
04155               0.00    -3400.00
04156               0.00    -3200.00
04157               0.00    -3000.00
04158               0.00    -2800.00
04159              40.00    -2600.00
04160               0.00    -2400.00
04161               0.00    -2200.00
04162               0.00    -2000.00
04163               0.00    -2000.00
04164               0.00    -1800.00
04165               0.00    -1400.00
04166               0.00    -1400.00
04167               0.00    -1200.00
04168               0.00    -1000.00
04169               0.00     -800.00
04170              40.00     -600.00
04171              40.00     -400.00
04172               0.00     -400.00
04173              40.00     -200.00
04174              40.00      200.00
04175              40.00      400.00
04176             120.00      400.00
04177             200.00      600.00
04178             200.00     1000.00
04179             160.00     1000.00
04180             120.00     1200.00
04181             120.00     1400.00
04182             160.00     1400.00
04183             800.00     1800.00
04184            1240.00     2000.00
04185             440.00     2200.00
04186            -920.00     2000.00
04187           -1800.00     2200.00
04188           -1240.00     2800.00
04189             760.00     3000.00
04190             600.00     2800.00
04191             120.00     3400.00
04192             680.00     3000.00
04193              40.00     3600.00
04194            -160.00     4200.00
04195             120.00     3400.00
04196            -120.00     4200.00
04197             480.00     4400.00
04198              40.00     3800.00
04199            -200.00     4800.00
04200             160.00     4600.00
04201            -120.00     4800.00
04202              80.00     5200.00
04203             160.00     4600.00
04204             120.00     5800.00
04205              40.00     5400.00
04206             -40.00     5600.00
04207             280.00     6000.00
04208               0.00     5600.00
04209               0.00     6400.00
04210             160.00     6000.00
04211              40.00     6200.00
04212               0.00     6600.00
04213             -40.00     6400.00
04214             120.00     7000.00
04215             120.00     6600.00
04216             120.00     7000.00
04217              80.00     7200.00
04218               0.00     7200.00
04219               0.00     7400.00
04220              40.00     7400.00
04221             120.00     7600.00
04222               0.00     7600.00
04223              40.00     7800.00
04224              40.00     8200.00
04225              40.00     8200.00
04226              40.00     8200.00
04227             120.00     8200.00
04228              40.00     8400.00
04229               0.00     8400.00
04230              40.00     8600.00
04231              40.00     8600.00
04232              80.00     8800.00
04233              40.00     9000.00
04234              40.00     9000.00
04235               0.00     9000.00
04236               0.00     9200.00
04237             120.00     9200.00
04238              40.00     9200.00
04239              40.00     9200.00
04240              40.00     9400.00
04241              40.00     9400.00
04242               0.00     9400.00
04243              40.00     9600.00
04244              40.00     9400.00
04245              40.00     9800.00
04246              40.00     9800.00
04247              40.00     9800.00
04248               0.00     9800.00
04249              40.00     9800.00
04250              40.00     9800.00
04251             120.00     9800.00
04252              80.00     9800.00
04253              40.00     9800.00
04254              40.00     9800.00
04255              40.00    10000.00
04256              80.00     9800.00
04257             120.00     9800.00
04258              40.00     9800.00
04259              40.00     9800.00
04260              40.00    10000.00
04261              40.00     9800.00
04262               0.00     9800.00
04263               0.00     9800.00
04264              40.00     9800.00
04265              40.00     9800.00
04266              40.00     9800.00
04267               0.00     9800.00
04268               0.00     9800.00
04269              40.00     9800.00
04270               0.00     9800.00
04271              40.00     9600.00
04272              80.00     9400.00
04273              40.00     9400.00
04274               0.00     9400.00
04275               0.00     9200.00
04276               0.00     9400.00
04277               0.00     9200.00
04278               0.00     9200.00
04279              40.00     9000.00
04280               0.00     9000.00
04281               0.00     8600.00
04282             -40.00     8800.00
04283               0.00     8600.00
04284               0.00     8600.00
04285               0.00     8400.00
04286               0.00     8400.00
04287               0.00     8200.00
04288               0.00     8200.00
04289               0.00     8200.00
04290               0.00     8000.00
04291               0.00     7800.00
04292               0.00     7800.00
04293               0.00     7600.00
04294             -40.00     7600.00
04295             -40.00     7400.00
04296               0.00     7400.00
04297               0.00     7200.00
04298               0.00     7000.00
04299               0.00     6800.00
04300               0.00     6800.00
04301               0.00     6600.00
04302             -40.00     6600.00
04303               0.00     6400.00
04304               0.00     6200.00
04305               0.00     6000.00
04306               0.00     6000.00
04307               0.00     5800.00
04308             -40.00     5600.00
04309               0.00     5400.00
04310               0.00     5400.00
04311               0.00     5200.00
04312               0.00     5200.00
04313             -40.00     4800.00
04314             -40.00     4800.00
04315             -40.00     4600.00
04316               0.00     4400.00
04317             -40.00     4200.00
04318               0.00     4000.00
04319             -40.00     3800.00
04320               0.00     3800.00
04321             -40.00     3600.00
04322               0.00     3400.00
04323               0.00     3400.00
04324               0.00     3000.00
04325               0.00     2800.00
04326             -40.00     2800.00
04327             -40.00     2600.00
04328             -40.00     2200.00
04329             -40.00     2200.00
04330               0.00     2000.00
04331               0.00     1800.00
04332               0.00     1600.00
04333               0.00     1400.00
04334             -40.00     1200.00
04335             -40.00     1200.00
04336             -40.00     1000.00
04337             -40.00      600.00
04338             -40.00      400.00
04339             -40.00      400.00
04340             -40.00      200.00
04341             -40.00     -200.00
04342             -40.00     -200.00
04343              40.00     -600.00
04344             120.00     -600.00
04345              40.00     -600.00
04346               0.00     -800.00
04347               0.00    -1000.00
04348             -40.00    -1200.00
04349               0.00    -1400.00
04350             160.00    -1400.00
04351             760.00    -1800.00
04352             840.00    -2200.00
04353               0.00    -2400.00
04354            -960.00    -2600.00
04355           -1440.00    -2600.00
04356           -1240.00    -2400.00
04357             280.00    -2800.00
04358             440.00    -3400.00
04359               0.00    -3000.00
04360             440.00    -3600.00
04361             120.00    -3400.00
04362            -120.00    -3600.00
04363             120.00    -4200.00
04364            -200.00    -4000.00
04365              80.00    -4400.00
04366             160.00    -4600.00
04367            -200.00    -4600.00
04368            -200.00    -5000.00
04369            -160.00    -4600.00
04370               0.00    -5200.00
04371             -40.00    -5200.00
04372               0.00    -5200.00
04373             -40.00    -5800.00
04374            -160.00    -5400.00
04375              80.00    -6000.00
04376               0.00    -6000.00
04377            -160.00    -6200.00
04378             -40.00    -6200.00
04379               0.00    -6200.00
04380             -40.00    -6600.00
04381            -120.00    -6600.00
04382             -40.00    -6800.00
04383               0.00    -7000.00
04384             -40.00    -7000.00
04385            -120.00    -7000.00
04386             -40.00    -7200.00
04387             -40.00    -7400.00
04388             -40.00    -7600.00
04389             -40.00    -7800.00
04390             -40.00    -7800.00
04391            -120.00    -8000.00
04392             -40.00    -8200.00
04393             -40.00    -8200.00
04394             -40.00    -8200.00
04395             -40.00    -8400.00
04396             -40.00    -8400.00
04397             -40.00    -8600.00
04398            -120.00    -8600.00
04399             -40.00    -8800.00
04400             -40.00    -8800.00
04401             -40.00    -9000.00
04402            -120.00    -9000.00
04403             -40.00    -9000.00
04404            -120.00    -9200.00
04405             -40.00    -9200.00
04406               0.00    -9200.00
04407             -40.00    -9400.00
04408            -120.00    -9400.00
04409            -120.00    -9400.00
04410            -120.00    -9400.00
04411             -80.00    -9400.00
04412             -40.00    -9400.00
04413             -40.00    -9400.00
04414             -40.00    -9800.00
04415            -120.00    -9800.00
04416             -40.00    -9600.00
04417            -120.00    -9800.00
04418             -80.00   -10000.00
04419             -40.00    -9800.00
04420             -40.00    -9800.00
04421             -40.00    -9800.00
04422            -120.00   -10000.00
04423             -40.00    -9800.00
04424             -80.00    -9800.00
04425             -40.00    -9800.00
04426             -40.00    -9800.00
04427             -40.00    -9800.00
04428             -40.00    -9800.00
04429             -40.00    -9800.00
04430             -80.00    -9600.00
04431             -80.00    -9800.00
04432             -80.00    -9800.00
04433             -40.00    -9600.00
04434             -40.00    -9800.00
04435             -40.00    -9600.00
04436             -40.00    -9600.00
04437             -40.00    -9400.00
04438             -40.00    -9400.00
04439             -40.00    -9600.00
04440               0.00    -9400.00
04441             -40.00    -9400.00
04442             -40.00    -9200.00
04443             -40.00    -9200.00
04444             -40.00    -9000.00
04445             -40.00    -9200.00
04446             -40.00    -9200.00
04447               0.00    -9000.00
04448               0.00    -8800.00
04449             -40.00    -9000.00
04450             -40.00    -8600.00
04451             -40.00    -8600.00
04452             -40.00    -8600.00
04453               0.00    -8400.00
04454               0.00    -8400.00
04455             -40.00    -8400.00
04456             -40.00    -8200.00
04457             -40.00    -8000.00
04458               0.00    -8000.00
04459               0.00    -7800.00
04460               0.00    -7800.00
04461               0.00    -7600.00
04462             -40.00    -7200.00
04463             -40.00    -7400.00
04464             -40.00    -7200.00
04465               0.00    -7000.00
04466               0.00    -7000.00
04467               0.00    -6800.00
04468               0.00    -6600.00
04469               0.00    -6400.00
04470               0.00    -6600.00
04471               0.00    -6200.00
04472               0.00    -6200.00
04473               0.00    -6000.00
04474               0.00    -5800.00
04475               0.00    -5800.00
04476               0.00    -5400.00
04477             -40.00    -5400.00
04478               0.00    -5200.00
04479               0.00    -5200.00
04480               0.00    -5000.00
04481               0.00    -4600.00
04482             -40.00    -4600.00
04483               0.00    -4400.00
04484               0.00    -4400.00
04485               0.00    -4200.00
04486               0.00    -3800.00
04487               0.00    -3800.00
04488              40.00    -3600.00
04489               0.00    -3400.00
04490               0.00    -3200.00
04491               0.00    -3000.00
04492               0.00    -3000.00
04493              40.00    -2800.00
04494              40.00    -2600.00
04495               0.00    -2200.00
04496               0.00    -2200.00
04497               0.00    -2000.00
04498               0.00    -1800.00
04499               0.00    -1800.00
04500               0.00    -1400.00
04501              40.00    -1200.00
04502              40.00    -1200.00
04503               0.00     -800.00
04504               0.00     -800.00
04505              40.00     -600.00
04506              40.00     -200.00
04507               0.00     -200.00
04508              40.00      200.00
04509              80.00      400.00
04510              80.00      400.00
04511             160.00      600.00
04512             200.00      600.00
04513             200.00     1000.00
04514             120.00     1000.00
04515             120.00     1000.00
04516             120.00     1400.00
04517             440.00     1800.00
04518            1160.00     2000.00
04519             960.00     2000.00
04520            -280.00     2200.00
04521           -1400.00     2200.00
04522           -1800.00     2200.00
04523            -200.00     3000.00
04524            1000.00     2800.00
04525             160.00     3000.00
04526             480.00     3400.00
04527             560.00     3000.00
04528            -280.00     4000.00
04529              40.00     3800.00
04530             -40.00     3600.00
04531             160.00     4600.00
04532             480.00     4000.00
04533            -240.00     4400.00
04534               0.00     5000.00
04535              40.00     4600.00
04536            -120.00     5000.00
04537             200.00     4800.00
04538             120.00     5200.00
04539             160.00     5400.00
04540            -120.00     5200.00
04541              80.00     6000.00
04542             160.00     5800.00
04543             -80.00     6000.00
04544             120.00     6200.00
04545              80.00     6200.00
04546              40.00     6600.00
04547               0.00     6200.00
04548               0.00     6800.00
04549             120.00     7000.00
04550              80.00     6800.00
04551             120.00     7400.00
04552              40.00     7000.00
04553              40.00     7400.00
04554               0.00     7400.00
04555             120.00     7600.00
04556               0.00     7600.00
04557              40.00     7600.00
04558               0.00     8200.00
04559               0.00     8000.00
04560              80.00     8200.00
04561              80.00     8200.00
04562             120.00     8400.00
04563               0.00     8400.00
04564               0.00     8600.00
04565              40.00     8600.00
04566              40.00     8600.00
04567             120.00     9000.00
04568              40.00     9000.00
04569               0.00     9000.00
04570              40.00     9200.00
04571             120.00     9200.00
04572             120.00     9200.00
04573              80.00     9200.00
04574              40.00     9200.00
04575              40.00     9400.00
04576              40.00     9600.00
04577               0.00     9600.00
04578              80.00     9400.00
04579              40.00     9800.00
04580              80.00     9800.00
04581             120.00     9600.00
04582               0.00     9800.00
04583              40.00     9800.00
04584              40.00    10000.00
04585             120.00     9800.00
04586              40.00     9800.00
04587               0.00     9800.00
04588              40.00    10000.00
04589               0.00    10000.00
04590              40.00     9800.00
04591              40.00    10000.00
04592              40.00    10000.00
04593              40.00    10000.00
04594              40.00     9800.00
04595              40.00    10000.00
04596               0.00     9800.00
04597               0.00     9800.00
04598               0.00     9800.00
04599              40.00     9800.00
04600              40.00     9800.00
04601               0.00     9800.00
04602               0.00     9800.00
04603               0.00     9400.00
04604               0.00     9400.00
04605               0.00     9400.00
04606               0.00     9400.00
04607              40.00     9400.00
04608               0.00     9400.00
04609               0.00     9400.00
04610               0.00     9400.00
04611               0.00     9200.00
04612               0.00     9200.00
04613               0.00     9000.00
04614              40.00     9000.00
04615               0.00     9000.00
04616               0.00     8800.00
04617             -40.00     8600.00
04618               0.00     8600.00
04619              40.00     8600.00
04620              40.00     8400.00
04621               0.00     8400.00
04622               0.00     8400.00
04623             -40.00     8200.00
04624               0.00     8000.00
04625              40.00     7800.00
04626               0.00     7800.00
04627               0.00     7800.00
04628               0.00     7600.00
04629             -40.00     7400.00
04630               0.00     7400.00
04631               0.00     7200.00
04632               0.00     7000.00
04633               0.00     7000.00
04634               0.00     6800.00
04635               0.00     6800.00
04636               0.00     6600.00
04637               0.00     6600.00
04638             -40.00     6400.00
04639               0.00     6200.00
04640               0.00     6000.00
04641               0.00     5800.00
04642               0.00     5800.00
04643             -40.00     5400.00
04644             -40.00     5400.00
04645               0.00     5200.00
04646               0.00     5200.00
04647             -40.00     5000.00
04648               0.00     4600.00
04649             -40.00     4600.00
04650               0.00     4400.00
04651             -40.00     4200.00
04652               0.00     4200.00
04653               0.00     4000.00
04654               0.00     3800.00
04655             -40.00     3800.00
04656               0.00     3400.00
04657               0.00     3400.00
04658             -40.00     3200.00
04659               0.00     3000.00
04660             -40.00     3000.00
04661             -40.00     2600.00
04662             -40.00     2200.00
04663             -40.00     2200.00
04664               0.00     2000.00
04665               0.00     1800.00
04666             -40.00     1800.00
04667             -40.00     1400.00
04668             -40.00     1400.00
04669             -40.00     1000.00
04670             -40.00     1000.00
04671             -40.00      800.00
04672             -40.00      600.00
04673             -40.00      400.00
04674             -40.00      200.00
04675             -40.00        0.00
04676             -40.00     -200.00
04677               0.00     -400.00
04678              80.00     -400.00
04679             120.00     -600.00
04680              40.00    -1000.00
04681               0.00    -1000.00
04682             -40.00    -1200.00
04683               0.00    -1200.00
04684               0.00    -1400.00
04685             440.00    -1800.00
04686             960.00    -2200.00
04687             520.00    -2200.00
04688            -520.00    -2600.00
04689           -1160.00    -2600.00
04690           -1520.00    -2400.00
04691            -520.00    -2400.00
04692             600.00    -3200.00
04693             120.00    -3000.00
04694             280.00    -3400.00
04695             440.00    -3600.00
04696            -160.00    -3400.00
04697             120.00    -3800.00
04698             -40.00    -4200.00
04699            -160.00    -4200.00
04700             280.00    -4400.00
04701             -40.00    -4400.00
04702            -280.00    -4800.00
04703            -200.00    -4800.00
04704             -80.00    -5000.00
04705             -40.00    -5400.00
04706             -40.00    -5200.00
04707              40.00    -5600.00
04708            -160.00    -5800.00
04709             -40.00    -5800.00
04710             120.00    -6000.00
04711            -120.00    -5800.00
04712             -40.00    -6200.00
04713             -40.00    -6200.00
04714             -40.00    -6400.00
04715            -120.00    -6800.00
04716            -120.00    -6600.00
04717               0.00    -6800.00
04718               0.00    -6800.00
04719             -80.00    -7200.00
04720             -80.00    -7200.00
04721             -40.00    -7400.00
04722             -40.00    -7600.00
04723               0.00    -7600.00
04724             -40.00    -7600.00
04725            -120.00    -7800.00
04726            -120.00    -8000.00
04727             -40.00    -8200.00
04728               0.00    -8200.00
04729             -40.00    -8400.00
04730             -40.00    -8400.00
04731             -40.00    -8400.00
04732            -120.00    -8600.00
04733            -120.00    -8800.00
04734             -40.00    -8800.00
04735            -120.00    -9000.00
04736            -120.00    -9000.00
04737            -120.00    -8800.00
04738            -120.00    -9000.00
04739             -40.00    -9200.00
04740               0.00    -9200.00
04741             -40.00    -9400.00
04742            -120.00    -9400.00
04743            -120.00    -9400.00
04744             -80.00    -9400.00
04745            -120.00    -9400.00
04746            -120.00    -9600.00
04747             -40.00    -9400.00
04748             -40.00    -9800.00
04749             -40.00    -9800.00
04750            -120.00    -9800.00
04751            -120.00    -9800.00
04752             -40.00    -9800.00
04753             -40.00    -9800.00
04754             -40.00    -9800.00
04755             -40.00    -9800.00
04756             -40.00    -9800.00
04757             -40.00    -9800.00
04758             -40.00    -9800.00
04759             -40.00    -9800.00
04760             -40.00    -9800.00
04761             -40.00    -9800.00
04762             -40.00    -9800.00
04763             -40.00    -9800.00
04764             -40.00    -9800.00
04765             -80.00    -9800.00
04766             -40.00    -9800.00
04767             -40.00    -9800.00
04768               0.00    -9800.00
04769             -40.00    -9400.00
04770             -80.00    -9600.00
04771             -40.00    -9400.00
04772             -40.00    -9400.00
04773             -40.00    -9400.00
04774             -40.00    -9400.00
04775               0.00    -9400.00
04776             -40.00    -9400.00
04777             -40.00    -9200.00
04778             -40.00    -9200.00
04779               0.00    -9000.00
04780               0.00    -9200.00
04781               0.00    -9000.00
04782               0.00    -8800.00
04783             -40.00    -9000.00
04784             -40.00    -8800.00
04785             -40.00    -8600.00
04786             -40.00    -8600.00
04787             -40.00    -8600.00
04788               0.00    -8200.00
04789               0.00    -8200.00
04790               0.00    -8200.00
04791             -40.00    -8200.00
04792             -80.00    -7800.00
04793             -40.00    -7800.00
04794               0.00    -7600.00
04795              40.00    -7600.00
04796               0.00    -7600.00
04797             -40.00    -7200.00
04798             -40.00    -7200.00
04799               0.00    -7200.00
04800              40.00    -7000.00
04801               0.00    -7000.00
04802               0.00    -6800.00
04803             -40.00    -6600.00
04804             -80.00    -6600.00
04805             -40.00    -6400.00
04806               0.00    -6200.00
04807               0.00    -6200.00
04808               0.00    -5800.00
04809             -40.00    -5800.00
04810             -40.00    -5800.00
04811               0.00    -5400.00
04812               0.00    -5400.00
04813               0.00    -5000.00
04814             -40.00    -5200.00
04815               0.00    -4800.00
04816             -40.00    -4600.00
04817             -40.00    -4600.00
04818               0.00    -4200.00
04819               0.00    -4200.00
04820             -40.00    -4000.00
04821               0.00    -3800.00
04822               0.00    -3600.00
04823               0.00    -3400.00
04824               0.00    -3400.00
04825              40.00    -3200.00
04826               0.00    -3000.00
04827               0.00    -2800.00
04828               0.00    -2600.00
04829               0.00    -2400.00
04830               0.00    -2200.00
04831               0.00    -2000.00
04832               0.00    -1800.00
04833               0.00    -1800.00
04834              40.00    -1600.00
04835              40.00    -1400.00
04836               0.00    -1200.00
04837               0.00     -800.00
04838              40.00     -800.00
04839               0.00     -600.00
04840              40.00     -400.00
04841              40.00     -200.00
04842              40.00        0.00
04843              40.00      200.00
04844              40.00      400.00
04845             160.00      400.00
04846             200.00      600.00
04847             200.00      800.00
04848             160.00     1000.00
04849             120.00     1200.00
04850             120.00     1200.00
04851             160.00     1400.00
04852             800.00     1800.00
04853            1280.00     2000.00
04854             480.00     2000.00
04855            -920.00     2200.00
04856           -1760.00     2200.00
04857           -1320.00     2800.00
04858             680.00     3000.00
04859             640.00     2800.00
04860             160.00     3400.00
04861             680.00     3200.00
04862              80.00     3400.00
04863            -160.00     4200.00
04864             120.00     3400.00
04865            -120.00     4200.00
04866             480.00     4400.00
04867             120.00     3800.00
04868            -240.00     4800.00
04869             160.00     4600.00
04870            -160.00     4600.00
04871              40.00     5200.00
04872             160.00     4800.00
04873             120.00     5600.00
04874              40.00     5200.00
04875             -80.00     5600.00
04876             280.00     6000.00
04877               0.00     5600.00
04878             -40.00     6200.00
04879             120.00     6000.00
04880              40.00     6200.00
04881              40.00     6600.00
04882               0.00     6600.00
04883             120.00     7000.00
04884             120.00     6600.00
04885             120.00     7000.00
04886              40.00     7000.00
04887               0.00     7400.00
04888              40.00     7400.00
04889              80.00     7400.00
04890             120.00     7800.00
04891              40.00     7600.00
04892              40.00     8000.00
04893               0.00     7800.00
04894              40.00     8000.00
04895             120.00     8200.00
04896             120.00     8200.00
04897              40.00     8400.00
04898               0.00     8400.00
04899              40.00     8600.00
04900              40.00     8600.00
04901              80.00     9000.00
04902             120.00     9000.00
04903              40.00     9000.00
04904              40.00     9000.00
04905             120.00     9000.00
04906             120.00     9400.00
04907              40.00     9400.00
04908              40.00     9200.00
04909              40.00     9400.00
04910              40.00     9400.00
04911               0.00     9400.00
04912              40.00     9600.00
04913              80.00     9400.00
04914              40.00     9600.00
04915              40.00     9800.00
04916              80.00     9800.00
04917               0.00    10000.00
04918               0.00     9800.00
04919              40.00     9800.00
04920              40.00     9800.00
04921              40.00     9800.00
04922              40.00     9800.00
04923              40.00     9800.00
04924              40.00    10000.00
04925              40.00     9800.00
04926              40.00    10000.00
04927              40.00     9800.00
04928              40.00    10000.00
04929              40.00    10000.00
04930               0.00     9800.00
04931               0.00     9800.00
04932               0.00     9800.00
04933              40.00     9800.00
04934              40.00     9800.00
04935               0.00     9800.00
04936              40.00     9800.00
04937               0.00     9600.00
04938               0.00     9800.00
04939               0.00     9600.00
04940               0.00     9600.00
04941              40.00     9400.00
04942               0.00     9400.00
04943               0.00     9400.00
04944               0.00     9400.00
04945               0.00     9200.00
04946               0.00     9200.00
04947               0.00     9200.00
04948               0.00     9000.00
04949               0.00     8800.00
04950              40.00     8800.00
04951               0.00     8600.00
04952               0.00     8600.00
04953              40.00     8600.00
04954               0.00     8600.00
04955               0.00     8400.00
04956               0.00     8200.00
04957               0.00     8200.00
04958               0.00     8200.00
04959               0.00     8200.00
04960               0.00     7800.00
04961               0.00     7800.00
04962              40.00     7600.00
04963               0.00     7600.00
04964             -40.00     7400.00
04965               0.00     7200.00
04966               0.00     7200.00
04967               0.00     7000.00
04968               0.00     7000.00
04969               0.00     6800.00
04970               0.00     6600.00
04971               0.00     6400.00
04972               0.00     6200.00
04973               0.00     6200.00
04974               0.00     6000.00
04975               0.00     5800.00
04976               0.00     5800.00
04977               0.00     5800.00
04978               0.00     5400.00
04979               0.00     5400.00
04980               0.00     5200.00
04981               0.00     5000.00
04982             -40.00     5000.00
04983               0.00     4600.00
04984               0.00     4600.00
04985               0.00     4400.00
04986               0.00     4200.00
04987               0.00     4200.00
04988               0.00     3800.00
04989             -40.00     3800.00
04990               0.00     3400.00
04991             -40.00     3400.00
04992             -40.00     3400.00
04993             -40.00     3000.00
04994               0.00     3000.00
04995             -40.00     2800.00
04996             -40.00     2400.00
04997             -40.00     2200.00
04998             -40.00     2200.00
04999             -40.00     1800.00
05000             -40.00     1800.00
