Unit:(mV)
                     CH1         CH2
Frequency              ? 298.890 kHz
00001              80.00    -1120.00
00002             500.00    -1280.00
00003             980.00    -1680.00
00004             540.00    -1840.00
00005            -560.00    -1840.00
00006           -1600.00    -2000.00
00007           -1280.00    -1760.00
00008             540.00    -2160.00
00009             620.00    -2480.00
00010            -160.00    -2080.00
00011             440.00    -2960.00
00012             380.00    -2720.00
00013             -80.00    -2400.00
00014             160.00    -3280.00
00015            -140.00    -3120.00
00016             140.00    -2960.00
00017             460.00    -3440.00
00018            -220.00    -3600.00
00019            -100.00    -3600.00
00020             100.00    -3680.00
00021             -60.00    -3760.00
00022             220.00    -4160.00
00023             220.00    -3920.00
00024             -20.00    -4240.00
00025              20.00    -4480.00
00026             240.00    -4320.00
00027             220.00    -4560.00
00028             -60.00    -4800.00
00029             160.00    -4880.00
00030             260.00    -4880.00
00031              60.00    -4960.00
00032              80.00    -5280.00
00033             140.00    -5120.00
00034             220.00    -5200.00
00035             160.00    -5600.00
00036             160.00    -5440.00
00037             180.00    -5600.00
00038             160.00    -5680.00
00039             220.00    -5840.00
00040             240.00    -5840.00
00041             160.00    -5920.00
00042             160.00    -6160.00
00043             240.00    -6080.00
00044             260.00    -6240.00
00045             220.00    -6480.00
00046             240.00    -6320.00
00047             260.00    -6480.00
00048             220.00    -6560.00
00049             240.00    -6640.00
00050             320.00    -6560.00
00051             300.00    -6720.00
00052             320.00    -6880.00
00053             320.00    -6800.00
00054             280.00    -6880.00
00055             300.00    -6960.00
00056             380.00    -6960.00
00057             400.00    -7040.00
00058             400.00    -7120.00
00059             400.00    -7200.00
00060             400.00    -7200.00
00061             400.00    -7280.00
00062             420.00    -7280.00
00063             480.00    -7280.00
00064             500.00    -7280.00
00065             500.00    -7440.00
00066             500.00    -7440.00
00067             540.00    -7440.00
00068             540.00    -7440.00
00069             580.00    -7520.00
00070             640.00    -7520.00
00071             640.00    -7520.00
00072             660.00    -7600.00
00073             720.00    -7520.00
00074             720.00    -7600.00
00075             740.00    -7520.00
00076             780.00    -7600.00
00077             860.00    -7520.00
00078             880.00    -7520.00
00079             880.00    -7520.00
00080             940.00    -7520.00
00081             960.00    -7440.00
00082             980.00    -7440.00
00083            1040.00    -7440.00
00084            1060.00    -7440.00
00085            1100.00    -7440.00
00086            1100.00    -7440.00
00087            1100.00    -7280.00
00088            1080.00    -7280.00
00089            1120.00    -7280.00
00090            1240.00    -7200.00
00091            1280.00    -7200.00
00092            1300.00    -7200.00
00093            1260.00    -7200.00
00094            1180.00    -6960.00
00095            1100.00    -7120.00
00096            1020.00    -6960.00
00097            1100.00    -6880.00
00098            1120.00    -6880.00
00099            1180.00    -6800.00
00100            1160.00    -6800.00
00101            1120.00    -6640.00
00102            1040.00    -6640.00
00103            1020.00    -6480.00
00104             960.00    -6480.00
00105             900.00    -6320.00
00106             860.00    -6320.00
00107             840.00    -6240.00
00108             800.00    -6160.00
00109             800.00    -6000.00
00110             780.00    -6000.00
00111             780.00    -5840.00
00112             700.00    -5840.00
00113             640.00    -5680.00
00114             620.00    -5520.00
00115             560.00    -5520.00
00116             540.00    -5440.00
00117             500.00    -5280.00
00118             460.00    -5200.00
00119             420.00    -5040.00
00120             440.00    -4960.00
00121             440.00    -4880.00
00122             420.00    -4800.00
00123             400.00    -4720.00
00124             380.00    -4560.00
00125             340.00    -4480.00
00126             300.00    -4400.00
00127             260.00    -4240.00
00128             240.00    -4080.00
00129             260.00    -4000.00
00130             300.00    -3920.00
00131             300.00    -3760.00
00132             260.00    -3680.00
00133             220.00    -3520.00
00134             180.00    -3440.00
00135             160.00    -3280.00
00136             180.00    -3120.00
00137             180.00    -2960.00
00138             200.00    -2880.00
00139             180.00    -2720.00
00140             180.00    -2560.00
00141             160.00    -2480.00
00142             160.00    -2320.00
00143             140.00    -2160.00
00144             140.00    -2080.00
00145             140.00    -2000.00
00146             140.00    -1840.00
00147             100.00    -1680.00
00148             100.00    -1520.00
00149             100.00    -1360.00
00150             120.00    -1200.00
00151             100.00    -1120.00
00152              80.00     -960.00
00153              80.00     -800.00
00154              80.00     -720.00
00155              80.00     -480.00
00156              80.00     -320.00
00157              80.00     -240.00
00158              80.00      -80.00
00159              40.00       80.00
00160              60.00      240.00
00161              80.00      320.00
00162             140.00      480.00
00163             180.00      480.00
00164             160.00      720.00
00165             120.00      800.00
00166              80.00      880.00
00167              80.00     1040.00
00168             140.00     1200.00
00169             740.00     1440.00
00170            1180.00     1680.00
00171             360.00     1840.00
00172           -1140.00     1760.00
00173           -2180.00     1600.00
00174            -540.00     2240.00
00175            1260.00     2400.00
00176              20.00     2240.00
00177            -140.00     2480.00
00178             820.00     2320.00
00179            -160.00     3040.00
00180            -400.00     3120.00
00181             100.00     2320.00
00182             -80.00     3440.00
00183             380.00     3600.00
00184            -140.00     2720.00
00185            -420.00     3760.00
00186             300.00     4000.00
00187            -320.00     3360.00
00188            -240.00     4080.00
00189             380.00     4000.00
00190            -220.00     4160.00
00191            -220.00     4320.00
00192               0.00     4080.00
00193             -20.00     4880.00
00194            -100.00     4400.00
00195            -260.00     4560.00
00196              60.00     5200.00
00197            -120.00     4720.00
00198            -260.00     5200.00
00199             -60.00     5200.00
00200            -180.00     5280.00
00201             -60.00     5520.00
00202            -100.00     5200.00
00203            -160.00     5840.00
00204            -160.00     5600.00
00205            -260.00     5680.00
00206            -100.00     6080.00
00207            -180.00     5760.00
00208            -220.00     6160.00
00209            -180.00     6160.00
00210            -240.00     6240.00
00211            -220.00     6320.00
00212            -180.00     6320.00
00213            -180.00     6640.00
00214            -280.00     6480.00
00215            -300.00     6640.00
00216            -260.00     6800.00
00217            -260.00     6640.00
00218            -260.00     6800.00
00219            -260.00     6960.00
00220            -320.00     6960.00
00221            -380.00     6880.00
00222            -300.00     6960.00
00223            -300.00     7120.00
00224            -380.00     7120.00
00225            -380.00     7120.00
00226            -380.00     7280.00
00227            -420.00     7360.00
00228            -480.00     7200.00
00229            -420.00     7440.00
00230            -420.00     7440.00
00231            -460.00     7440.00
00232            -480.00     7440.00
00233            -500.00     7520.00
00234            -580.00     7520.00
00235            -580.00     7440.00
00236            -540.00     7600.00
00237            -580.00     7600.00
00238            -660.00     7520.00
00239            -660.00     7600.00
00240            -700.00     7600.00
00241            -740.00     7600.00
00242            -740.00     7600.00
00243            -740.00     7600.00
00244            -820.00     7600.00
00245            -860.00     7600.00
00246            -880.00     7600.00
00247            -940.00     7600.00
00248           -1020.00     7520.00
00249            -980.00     7600.00
00250            -980.00     7520.00
00251           -1040.00     7520.00
00252           -1060.00     7440.00
00253           -1120.00     7440.00
00254           -1140.00     7440.00
00255           -1140.00     7360.00
00256           -1140.00     7360.00
00257           -1180.00     7360.00
00258           -1180.00     7280.00
00259           -1180.00     7360.00
00260           -1180.00     7200.00
00261           -1200.00     7120.00
00262           -1180.00     7120.00
00263           -1160.00     7040.00
00264           -1140.00     7040.00
00265           -1120.00     6960.00
00266           -1120.00     6880.00
00267           -1120.00     6800.00
00268           -1100.00     6720.00
00269           -1020.00     6720.00
00270            -980.00     6560.00
00271            -980.00     6560.00
00272            -940.00     6480.00
00273            -920.00     6400.00
00274            -880.00     6320.00
00275            -860.00     6240.00
00276            -800.00     6160.00
00277            -780.00     6080.00
00278            -720.00     6000.00
00279            -660.00     5840.00
00280            -640.00     5840.00
00281            -640.00     5680.00
00282            -580.00     5520.00
00283            -560.00     5520.00
00284            -540.00     5520.00
00285            -480.00     5280.00
00286            -480.00     5200.00
00287            -460.00     5120.00
00288            -460.00     5040.00
00289            -420.00     4880.00
00290            -400.00     4800.00
00291            -340.00     4640.00
00292            -320.00     4560.00
00293            -320.00     4400.00
00294            -340.00     4320.00
00295            -320.00     4240.00
00296            -320.00     4080.00
00297            -260.00     3920.00
00298            -240.00     3840.00
00299            -240.00     3760.00
00300            -240.00     3600.00
00301            -240.00     3520.00
00302            -240.00     3360.00
00303            -220.00     3200.00
00304            -180.00     3040.00
00305            -180.00     2960.00
00306            -160.00     2800.00
00307            -160.00     2720.00
00308            -160.00     2560.00
00309            -160.00     2400.00
00310            -160.00     2320.00
00311            -140.00     2160.00
00312            -140.00     2000.00
00313            -140.00     1840.00
00314            -140.00     1760.00
00315            -120.00     1680.00
00316            -100.00     1440.00
00317            -100.00     1360.00
00318            -100.00     1200.00
00319            -100.00     1040.00
00320            -100.00      880.00
00321             -80.00      720.00
00322             -80.00      560.00
00323             -80.00      480.00
00324             -80.00      320.00
00325             -60.00      240.00
00326             -60.00       80.00
00327             -20.00      -80.00
00328             -20.00     -240.00
00329              60.00     -320.00
00330              80.00     -400.00
00331              80.00     -560.00
00332              40.00     -720.00
00333              20.00     -880.00
00334               0.00     -960.00
00335              20.00    -1120.00
00336             220.00    -1200.00
00337             780.00    -1520.00
00338             880.00    -1760.00
00339              60.00    -1840.00
00340           -1040.00    -2000.00
00341           -1740.00    -1840.00
00342            -460.00    -1840.00
00343             940.00    -2480.00
00344              80.00    -2160.00
00345              20.00    -2400.00
00346             640.00    -3040.00
00347              60.00    -2320.00
00348              80.00    -2800.00
00349              80.00    -3440.00
00350            -160.00    -2880.00
00351             420.00    -3280.00
00352             200.00    -3600.00
00353            -320.00    -3600.00
00354              80.00    -3600.00
00355             -20.00    -3680.00
00356             -20.00    -4000.00
00357             300.00    -4080.00
00358              80.00    -3920.00
00359             -40.00    -4400.00
00360             140.00    -4400.00
00361             300.00    -4320.00
00362              60.00    -4640.00
00363               0.00    -4720.00
00364             260.00    -4880.00
00365             160.00    -4800.00
00366              60.00    -5200.00
00367             100.00    -5200.00
00368             180.00    -5040.00
00369             200.00    -5440.00
00370             140.00    -5520.00
00371             180.00    -5440.00
00372             160.00    -5680.00
00373             140.00    -5840.00
00374             240.00    -5920.00
00375             220.00    -5840.00
00376             140.00    -6080.00
00377             180.00    -6160.00
00378             240.00    -6080.00
00379             220.00    -6320.00
00380             220.00    -6320.00
00381             300.00    -6320.00
00382             260.00    -6480.00
00383             220.00    -6560.00
00384             260.00    -6640.00
00385             320.00    -6640.00
00386             300.00    -6800.00
00387             300.00    -6880.00
00388             320.00    -6800.00
00389             300.00    -6960.00
00390             320.00    -7040.00
00391             400.00    -7040.00
00392             420.00    -7120.00
00393             380.00    -7200.00
00394             400.00    -7200.00
00395             400.00    -7200.00
00396             400.00    -7280.00
00397             460.00    -7360.00
00398             480.00    -7280.00
00399             500.00    -7280.00
00400             540.00    -7440.00
00401             540.00    -7440.00
00402             540.00    -7440.00
00403             540.00    -7440.00
00404             620.00    -7440.00
00405             640.00    -7520.00
00406             640.00    -7520.00
00407             660.00    -7520.00
00408             720.00    -7520.00
00409             740.00    -7520.00
00410             760.00    -7600.00
00411             820.00    -7520.00
00412             860.00    -7520.00
00413             860.00    -7520.00
00414             940.00    -7520.00
00415             960.00    -7440.00
00416             960.00    -7440.00
00417             980.00    -7440.00
00418            1040.00    -7440.00
00419            1100.00    -7440.00
00420            1100.00    -7440.00
00421            1120.00    -7280.00
00422            1140.00    -7280.00
00423            1120.00    -7280.00
00424            1140.00    -7200.00
00425            1200.00    -7200.00
00426            1180.00    -7200.00
00427            1180.00    -7120.00
00428            1180.00    -7040.00
00429            1180.00    -7040.00
00430            1180.00    -7040.00
00431            1180.00    -6960.00
00432            1160.00    -6880.00
00433            1120.00    -6880.00
00434            1100.00    -6800.00
00435            1060.00    -6640.00
00436            1020.00    -6640.00
00437            1020.00    -6560.00
00438            1020.00    -6480.00
00439             960.00    -6480.00
00440             900.00    -6320.00
00441             860.00    -6240.00
00442             820.00    -6160.00
00443             780.00    -6000.00
00444             780.00    -6000.00
00445             740.00    -5920.00
00446             700.00    -5920.00
00447             640.00    -5840.00
00448             620.00    -5600.00
00449             580.00    -5520.00
00450             560.00    -5440.00
00451             540.00    -5360.00
00452             540.00    -5280.00
00453             500.00    -5200.00
00454             420.00    -5040.00
00455             440.00    -4880.00
00456             400.00    -4880.00
00457             400.00    -4720.00
00458             380.00    -4640.00
00459             360.00    -4560.00
00460             340.00    -4400.00
00461             300.00    -4320.00
00462             300.00    -4240.00
00463             280.00    -4000.00
00464             260.00    -3920.00
00465             240.00    -3840.00
00466             260.00    -3760.00
00467             240.00    -3520.00
00468             220.00    -3440.00
00469             180.00    -3280.00
00470             180.00    -3200.00
00471             200.00    -3040.00
00472             180.00    -2880.00
00473             180.00    -2800.00
00474             180.00    -2720.00
00475             160.00    -2480.00
00476             140.00    -2400.00
00477             140.00    -2320.00
00478             140.00    -2160.00
00479             120.00    -2000.00
00480             140.00    -1920.00
00481             140.00    -1680.00
00482             100.00    -1600.00
00483              80.00    -1440.00
00484             120.00    -1360.00
00485             120.00    -1200.00
00486              80.00    -1040.00
00487              80.00     -960.00
00488              80.00     -800.00
00489              60.00     -640.00
00490              60.00     -480.00
00491              80.00     -320.00
00492              80.00     -160.00
00493              80.00      -80.00
00494              60.00       80.00
00495              60.00      240.00
00496              80.00      320.00
00497             160.00      480.00
00498             180.00      640.00
00499             140.00      720.00
00500              80.00      880.00
00501              20.00     1040.00
00502              40.00     1200.00
00503             300.00     1360.00
00504            1100.00     1520.00
00505             980.00     1680.00
00506            -240.00     1760.00
00507           -1800.00     1680.00
00508           -1820.00     1840.00
00509             500.00     2400.00
00510             940.00     2320.00
00511            -400.00     2400.00
00512             400.00     2400.00
00513             600.00     2480.00
00514            -500.00     3360.00
00515            -100.00     2640.00
00516               0.00     2640.00
00517              60.00     3920.00
00518             300.00     3040.00
00519            -480.00     2960.00
00520            -100.00     4240.00
00521             180.00     3520.00
00522            -500.00     3600.00
00523             160.00     4160.00
00524             160.00     3920.00
00525            -320.00     4400.00
00526             -60.00     4080.00
00527             -60.00     4400.00
00528               0.00     4880.00
00529            -240.00     4240.00
00530            -140.00     4960.00
00531             100.00     4960.00
00532            -300.00     4720.00
00533            -120.00     5280.00
00534            -100.00     5120.00
00535            -160.00     5360.00
00536             -80.00     5280.00
00537            -180.00     5360.00
00538            -140.00     5840.00
00539            -200.00     5440.00
00540            -160.00     5920.00
00541             -80.00     5920.00
00542            -240.00     5920.00
00543            -180.00     6160.00
00544            -240.00     6080.00
00545            -260.00     6320.00
00546            -240.00     6240.00
00547            -160.00     6480.00
00548            -220.00     6560.00
00549            -300.00     6480.00
00550            -260.00     6720.00
00551            -260.00     6640.00
00552            -280.00     6720.00
00553            -260.00     6800.00
00554            -280.00     6880.00
00555            -380.00     6960.00
00556            -340.00     6960.00
00557            -300.00     7120.00
00558            -340.00     7120.00
00559            -340.00     7120.00
00560            -340.00     7280.00
00561            -380.00     7360.00
00562            -460.00     7280.00
00563            -460.00     7360.00
00564            -440.00     7440.00
00565            -480.00     7360.00
00566            -480.00     7440.00
00567            -480.00     7520.00
00568            -540.00     7520.00
00569            -600.00     7520.00
00570            -560.00     7520.00
00571            -560.00     7600.00
00572            -620.00     7520.00
00573            -660.00     7520.00
00574            -660.00     7600.00
00575            -720.00     7600.00
00576            -780.00     7600.00
00577            -760.00     7600.00
00578            -800.00     7600.00
00579            -840.00     7600.00
00580            -860.00     7600.00
00581            -900.00     7680.00
00582            -960.00     7520.00
00583            -980.00     7520.00
00584            -980.00     7600.00
00585           -1020.00     7520.00
00586           -1060.00     7520.00
00587           -1060.00     7440.00
00588           -1100.00     7440.00
00589           -1140.00     7440.00
00590           -1140.00     7360.00
00591           -1160.00     7440.00
00592           -1140.00     7360.00
00593           -1180.00     7280.00
00594           -1140.00     7280.00
00595           -1200.00     7200.00
00596           -1200.00     7120.00
00597           -1180.00     7120.00
00598           -1140.00     7040.00
00599           -1140.00     6960.00
00600           -1120.00     6880.00
00601           -1120.00     6880.00
00602           -1120.00     6800.00
00603           -1060.00     6720.00
00604            -980.00     6720.00
00605            -980.00     6560.00
00606            -960.00     6480.00
00607            -940.00     6480.00
00608            -900.00     6320.00
00609            -880.00     6320.00
00610            -860.00     6160.00
00611            -780.00     6080.00
00612            -740.00     6000.00
00613            -700.00     5920.00
00614            -660.00     5840.00
00615            -640.00     5760.00
00616            -620.00     5680.00
00617            -580.00     5520.00
00618            -540.00     5520.00
00619            -500.00     5360.00
00620            -500.00     5280.00
00621            -480.00     5200.00
00622            -460.00     5040.00
00623            -420.00     4960.00
00624            -400.00     4880.00
00625            -400.00     4720.00
00626            -360.00     4640.00
00627            -320.00     4560.00
00628            -320.00     4400.00
00629            -320.00     4320.00
00630            -320.00     4160.00
00631            -260.00     4080.00
00632            -260.00     3920.00
00633            -260.00     3760.00
00634            -260.00     3680.00
00635            -260.00     3520.00
00636            -240.00     3440.00
00637            -240.00     3280.00
00638            -180.00     3120.00
00639            -180.00     3040.00
00640            -160.00     2880.00
00641            -160.00     2800.00
00642            -180.00     2640.00
00643            -180.00     2480.00
00644            -160.00     2400.00
00645            -160.00     2240.00
00646            -140.00     2160.00
00647            -140.00     2000.00
00648            -140.00     1840.00
00649            -120.00     1680.00
00650            -100.00     1520.00
00651            -100.00     1440.00
00652             -80.00     1280.00
00653            -100.00     1120.00
00654            -100.00      960.00
00655            -100.00      880.00
00656            -100.00      720.00
00657             -80.00      560.00
00658             -60.00      480.00
00659             -60.00      240.00
00660             -20.00      160.00
00661             -60.00       80.00
00662             -20.00      -80.00
00663               0.00     -240.00
00664              60.00     -400.00
00665              80.00     -480.00
00666              20.00     -560.00
00667              20.00     -800.00
00668              20.00     -880.00
00669              20.00    -1040.00
00670              80.00    -1200.00
00671             420.00    -1280.00
00672             940.00    -1680.00
00673             620.00    -1840.00
00674            -400.00    -1840.00
00675           -1460.00    -2000.00
00676           -1420.00    -1760.00
00677             360.00    -2160.00
00678             740.00    -2480.00
00679            -180.00    -2080.00
00680             380.00    -2800.00
00681             480.00    -2800.00
00682            -100.00    -2240.00
00683             160.00    -3200.00
00684            -100.00    -3280.00
00685              60.00    -2880.00
00686             500.00    -3440.00
00687            -160.00    -3600.00
00688            -160.00    -3600.00
00689             100.00    -3600.00
00690             -20.00    -3760.00
00691             180.00    -4160.00
00692             260.00    -3920.00
00693             -20.00    -4160.00
00694             -20.00    -4560.00
00695             220.00    -4320.00
00696             240.00    -4480.00
00697             -20.00    -4720.00
00698             100.00    -4800.00
00699             260.00    -4880.00
00700              60.00    -4880.00
00701              60.00    -5360.00
00702             140.00    -5040.00
00703             200.00    -5200.00
00704             180.00    -5520.00
00705             160.00    -5440.00
00706             220.00    -5520.00
00707             140.00    -5680.00
00708             180.00    -5840.00
00709             260.00    -5840.00
00710             160.00    -5920.00
00711             140.00    -6160.00
00712             220.00    -6080.00
00713             240.00    -6160.00
00714             220.00    -6320.00
00715             260.00    -6320.00
00716             280.00    -6400.00
00717             220.00    -6480.00
00718             220.00    -6560.00
00719             300.00    -6640.00
00720             300.00    -6720.00
00721             320.00    -6880.00
00722             320.00    -6800.00
00723             300.00    -6800.00
00724             280.00    -6960.00
00725             360.00    -7040.00
00726             420.00    -7040.00
00727             400.00    -7120.00
00728             380.00    -7120.00
00729             420.00    -7120.00
00730             400.00    -7200.00
00731             400.00    -7280.00
00732             480.00    -7280.00
00733             500.00    -7280.00
00734             500.00    -7440.00
00735             540.00    -7440.00
00736             560.00    -7440.00
00737             540.00    -7520.00
00738             560.00    -7520.00
00739             640.00    -7520.00
00740             640.00    -7520.00
00741             660.00    -7520.00
00742             720.00    -7520.00
00743             740.00    -7520.00
00744             720.00    -7600.00
00745             740.00    -7600.00
00746             820.00    -7520.00
00747             860.00    -7520.00
00748             900.00    -7520.00
00749             960.00    -7440.00
00750             980.00    -7440.00
00751             960.00    -7520.00
00752            1020.00    -7440.00
00753            1060.00    -7440.00
00754            1100.00    -7360.00
00755            1100.00    -7440.00
00756            1120.00    -7280.00
00757            1120.00    -7280.00
00758            1140.00    -7280.00
00759            1180.00    -7200.00
00760            1200.00    -7120.00
00761            1180.00    -7120.00
00762            1180.00    -7120.00
00763            1180.00    -7040.00
00764            1120.00    -7120.00
00765            1160.00    -6960.00
00766            1180.00    -6880.00
00767            1140.00    -6880.00
00768            1120.00    -6800.00
00769            1080.00    -6800.00
00770            1060.00    -6640.00
00771            1020.00    -6560.00
00772            1020.00    -6560.00
00773             980.00    -6480.00
00774             940.00    -6400.00
00775             880.00    -6320.00
00776             860.00    -6320.00
00777             800.00    -6160.00
00778             780.00    -6080.00
00779             780.00    -6000.00
00780             740.00    -5920.00
00781             700.00    -5840.00
00782             640.00    -5680.00
00783             620.00    -5600.00
00784             560.00    -5440.00
00785             540.00    -5360.00
00786             540.00    -5360.00
00787             500.00    -5200.00
00788             460.00    -5120.00
00789             460.00    -4960.00
00790             420.00    -4880.00
00791             400.00    -4800.00
00792             380.00    -4720.00
00793             380.00    -4560.00
00794             340.00    -4480.00
00795             320.00    -4400.00
00796             300.00    -4320.00
00797             300.00    -4080.00
00798             260.00    -4000.00
00799             260.00    -3920.00
00800             280.00    -3760.00
00801             260.00    -3680.00
00802             220.00    -3520.00
00803             220.00    -3360.00
00804             180.00    -3280.00
00805             180.00    -3120.00
00806             220.00    -3040.00
00807             200.00    -2800.00
00808             180.00    -2800.00
00809             160.00    -2640.00
00810             160.00    -2480.00
00811             160.00    -2320.00
00812             160.00    -2240.00
00813             160.00    -2080.00
00814             140.00    -2000.00
00815             120.00    -1760.00
00816             100.00    -1680.00
00817             100.00    -1440.00
00818             100.00    -1360.00
00819             100.00    -1200.00
00820              80.00    -1040.00
00821             100.00     -960.00
00822              80.00     -880.00
00823              80.00     -720.00
00824              60.00     -560.00
00825              60.00     -480.00
00826              60.00     -240.00
00827              60.00      -80.00
00828              60.00       80.00
00829              60.00      160.00
00830              80.00      320.00
00831             140.00      400.00
00832             160.00      560.00
00833             160.00      640.00
00834             100.00      720.00
00835              80.00      880.00
00836              60.00     1040.00
00837             100.00     1200.00
00838             620.00     1360.00
00839            1180.00     1600.00
00840             500.00     1840.00
00841            -940.00     1840.00
00842           -2180.00     1600.00
00843            -880.00     2160.00
00844            1200.00     2400.00
00845             220.00     2240.00
00846            -260.00     2480.00
00847             800.00     2240.00
00848               0.00     2960.00
00849            -480.00     3280.00
00850              60.00     2400.00
00851             -80.00     3280.00
00852             320.00     3680.00
00853               0.00     2720.00
00854            -500.00     3680.00
00855             240.00     4080.00
00856            -220.00     3280.00
00857            -340.00     4000.00
00858             380.00     4000.00
00859            -160.00     4080.00
00860            -240.00     4400.00
00861               0.00     4080.00
00862             -20.00     4880.00
00863             -60.00     4560.00
00864            -260.00     4400.00
00865              60.00     5200.00
00866             -60.00     4720.00
00867            -260.00     5040.00
00868             -60.00     5280.00
00869            -180.00     5200.00
00870             -80.00     5520.00
00871             -80.00     5200.00
00872            -160.00     5680.00
00873            -140.00     5680.00
00874            -240.00     5600.00
00875            -100.00     6000.00
00876            -160.00     5840.00
00877            -220.00     6080.00
00878            -180.00     6080.00
00879            -240.00     6240.00
00880            -240.00     6320.00
00881            -160.00     6240.00
00882            -160.00     6560.00
00883            -260.00     6480.00
00884            -300.00     6560.00
00885            -260.00     6800.00
00886            -260.00     6720.00
00887            -280.00     6800.00
00888            -240.00     6880.00
00889            -320.00     6960.00
00890            -340.00     6960.00
00891            -320.00     7040.00
00892            -320.00     7120.00
00893            -340.00     7120.00
00894            -380.00     7120.00
00895            -400.00     7280.00
00896            -420.00     7360.00
00897            -480.00     7280.00
00898            -460.00     7360.00
00899            -460.00     7440.00
00900            -480.00     7440.00
00901            -460.00     7520.00
00902            -480.00     7520.00
00903            -580.00     7520.00
00904            -620.00     7520.00
00905            -560.00     7600.00
00906            -580.00     7600.00
00907            -640.00     7520.00
00908            -660.00     7600.00
00909            -660.00     7600.00
00910            -740.00     7600.00
00911            -780.00     7600.00
00912            -780.00     7600.00
00913            -800.00     7600.00
00914            -820.00     7520.00
00915            -860.00     7600.00
00916            -900.00     7600.00
00917            -960.00     7520.00
00918           -1020.00     7520.00
00919           -1020.00     7600.00
00920           -1060.00     7520.00
00921           -1060.00     7520.00
00922           -1060.00     7440.00
00923           -1120.00     7440.00
00924           -1140.00     7440.00
00925           -1180.00     7360.00
00926           -1160.00     7440.00
00927           -1180.00     7280.00
00928           -1140.00     7280.00
00929           -1180.00     7280.00
00930           -1180.00     7200.00
00931           -1200.00     7120.00
00932           -1180.00     7120.00
00933           -1140.00     7040.00
00934           -1120.00     6960.00
00935           -1120.00     6880.00
00936           -1100.00     6880.00
00937           -1080.00     6720.00
00938           -1040.00     6720.00
00939           -1020.00     6720.00
00940            -980.00     6560.00
00941            -960.00     6560.00
00942            -920.00     6400.00
00943            -880.00     6320.00
00944            -820.00     6320.00
00945            -800.00     6160.00
00946            -740.00     6080.00
00947            -740.00     6000.00
00948            -720.00     5840.00
00949            -660.00     5840.00
00950            -620.00     5760.00
00951            -580.00     5600.00
00952            -560.00     5520.00
00953            -540.00     5440.00
00954            -540.00     5360.00
00955            -500.00     5200.00
00956            -460.00     5120.00
00957            -420.00     5040.00
00958            -400.00     4880.00
00959            -400.00     4720.00
00960            -380.00     4720.00
00961            -380.00     4560.00
00962            -340.00     4560.00
00963            -340.00     4320.00
00964            -320.00     4240.00
00965            -280.00     4080.00
00966            -260.00     4000.00
00967            -260.00     3920.00
00968            -260.00     3760.00
00969            -260.00     3600.00
00970            -260.00     3440.00
00971            -220.00     3360.00
00972            -180.00     3280.00
00973            -180.00     3120.00
00974            -180.00     2960.00
00975            -200.00     2800.00
00976            -180.00     2720.00
00977            -160.00     2640.00
00978            -160.00     2400.00
00979            -140.00     2320.00
00980            -120.00     2160.00
00981            -140.00     2080.00
00982            -160.00     1840.00
00983            -140.00     1760.00
00984            -100.00     1680.00
00985            -100.00     1520.00
00986            -100.00     1360.00
00987             -80.00     1200.00
00988            -100.00     1120.00
00989            -100.00      880.00
00990            -100.00      800.00
00991             -80.00      640.00
00992             -80.00      480.00
00993             -80.00      400.00
00994             -60.00      240.00
00995             -60.00       80.00
00996             -60.00      -80.00
00997             -20.00     -240.00
00998              40.00     -320.00
00999              80.00     -400.00
01000              80.00     -560.00
01001              60.00     -720.00
01002               0.00     -800.00
01003               0.00     -880.00
01004              20.00    -1040.00
01005             160.00    -1120.00
01006             700.00    -1360.00
01007             940.00    -1680.00
01008             220.00    -1840.00
01009            -900.00    -2000.00
01010           -1720.00    -1920.00
01011            -720.00    -1760.00
01012             880.00    -2400.00
01013             220.00    -2160.00
01014             -80.00    -2240.00
01015             600.00    -3120.00
01016             140.00    -2400.00
01017              20.00    -2640.00
01018             120.00    -3360.00
01019            -160.00    -2960.00
01020             360.00    -3040.00
01021             260.00    -3520.00
01022            -320.00    -3600.00
01023              60.00    -3680.00
01024              20.00    -3600.00
01025             -20.00    -3920.00
01026             260.00    -4080.00
01027             100.00    -3920.00
01028             -80.00    -4400.00
01029             100.00    -4400.00
01030             300.00    -4320.00
01031             100.00    -4640.00
01032             -20.00    -4720.00
01033             220.00    -4800.00
01034             200.00    -4720.00
01035              60.00    -5040.00
01036              80.00    -5280.00
01037             160.00    -5040.00
01038             220.00    -5360.00
01039             140.00    -5520.00
01040             160.00    -5440.00
01041             180.00    -5680.00
01042             140.00    -5760.00
01043             220.00    -5840.00
01044             220.00    -5840.00
01045             120.00    -6080.00
01046             160.00    -6240.00
01047             240.00    -6000.00
01048             240.00    -6240.00
01049             220.00    -6320.00
01050             260.00    -6400.00
01051             260.00    -6480.00
01052             220.00    -6560.00
01053             260.00    -6640.00
01054             320.00    -6640.00
01055             300.00    -6800.00
01056             320.00    -6800.00
01057             320.00    -6800.00
01058             300.00    -6960.00
01059             320.00    -6960.00
01060             400.00    -7040.00
01061             420.00    -7120.00
01062             380.00    -7200.00
01063             400.00    -7200.00
01064             420.00    -7120.00
01065             380.00    -7280.00
01066             460.00    -7280.00
01067             500.00    -7280.00
01068             500.00    -7280.00
01069             500.00    -7440.00
01070             540.00    -7440.00
01071             540.00    -7440.00
01072             540.00    -7440.00
01073             620.00    -7520.00
01074             660.00    -7520.00
01075             640.00    -7520.00
01076             680.00    -7520.00
01077             700.00    -7520.00
01078             720.00    -7520.00
01079             740.00    -7600.00
01080             800.00    -7520.00
01081             860.00    -7520.00
01082             880.00    -7520.00
01083             920.00    -7520.00
01084             960.00    -7520.00
01085             960.00    -7520.00
01086             980.00    -7520.00
01087            1040.00    -7440.00
01088            1100.00    -7360.00
01089            1100.00    -7440.00
01090            1100.00    -7360.00
01091            1120.00    -7280.00
01092            1120.00    -7280.00
01093            1140.00    -7280.00
01094            1180.00    -7200.00
01095            1180.00    -7200.00
01096            1180.00    -7120.00
01097            1180.00    -7120.00
01098            1180.00    -7040.00
01099            1120.00    -6960.00
01100            1180.00    -6960.00
01101            1180.00    -6880.00
01102            1120.00    -6880.00
01103            1100.00    -6800.00
01104            1060.00    -6640.00
01105            1020.00    -6640.00
01106            1020.00    -6640.00
01107            1000.00    -6480.00
01108             960.00    -6480.00
01109             940.00    -6320.00
01110             860.00    -6240.00
01111             820.00    -6160.00
01112             800.00    -6160.00
01113             780.00    -6000.00
01114             780.00    -5920.00
01115             720.00    -5920.00
01116             660.00    -5760.00
01117             620.00    -5680.00
01118             600.00    -5440.00
01119             560.00    -5520.00
01120             540.00    -5360.00
01121             540.00    -5280.00
01122             500.00    -5200.00
01123             460.00    -5040.00
01124             420.00    -4960.00
01125             400.00    -4880.00
01126             380.00    -4720.00
01127             380.00    -4640.00
01128             380.00    -4560.00
01129             340.00    -4400.00
01130             320.00    -4320.00
01131             300.00    -4240.00
01132             300.00    -4000.00
01133             260.00    -3920.00
01134             300.00    -3840.00
01135             260.00    -3680.00
01136             220.00    -3600.00
01137             180.00    -3440.00
01138             180.00    -3360.00
01139             220.00    -3200.00
01140             200.00    -3040.00
01141             200.00    -2880.00
01142             180.00    -2800.00
01143             160.00    -2720.00
01144             140.00    -2480.00
01145             140.00    -2400.00
01146             160.00    -2320.00
01147             160.00    -2160.00
01148             140.00    -2000.00
01149             140.00    -1840.00
01150             140.00    -1760.00
01151             100.00    -1600.00
01152             100.00    -1440.00
01153             100.00    -1280.00
01154             100.00    -1200.00
01155              80.00    -1040.00
01156              60.00     -880.00
01157              80.00     -800.00
01158              80.00     -560.00
01159              60.00     -480.00
01160              80.00     -320.00
01161              60.00     -160.00
01162              60.00      -80.00
01163              60.00       80.00
01164              60.00      240.00
01165              80.00      320.00
01166             140.00      480.00
01167             160.00      560.00
01168             140.00      720.00
01169              80.00      880.00
01170              60.00      960.00
01171              80.00     1120.00
01172             220.00     1280.00
01173             960.00     1520.00
01174            1020.00     1680.00
01175             -80.00     1840.00
01176           -1620.00     1680.00
01177           -1940.00     1760.00
01178             240.00     2400.00
01179            1100.00     2320.00
01180            -320.00     2320.00
01181             240.00     2400.00
01182             700.00     2400.00
01183            -460.00     3280.00
01184            -180.00     2800.00
01185              80.00     2560.00
01186              20.00     3760.00
01187             360.00     3120.00
01188            -380.00     2880.00
01189            -220.00     4160.00
01190             220.00     3680.00
01191            -480.00     3600.00
01192              60.00     4080.00
01193             260.00     3920.00
01194            -320.00     4320.00
01195            -100.00     4160.00
01196             -20.00     4320.00
01197              20.00     4880.00
01198            -200.00     4240.00
01199            -180.00     4880.00
01200             120.00     5040.00
01201            -260.00     4640.00
01202            -160.00     5280.00
01203            -100.00     5120.00
01204            -160.00     5360.00
01205             -40.00     5360.00
01206            -140.00     5360.00
01207            -140.00     5840.00
01208            -220.00     5520.00
01209            -180.00     5920.00
01210            -100.00     6000.00
01211            -200.00     5840.00
01212            -180.00     6160.00
01213            -220.00     6000.00
01214            -240.00     6320.00
01215            -220.00     6240.00
01216            -160.00     6400.00
01217            -200.00     6560.00
01218            -320.00     6400.00
01219            -260.00     6720.00
01220            -260.00     6640.00
01221            -260.00     6800.00
01222            -260.00     6800.00
01223            -260.00     6880.00
01224            -380.00     6960.00
01225            -380.00     6880.00
01226            -300.00     7120.00
01227            -320.00     7120.00
01228            -380.00     7120.00
01229            -380.00     7200.00
01230            -380.00     7360.00
01231            -440.00     7360.00
01232            -460.00     7280.00
01233            -440.00     7440.00
01234            -480.00     7440.00
01235            -480.00     7440.00
01236            -460.00     7520.00
01237            -540.00     7520.00
01238            -580.00     7520.00
01239            -560.00     7520.00
01240            -540.00     7600.00
01241            -620.00     7600.00
01242            -660.00     7600.00
01243            -640.00     7600.00
01244            -700.00     7600.00
01245            -740.00     7600.00
01246            -760.00     7600.00
01247            -780.00     7600.00
01248            -840.00     7680.00
01249            -860.00     7600.00
01250            -880.00     7600.00
01251            -940.00     7600.00
01252            -980.00     7520.00
01253            -980.00     7600.00
01254            -980.00     7520.00
01255           -1060.00     7520.00
01256           -1060.00     7440.00
01257           -1100.00     7440.00
01258           -1120.00     7440.00
01259           -1140.00     7440.00
01260           -1140.00     7360.00
01261           -1160.00     7280.00
01262           -1160.00     7280.00
01263           -1140.00     7280.00
01264           -1180.00     7200.00
01265           -1200.00     7120.00
01266           -1180.00     7120.00
01267           -1140.00     7040.00
01268           -1120.00     6960.00
01269           -1120.00     6960.00
01270           -1120.00     6880.00
01271           -1120.00     6800.00
01272           -1060.00     6720.00
01273           -1000.00     6640.00
01274            -980.00     6560.00
01275            -960.00     6560.00
01276            -940.00     6480.00
01277            -900.00     6480.00
01278            -880.00     6320.00
01279            -820.00     6160.00
01280            -780.00     6160.00
01281            -740.00     6000.00
01282            -740.00     5920.00
01283            -700.00     5920.00
01284            -640.00     5760.00
01285            -640.00     5680.00
01286            -560.00     5600.00
01287            -560.00     5520.00
01288            -540.00     5360.00
01289            -500.00     5280.00
01290            -500.00     5200.00
01291            -460.00     5120.00
01292            -420.00     4960.00
01293            -400.00     4880.00
01294            -400.00     4720.00
01295            -360.00     4640.00
01296            -340.00     4560.00
01297            -340.00     4400.00
01298            -340.00     4320.00
01299            -320.00     4160.00
01300            -280.00     4080.00
01301            -260.00     3920.00
01302            -240.00     3840.00
01303            -260.00     3680.00
01304            -260.00     3520.00
01305            -260.00     3440.00
01306            -220.00     3280.00
01307            -200.00     3200.00
01308            -160.00     3040.00
01309            -180.00     2880.00
01310            -160.00     2800.00
01311            -180.00     2640.00
01312            -180.00     2480.00
01313            -140.00     2400.00
01314            -140.00     2320.00
01315            -120.00     2160.00
01316            -140.00     2000.00
01317            -140.00     1840.00
01318            -100.00     1680.00
01319            -100.00     1600.00
01320             -80.00     1440.00
01321             -80.00     1360.00
01322             -80.00     1120.00
01323             -80.00      960.00
01324            -100.00      880.00
01325            -100.00      720.00
01326            -100.00      560.00
01327             -60.00      400.00
01328             -60.00      320.00
01329             -20.00      160.00
01330             -40.00       80.00
01331             -20.00      -80.00
01332               0.00     -240.00
01333              60.00     -320.00
01334              80.00     -480.00
01335              80.00     -560.00
01336              20.00     -800.00
01337               0.00     -880.00
01338               0.00    -1040.00
01339              60.00    -1040.00
01340             360.00    -1200.00
01341             920.00    -1520.00
01342             720.00    -1760.00
01343            -260.00    -1840.00
01344           -1380.00    -2000.00
01345           -1580.00    -1840.00
01346             140.00    -2000.00
01347             820.00    -2560.00
01348            -160.00    -2000.00
01349             260.00    -2720.00
01350             540.00    -2960.00
01351             -80.00    -2320.00
01352             140.00    -3040.00
01353             -60.00    -3280.00
01354             -20.00    -2880.00
01355             500.00    -3360.00
01356             -80.00    -3600.00
01357            -240.00    -3520.00
01358             140.00    -3600.00
01359             -60.00    -3680.00
01360             120.00    -4160.00
01361             240.00    -4000.00
01362               0.00    -4080.00
01363             -20.00    -4560.00
01364             180.00    -4400.00
01365             300.00    -4400.00
01366             -20.00    -4720.00
01367              60.00    -4800.00
01368             260.00    -4800.00
01369              80.00    -4880.00
01370              60.00    -5280.00
01371             140.00    -5200.00
01372             200.00    -5200.00
01373             200.00    -5520.00
01374             140.00    -5440.00
01375             200.00    -5520.00
01376             160.00    -5680.00
01377             180.00    -5840.00
01378             260.00    -5840.00
01379             160.00    -5920.00
01380             140.00    -6160.00
01381             220.00    -6080.00
01382             240.00    -6160.00
01383             220.00    -6320.00
01384             240.00    -6320.00
01385             300.00    -6320.00
01386             240.00    -6480.00
01387             240.00    -6560.00
01388             300.00    -6560.00
01389             320.00    -6640.00
01390             300.00    -6880.00
01391             320.00    -6800.00
01392             320.00    -6880.00
01393             300.00    -6960.00
01394             340.00    -7040.00
01395             420.00    -7040.00
01396             400.00    -7120.00
01397             380.00    -7200.00
01398             400.00    -7200.00
01399             400.00    -7200.00
01400             400.00    -7280.00
01401             480.00    -7280.00
01402             520.00    -7280.00
01403             500.00    -7440.00
01404             540.00    -7440.00
01405             540.00    -7440.00
01406             540.00    -7440.00
01407             560.00    -7440.00
01408             640.00    -7520.00
01409             640.00    -7520.00
01410             640.00    -7520.00
01411             700.00    -7520.00
01412             720.00    -7520.00
01413             720.00    -7520.00
01414             780.00    -7520.00
01415             820.00    -7520.00
01416             860.00    -7520.00
01417             880.00    -7520.00
01418             940.00    -7520.00
01419             940.00    -7440.00
01420             960.00    -7440.00
01421            1020.00    -7440.00
01422            1060.00    -7440.00
01423            1100.00    -7440.00
01424            1100.00    -7360.00
01425            1120.00    -7440.00
01426            1120.00    -7280.00
01427            1140.00    -7280.00
01428            1140.00    -7280.00
01429            1180.00    -7200.00
01430            1180.00    -7120.00
01431            1180.00    -7120.00
01432            1180.00    -7040.00
01433            1140.00    -7040.00
01434            1140.00    -6960.00
01435            1160.00    -6960.00
01436            1140.00    -6880.00
01437            1120.00    -6800.00
01438            1060.00    -6800.00
01439            1040.00    -6640.00
01440            1020.00    -6560.00
01441            1020.00    -6560.00
01442             980.00    -6480.00
01443             960.00    -6400.00
01444             900.00    -6320.00
01445             860.00    -6160.00
01446             820.00    -6160.00
01447             780.00    -6080.00
01448             780.00    -6000.00
01449             740.00    -5920.00
01450             720.00    -5840.00
01451             640.00    -5680.00
01452             620.00    -5600.00
01453             580.00    -5520.00
01454             560.00    -5440.00
01455             540.00    -5360.00
01456             540.00    -5280.00
01457             480.00    -5200.00
01458             440.00    -5040.00
01459             400.00    -4880.00
01460             400.00    -4800.00
01461             400.00    -4720.00
01462             400.00    -4560.00
01463             360.00    -4400.00
01464             320.00    -4400.00
01465             300.00    -4240.00
01466             300.00    -4080.00
01467             260.00    -4000.00
01468             280.00    -3920.00
01469             260.00    -3760.00
01470             240.00    -3680.00
01471             220.00    -3520.00
01472             220.00    -3440.00
01473             220.00    -3280.00
01474             200.00    -3120.00
01475             180.00    -3040.00
01476             180.00    -2880.00
01477             180.00    -2720.00
01478             160.00    -2640.00
01479             140.00    -2480.00
01480             140.00    -2400.00
01481             140.00    -2160.00
01482             140.00    -2080.00
01483             140.00    -2000.00
01484             140.00    -1840.00
01485             140.00    -1680.00
01486              80.00    -1520.00
01487              60.00    -1360.00
01488             100.00    -1280.00
01489             100.00    -1120.00
01490              80.00     -960.00
01491              80.00     -880.00
01492              80.00     -720.00
01493              60.00     -560.00
01494              60.00     -400.00
01495              80.00     -240.00
01496             100.00     -160.00
01497              60.00       80.00
01498              20.00       80.00
01499              60.00      320.00
01500             140.00      400.00
01501             160.00      480.00
01502             160.00      640.00
01503             140.00      800.00
01504              80.00      880.00
01505              60.00     1040.00
01506             100.00     1200.00
01507             540.00     1360.00
01508            1180.00     1600.00
01509             640.00     1760.00
01510            -740.00     1760.00
01511           -2120.00     1520.00
01512           -1180.00     2000.00
01513            1100.00     2400.00
01514             420.00     2320.00
01515            -340.00     2480.00
01516             720.00     2320.00
01517             180.00     2800.00
01518            -500.00     3280.00
01519              20.00     2400.00
01520             -60.00     3120.00
01521             260.00     3760.00
01522             100.00     2720.00
01523            -500.00     3440.00
01524             180.00     4160.00
01525            -120.00     3360.00
01526            -420.00     3920.00
01527             340.00     4080.00
01528             -60.00     4000.00
01529            -260.00     4400.00
01530               0.00     4080.00
01531             -40.00     4720.00
01532             -60.00     4640.00
01533            -300.00     4320.00
01534               0.00     5200.00
01535               0.00     4800.00
01536            -260.00     4880.00
01537             -80.00     5200.00
01538            -160.00     5200.00
01539            -100.00     5520.00
01540             -80.00     5280.00
01541            -180.00     5680.00
01542            -140.00     5760.00
01543            -240.00     5600.00
01544            -140.00     6000.00
01545            -160.00     5840.00
01546            -220.00     6000.00
01547            -180.00     6160.00
01548            -260.00     6160.00
01549            -240.00     6320.00
01550            -180.00     6240.00
01551            -160.00     6560.00
01552            -260.00     6480.00
01553            -320.00     6480.00
01554            -280.00     6720.00
01555            -260.00     6640.00
01556            -260.00     6800.00
01557            -260.00     6800.00
01558            -320.00     6960.00
01559            -380.00     6880.00
01560            -320.00     6960.00
01561            -320.00     7120.00
01562            -360.00     7120.00
01563            -380.00     7120.00
01564            -380.00     7200.00
01565            -400.00     7280.00
01566            -460.00     7360.00
01567            -440.00     7440.00
01568            -440.00     7360.00
01569            -480.00     7440.00
01570            -480.00     7440.00
01571            -480.00     7520.00
01572            -580.00     7520.00
01573            -580.00     7520.00
01574            -540.00     7520.00
01575            -580.00     7600.00
01576            -640.00     7520.00
01577            -660.00     7600.00
01578            -680.00     7600.00
01579            -740.00     7600.00
01580            -740.00     7600.00
01581            -740.00     7600.00
01582            -800.00     7600.00
01583            -820.00     7600.00
01584            -860.00     7600.00
01585            -900.00     7600.00
01586            -960.00     7520.00
01587            -980.00     7520.00
01588            -980.00     7600.00
01589           -1040.00     7520.00
01590           -1060.00     7520.00
01591           -1080.00     7440.00
01592           -1120.00     7440.00
01593           -1140.00     7440.00
01594           -1140.00     7440.00
01595           -1140.00     7440.00
01596           -1180.00     7280.00
01597           -1180.00     7360.00
01598           -1180.00     7280.00
01599           -1200.00     7120.00
01600           -1200.00     7120.00
01601           -1180.00     7040.00
01602           -1140.00     6960.00
01603           -1120.00     6960.00
01604           -1120.00     6880.00
01605           -1120.00     6880.00
01606           -1100.00     6800.00
01607           -1060.00     6720.00
01608           -1000.00     6640.00
01609            -980.00     6560.00
01610            -960.00     6480.00
01611            -940.00     6480.00
01612            -900.00     6320.00
01613            -860.00     6240.00
01614            -800.00     6160.00
01615            -760.00     6080.00
01616            -720.00     5920.00
01617            -700.00     5920.00
01618            -660.00     5840.00
01619            -660.00     5680.00
01620            -620.00     5680.00
01621            -560.00     5520.00
01622            -540.00     5440.00
01623            -500.00     5360.00
01624            -500.00     5200.00
01625            -480.00     5120.00
01626            -460.00     5040.00
01627            -420.00     4960.00
01628            -400.00     4880.00
01629            -380.00     4640.00
01630            -340.00     4560.00
01631            -340.00     4400.00
01632            -340.00     4320.00
01633            -340.00     4240.00
01634            -300.00     4080.00
01635            -260.00     4000.00
01636            -240.00     3920.00
01637            -260.00     3760.00
01638            -240.00     3680.00
01639            -240.00     3520.00
01640            -240.00     3360.00
01641            -220.00     3280.00
01642            -180.00     3120.00
01643            -180.00     2960.00
01644            -180.00     2800.00
01645            -160.00     2720.00
01646            -160.00     2640.00
01647            -160.00     2480.00
01648            -160.00     2320.00
01649            -140.00     2160.00
01650            -140.00     2080.00
01651            -140.00     1920.00
01652            -120.00     1760.00
01653            -100.00     1680.00
01654            -100.00     1520.00
01655            -100.00     1360.00
01656             -80.00     1200.00
01657            -100.00     1120.00
01658             -80.00      960.00
01659            -100.00      800.00
01660             -80.00      720.00
01661             -60.00      480.00
01662             -60.00      400.00
01663             -60.00      240.00
01664             -60.00      160.00
01665             -60.00        0.00
01666             -20.00     -160.00
01667              20.00     -240.00
01668              80.00     -400.00
01669              80.00     -560.00
01670              40.00     -640.00
01671              20.00     -800.00
01672               0.00     -880.00
01673               0.00    -1040.00
01674             140.00    -1120.00
01675             640.00    -1360.00
01676             960.00    -1680.00
01677             320.00    -1840.00
01678            -760.00    -1840.00
01679           -1700.00    -2000.00
01680            -940.00    -1760.00
01681             780.00    -2400.00
01682             320.00    -2320.00
01683            -140.00    -2160.00
01684             560.00    -3120.00
01685             220.00    -2480.00
01686             -20.00    -2480.00
01687             140.00    -3360.00
01688            -160.00    -3040.00
01689             280.00    -3040.00
01690             340.00    -3520.00
01691            -280.00    -3600.00
01692               0.00    -3600.00
01693              20.00    -3680.00
01694             -80.00    -3920.00
01695             240.00    -4160.00
01696             160.00    -3920.00
01697             -60.00    -4320.00
01698              60.00    -4480.00
01699             260.00    -4320.00
01700             160.00    -4560.00
01701             -60.00    -4720.00
01702             220.00    -4880.00
01703             220.00    -4800.00
01704              20.00    -5040.00
01705              80.00    -5280.00
01706             160.00    -5040.00
01707             220.00    -5360.00
01708             140.00    -5520.00
01709             160.00    -5440.00
01710             200.00    -5600.00
01711             140.00    -5760.00
01712             220.00    -5840.00
01713             240.00    -5840.00
01714             160.00    -6000.00
01715             160.00    -6160.00
01716             240.00    -6080.00
01717             240.00    -6240.00
01718             220.00    -6400.00
01719             280.00    -6320.00
01720             300.00    -6480.00
01721             220.00    -6560.00
01722             260.00    -6640.00
01723             320.00    -6640.00
01724             300.00    -6800.00
01725             300.00    -6880.00
01726             340.00    -6800.00
01727             300.00    -6880.00
01728             320.00    -6960.00
01729             380.00    -7040.00
01730             420.00    -7120.00
01731             380.00    -7120.00
01732             400.00    -7200.00
01733             420.00    -7120.00
01734             380.00    -7280.00
01735             420.00    -7280.00
01736             500.00    -7280.00
01737             500.00    -7360.00
01738             500.00    -7440.00
01739             540.00    -7440.00
01740             540.00    -7440.00
01741             540.00    -7440.00
01742             580.00    -7520.00
01743             640.00    -7520.00
01744             640.00    -7520.00
01745             660.00    -7520.00
01746             700.00    -7440.00
01747             700.00    -7600.00
01748             720.00    -7520.00
01749             800.00    -7520.00
01750             860.00    -7520.00
01751             860.00    -7520.00
01752             880.00    -7600.00
01753             940.00    -7520.00
01754             940.00    -7440.00
01755             980.00    -7520.00
01756            1040.00    -7440.00
01757            1060.00    -7360.00
01758            1100.00    -7440.00
01759            1100.00    -7440.00
01760            1120.00    -7360.00
01761            1120.00    -7280.00
01762            1160.00    -7280.00
01763            1180.00    -7200.00
01764            1180.00    -7200.00
01765            1180.00    -7200.00
01766            1180.00    -7120.00
01767            1180.00    -7040.00
01768            1160.00    -7040.00
01769            1180.00    -6960.00
01770            1180.00    -6880.00
01771            1140.00    -6880.00
01772            1120.00    -6800.00
01773            1060.00    -6800.00
01774            1040.00    -6640.00
01775            1020.00    -6560.00
01776            1020.00    -6560.00
01777             980.00    -6480.00
01778             940.00    -6320.00
01779             880.00    -6320.00
01780             860.00    -6160.00
01781             820.00    -6160.00
01782             780.00    -6000.00
01783             780.00    -5920.00
01784             720.00    -5920.00
01785             680.00    -5840.00
01786             640.00    -5680.00
01787             620.00    -5520.00
01788             560.00    -5440.00
01789             540.00    -5360.00
01790             540.00    -5280.00
01791             500.00    -5200.00
01792             480.00    -5040.00
01793             460.00    -4880.00
01794             420.00    -4880.00
01795             400.00    -4720.00
01796             380.00    -4640.00
01797             380.00    -4560.00
01798             340.00    -4400.00
01799             320.00    -4320.00
01800             300.00    -4160.00
01801             300.00    -4080.00
01802             260.00    -4000.00
01803             300.00    -3840.00
01804             260.00    -3760.00
01805             240.00    -3600.00
01806             220.00    -3440.00
01807             220.00    -3360.00
01808             180.00    -3280.00
01809             220.00    -3120.00
01810             220.00    -2960.00
01811             160.00    -2800.00
01812             160.00    -2720.00
01813             160.00    -2640.00
01814             160.00    -2400.00
01815             140.00    -2320.00
01816             160.00    -2160.00
01817             140.00    -2000.00
01818             140.00    -1840.00
01819             100.00    -1760.00
01820             100.00    -1680.00
01821              80.00    -1440.00
01822             100.00    -1360.00
01823              80.00    -1200.00
01824             100.00    -1040.00
01825              80.00     -880.00
01826              60.00     -800.00
01827              80.00     -720.00
01828              80.00     -480.00
01829              60.00     -400.00
01830              60.00     -240.00
01831              60.00     -160.00
01832              80.00       80.00
01833              60.00      240.00
01834              80.00      400.00
01835             160.00      480.00
01836             160.00      560.00
01837             140.00      720.00
01838             100.00      880.00
01839              60.00     1040.00
01840              60.00     1040.00
01841             180.00     1200.00
01842             880.00     1520.00
01843            1100.00     1680.00
01844             100.00     1760.00
01845           -1440.00     1680.00
01846           -2080.00     1680.00
01847             -60.00     2320.00
01848            1200.00     2320.00
01849            -240.00     2320.00
01850             100.00     2400.00
01851             800.00     2320.00
01852            -380.00     3200.00
01853            -300.00     2960.00
01854              80.00     2480.00
01855             -20.00     3680.00
01856             400.00     3280.00
01857            -300.00     2800.00
01858            -320.00     4000.00
01859             260.00     3760.00
01860            -440.00     3440.00
01861             -60.00     4080.00
01862             320.00     3920.00
01863            -300.00     4240.00
01864            -140.00     4240.00
01865             -20.00     4240.00
01866             -20.00     4960.00
01867            -160.00     4320.00
01868            -200.00     4720.00
01869             100.00     5200.00
01870            -240.00     4640.00
01871            -220.00     5280.00
01872            -100.00     5200.00
01873            -180.00     5360.00
01874             -20.00     5360.00
01875            -160.00     5280.00
01876            -160.00     5840.00
01877            -220.00     5520.00
01878            -220.00     5840.00
01879             -80.00     6000.00
01880            -160.00     5760.00
01881            -160.00     6160.00
01882            -160.00     6080.00
01883            -260.00     6320.00
01884            -300.00     6320.00
01885            -240.00     6320.00
01886            -260.00     6560.00
01887            -320.00     6480.00
01888            -260.00     6640.00
01889            -180.00     6640.00
01890            -220.00     6720.00
01891            -220.00     6800.00
01892            -260.00     6960.00
01893            -380.00     6960.00
01894            -420.00     6880.00
01895            -340.00     7120.00
01896            -380.00     7120.00
01897            -400.00     7120.00
01898            -340.00     7200.00
01899            -340.00     7360.00
01900            -400.00     7360.00
01901            -400.00     7280.00
01902            -400.00     7440.00
01903            -460.00     7440.00
01904            -500.00     7440.00
01905            -480.00     7520.00
01906            -540.00     7440.00
01907            -580.00     7440.00
01908            -560.00     7440.00
01909            -540.00     7600.00
01910            -580.00     7600.00
01911            -620.00     7520.00
01912            -640.00     7600.00
01913            -660.00     7600.00
01914            -740.00     7600.00
01915            -760.00     7600.00
01916            -780.00     7600.00
01917            -820.00     7600.00
01918            -860.00     7600.00
01919            -860.00     7600.00
01920            -920.00     7600.00
01921            -960.00     7520.00
01922            -980.00     7520.00
01923            -980.00     7520.00
01924           -1040.00     7520.00
01925           -1060.00     7440.00
01926           -1120.00     7440.00
01927           -1140.00     7440.00
01928           -1140.00     7440.00
01929           -1140.00     7440.00
01930           -1140.00     7360.00
01931           -1140.00     7280.00
01932           -1160.00     7280.00
01933           -1180.00     7200.00
01934           -1200.00     7120.00
01935           -1220.00     7120.00
01936           -1180.00     7040.00
01937           -1140.00     6960.00
01938           -1120.00     6960.00
01939           -1100.00     6880.00
01940           -1100.00     6800.00
01941           -1060.00     6720.00
01942           -1060.00     6640.00
01943           -1020.00     6640.00
01944           -1000.00     6560.00
01945            -940.00     6480.00
01946            -880.00     6400.00
01947            -860.00     6320.00
01948            -820.00     6240.00
01949            -800.00     6160.00
01950            -780.00     6000.00
01951            -740.00     5920.00
01952            -700.00     5920.00
01953            -660.00     5760.00
01954            -620.00     5680.00
01955            -580.00     5520.00
01956            -540.00     5520.00
01957            -540.00     5360.00
01958            -540.00     5280.00
01959            -500.00     5200.00
01960            -480.00     5040.00
01961            -420.00     4960.00
01962            -400.00     4880.00
01963            -380.00     4720.00
01964            -360.00     4640.00
01965            -340.00     4560.00
01966            -340.00     4400.00
01967            -340.00     4240.00
01968            -320.00     4240.00
01969            -260.00     4080.00
01970            -240.00     4000.00
01971            -260.00     3840.00
01972            -260.00     3680.00
01973            -240.00     3600.00
01974            -240.00     3440.00
01975            -220.00     3280.00
01976            -200.00     3200.00
01977            -180.00     3040.00
01978            -180.00     2880.00
01979            -160.00     2800.00
01980            -160.00     2640.00
01981            -160.00     2480.00
01982            -160.00     2400.00
01983            -140.00     2320.00
01984            -140.00     2080.00
01985            -140.00     2000.00
01986            -140.00     1840.00
01987            -100.00     1760.00
01988            -100.00     1600.00
01989            -100.00     1440.00
01990             -80.00     1360.00
01991             -80.00     1200.00
01992            -100.00     1040.00
01993             -80.00      880.00
01994             -80.00      800.00
01995             -80.00      560.00
01996             -80.00      480.00
01997             -60.00      320.00
01998             -60.00      160.00
01999             -60.00       80.00
02000             -60.00      -80.00
02001             -20.00     -240.00
02002              40.00     -400.00
02003              80.00     -480.00
02004              60.00     -640.00
02005              20.00     -800.00
02006              20.00     -880.00
02007               0.00    -1040.00
02008              20.00    -1120.00
02009             300.00    -1200.00
02010             880.00    -1440.00
02011             800.00    -1760.00
02012            -140.00    -1760.00
02013           -1260.00    -2000.00
02014           -1660.00    -1760.00
02015            -100.00    -2000.00
02016             900.00    -2480.00
02017            -100.00    -2080.00
02018             160.00    -2560.00
02019             580.00    -2960.00
02020             -60.00    -2240.00
02021             120.00    -2880.00
02022             -20.00    -3360.00
02023            -100.00    -2800.00
02024             480.00    -3280.00
02025              40.00    -3520.00
02026            -260.00    -3600.00
02027             140.00    -3680.00
02028             -20.00    -3680.00
02029              60.00    -4080.00
02030             280.00    -4000.00
02031              40.00    -4000.00
02032             -60.00    -4400.00
02033             160.00    -4400.00
02034             280.00    -4400.00
02035               0.00    -4720.00
02036              40.00    -4800.00
02037             260.00    -4880.00
02038             140.00    -4800.00
02039              60.00    -5200.00
02040             100.00    -5280.00
02041             180.00    -5040.00
02042             180.00    -5520.00
02043             140.00    -5440.00
02044             180.00    -5520.00
02045             160.00    -5680.00
02046             160.00    -5840.00
02047             260.00    -5840.00
02048             200.00    -5920.00
02049             140.00    -6160.00
02050             220.00    -6160.00
02051             260.00    -6080.00
02052             220.00    -6320.00
02053             220.00    -6400.00
02054             300.00    -6400.00
02055             240.00    -6480.00
02056             220.00    -6640.00
02057             300.00    -6560.00
02058             320.00    -6640.00
02059             300.00    -6880.00
02060             320.00    -6800.00
02061             340.00    -6800.00
02062             300.00    -6960.00
02063             340.00    -7040.00
02064             400.00    -6960.00
02065             400.00    -7120.00
02066             380.00    -7200.00
02067             400.00    -7200.00
02068             400.00    -7200.00
02069             400.00    -7280.00
02070             480.00    -7360.00
02071             480.00    -7280.00
02072             500.00    -7440.00
02073             520.00    -7440.00
02074             540.00    -7440.00
02075             540.00    -7440.00
02076             540.00    -7520.00
02077             620.00    -7520.00
02078             640.00    -7520.00
02079             640.00    -7520.00
02080             660.00    -7520.00
02081             720.00    -7520.00
02082             720.00    -7520.00
02083             780.00    -7600.00
02084             820.00    -7520.00
02085             860.00    -7520.00
02086             860.00    -7520.00
02087             920.00    -7520.00
02088             940.00    -7440.00
02089             940.00    -7520.00
02090            1020.00    -7520.00
02091            1040.00    -7440.00
02092            1100.00    -7440.00
02093            1100.00    -7440.00
02094            1120.00    -7280.00
02095            1120.00    -7280.00
02096            1140.00    -7200.00
02097            1180.00    -7280.00
02098            1180.00    -7200.00
02099            1200.00    -7200.00
02100            1180.00    -7120.00
02101            1180.00    -7120.00
02102            1140.00    -7040.00
02103            1160.00    -6960.00
02104            1180.00    -6960.00
02105            1160.00    -6880.00
02106            1120.00    -6800.00
02107            1120.00    -6800.00
02108            1060.00    -6640.00
02109            1020.00    -6560.00
02110            1020.00    -6560.00
02111             980.00    -6480.00
02112             960.00    -6480.00
02113             900.00    -6320.00
02114             860.00    -6240.00
02115             820.00    -6160.00
02116             800.00    -6080.00
02117             780.00    -6000.00
02118             740.00    -5920.00
02119             700.00    -5840.00
02120             640.00    -5840.00
02121             640.00    -5680.00
02122             580.00    -5520.00
02123             560.00    -5440.00
02124             540.00    -5360.00
02125             540.00    -5280.00
02126             480.00    -5120.00
02127             460.00    -5040.00
02128             420.00    -4960.00
02129             400.00    -4880.00
02130             380.00    -4720.00
02131             380.00    -4560.00
02132             340.00    -4560.00
02133             320.00    -4400.00
02134             300.00    -4320.00
02135             300.00    -4160.00
02136             260.00    -4000.00
02137             300.00    -3920.00
02138             260.00    -3760.00
02139             260.00    -3680.00
02140             220.00    -3520.00
02141             220.00    -3440.00
02142             200.00    -3280.00
02143             180.00    -3120.00
02144             180.00    -3040.00
02145             180.00    -2880.00
02146             160.00    -2800.00
02147             160.00    -2640.00
02148             140.00    -2480.00
02149             140.00    -2400.00
02150             140.00    -2320.00
02151             140.00    -2160.00
02152             140.00    -2000.00
02153             120.00    -1840.00
02154             100.00    -1680.00
02155              80.00    -1600.00
02156             100.00    -1440.00
02157             100.00    -1280.00
02158             100.00    -1120.00
02159             100.00    -1040.00
02160              80.00     -880.00
02161              80.00     -800.00
02162              60.00     -560.00
02163              60.00     -480.00
02164              80.00     -240.00
02165              80.00     -160.00
02166              60.00        0.00
02167              60.00       80.00
02168              60.00      240.00
02169             100.00      400.00
02170             160.00      480.00
02171             180.00      640.00
02172             120.00      720.00
02173              80.00      880.00
02174              60.00     1040.00
02175              80.00     1120.00
02176             460.00     1360.00
02177            1120.00     1600.00
02178             780.00     1760.00
02179            -560.00     1840.00
02180           -2000.00     1680.00
02181           -1440.00     2000.00
02182             940.00     2480.00
02183             640.00     2240.00
02184            -380.00     2480.00
02185             620.00     2320.00
02186             340.00     2640.00
02187            -540.00     3360.00
02188             -20.00     2480.00
02189             -20.00     2960.00
02190             180.00     3920.00
02191             200.00     2800.00
02192            -540.00     3280.00
02193              80.00     4240.00
02194               0.00     3360.00
02195            -480.00     3760.00
02196             300.00     4080.00
02197              20.00     4000.00
02198            -320.00     4400.00
02199             -20.00     4080.00
02200             -60.00     4560.00
02201             -20.00     4720.00
02202            -260.00     4320.00
02203             -60.00     5120.00
02204               0.00     4880.00
02205            -320.00     4880.00
02206            -100.00     5360.00
02207            -140.00     5040.00
02208            -140.00     5520.00
02209             -60.00     5280.00
02210            -160.00     5600.00
02211            -140.00     5840.00
02212            -240.00     5440.00
02213            -160.00     6000.00
02214            -140.00     5840.00
02215            -220.00     5920.00
02216            -180.00     6160.00
02217            -240.00     6160.00
02218            -260.00     6320.00
02219            -220.00     6160.00
02220            -160.00     6480.00
02221            -240.00     6560.00
02222            -300.00     6480.00
02223            -260.00     6800.00
02224            -260.00     6640.00
02225            -300.00     6800.00
02226            -260.00     6800.00
02227            -300.00     6880.00
02228            -380.00     6960.00
02229            -340.00     6960.00
02230            -300.00     7200.00
02231            -340.00     7120.00
02232            -380.00     7120.00
02233            -380.00     7200.00
02234            -420.00     7360.00
02235            -460.00     7280.00
02236            -420.00     7360.00
02237            -420.00     7440.00
02238            -480.00     7360.00
02239            -460.00     7520.00
02240            -480.00     7520.00
02241            -560.00     7440.00
02242            -580.00     7520.00
02243            -560.00     7520.00
02244            -560.00     7600.00
02245            -640.00     7600.00
02246            -640.00     7520.00
02247            -660.00     7600.00
02248            -720.00     7600.00
02249            -740.00     7600.00
02250            -740.00     7600.00
02251            -800.00     7600.00
02252            -840.00     7600.00
02253            -860.00     7600.00
02254            -900.00     7600.00
02255            -980.00     7520.00
02256            -980.00     7520.00
02257            -980.00     7520.00
02258           -1020.00     7440.00
02259           -1040.00     7520.00
02260           -1060.00     7440.00
02261           -1120.00     7440.00
02262           -1140.00     7440.00
02263           -1180.00     7440.00
02264           -1140.00     7440.00
02265           -1180.00     7360.00
02266           -1180.00     7280.00
02267           -1140.00     7200.00
02268           -1180.00     7200.00
02269           -1200.00     7040.00
02270           -1180.00     7120.00
02271           -1140.00     7040.00
02272           -1120.00     6960.00
02273           -1120.00     6880.00
02274           -1120.00     6800.00
02275           -1120.00     6800.00
02276           -1060.00     6640.00
02277           -1020.00     6640.00
02278            -960.00     6560.00
02279            -960.00     6480.00
02280            -940.00     6480.00
02281            -900.00     6320.00
02282            -860.00     6240.00
02283            -820.00     6160.00
02284            -760.00     6080.00
02285            -740.00     6000.00
02286            -720.00     5920.00
02287            -660.00     5840.00
02288            -640.00     5760.00
02289            -640.00     5600.00
02290            -560.00     5520.00
02291            -520.00     5440.00
02292            -520.00     5360.00
02293            -500.00     5280.00
02294            -460.00     5200.00
02295            -420.00     5040.00
02296            -420.00     4960.00
02297            -400.00     4880.00
02298            -380.00     4720.00
02299            -360.00     4640.00
02300            -340.00     4480.00
02301            -320.00     4320.00
02302            -320.00     4240.00
02303            -300.00     4080.00
02304            -260.00     4000.00
02305            -260.00     3920.00
02306            -240.00     3760.00
02307            -240.00     3680.00
02308            -240.00     3520.00
02309            -240.00     3360.00
02310            -200.00     3280.00
02311            -180.00     3120.00
02312            -160.00     3040.00
02313            -180.00     2880.00
02314            -160.00     2720.00
02315            -160.00     2640.00
02316            -180.00     2480.00
02317            -160.00     2320.00
02318            -140.00     2240.00
02319            -140.00     2080.00
02320            -140.00     1920.00
02321            -140.00     1760.00
02322            -100.00     1680.00
02323            -100.00     1520.00
02324            -100.00     1360.00
02325            -100.00     1200.00
02326            -100.00     1120.00
02327            -100.00      960.00
02328             -80.00      800.00
02329            -100.00      720.00
02330            -100.00      560.00
02331             -80.00      400.00
02332             -60.00      320.00
02333             -60.00      160.00
02334             -60.00      -80.00
02335             -60.00     -160.00
02336               0.00     -240.00
02337              80.00     -400.00
02338              80.00     -480.00
02339              60.00     -720.00
02340               0.00     -800.00
02341               0.00     -880.00
02342               0.00    -1040.00
02343             100.00    -1120.00
02344             540.00    -1360.00
02345             960.00    -1680.00
02346             460.00    -1760.00
02347            -620.00    -1840.00
02348           -1620.00    -2000.00
02349           -1140.00    -1760.00
02350             640.00    -2320.00
02351             500.00    -2400.00
02352            -160.00    -2080.00
02353             500.00    -2960.00
02354             320.00    -2640.00
02355             -60.00    -2400.00
02356             160.00    -3280.00
02357            -140.00    -3040.00
02358             220.00    -2960.00
02359             420.00    -3440.00
02360            -240.00    -3520.00
02361             -80.00    -3600.00
02362              60.00    -3600.00
02363             -60.00    -3840.00
02364             240.00    -4080.00
02365             180.00    -3920.00
02366             -60.00    -4240.00
02367              40.00    -4480.00
02368             300.00    -4400.00
02369             220.00    -4560.00
02370             -20.00    -4720.00
02371             160.00    -4880.00
02372             220.00    -4880.00
02373              60.00    -4960.00
02374              80.00    -5280.00
02375             160.00    -5120.00
02376             220.00    -5280.00
02377             140.00    -5600.00
02378             140.00    -5360.00
02379             200.00    -5600.00
02380             180.00    -5680.00
02381             280.00    -5840.00
02382             260.00    -5920.00
02383             140.00    -6000.00
02384             140.00    -6160.00
02385             220.00    -6080.00
02386             240.00    -6240.00
02387             220.00    -6320.00
02388             300.00    -6320.00
02389             300.00    -6400.00
02390             240.00    -6560.00
02391             240.00    -6640.00
02392             320.00    -6560.00
02393             260.00    -6640.00
02394             300.00    -6880.00
02395             320.00    -6800.00
02396             300.00    -6880.00
02397             300.00    -6960.00
02398             380.00    -7040.00
02399             400.00    -7120.00
02400             380.00    -7120.00
02401             380.00    -7200.00
02402             420.00    -7200.00
02403             400.00    -7200.00
02404             420.00    -7280.00
02405             460.00    -7280.00
02406             480.00    -7440.00
02407             520.00    -7440.00
02408             540.00    -7440.00
02409             540.00    -7440.00
02410             540.00    -7520.00
02411             560.00    -7520.00
02412             620.00    -7520.00
02413             620.00    -7520.00
02414             640.00    -7520.00
02415             720.00    -7520.00
02416             740.00    -7520.00
02417             740.00    -7600.00
02418             780.00    -7520.00
02419             860.00    -7520.00
02420             860.00    -7520.00
02421             900.00    -7520.00
02422             960.00    -7520.00
02423             960.00    -7440.00
02424             980.00    -7520.00
02425            1040.00    -7440.00
02426            1060.00    -7360.00
02427            1080.00    -7440.00
02428            1120.00    -7360.00
02429            1120.00    -7360.00
02430            1140.00    -7280.00
02431            1140.00    -7280.00
02432            1180.00    -7200.00
02433            1180.00    -7200.00
02434            1200.00    -7200.00
02435            1200.00    -7120.00
02436            1180.00    -7040.00
02437            1180.00    -6960.00
02438            1180.00    -6960.00
02439            1160.00    -6880.00
02440            1120.00    -6880.00
02441            1100.00    -6800.00
02442            1080.00    -6720.00
02443            1060.00    -6640.00
02444            1040.00    -6560.00
02445            1020.00    -6560.00
02446             980.00    -6480.00
02447             940.00    -6400.00
02448             900.00    -6240.00
02449             840.00    -6240.00
02450             820.00    -6160.00
02451             800.00    -6000.00
02452             780.00    -6000.00
02453             720.00    -5920.00
02454             700.00    -5840.00
02455             640.00    -5680.00
02456             620.00    -5600.00
02457             580.00    -5520.00
02458             560.00    -5360.00
02459             520.00    -5360.00
02460             480.00    -5200.00
02461             460.00    -5040.00
02462             460.00    -4960.00
02463             420.00    -4880.00
02464             380.00    -4800.00
02465             380.00    -4640.00
02466             380.00    -4560.00
02467             340.00    -4480.00
02468             340.00    -4400.00
02469             300.00    -4240.00
02470             260.00    -4160.00
02471             300.00    -3920.00
02472             260.00    -3840.00
02473             240.00    -3760.00
02474             240.00    -3600.00
02475             220.00    -3440.00
02476             200.00    -3360.00
02477             180.00    -3280.00
02478             220.00    -3040.00
02479             200.00    -3040.00
02480             180.00    -2800.00
02481             180.00    -2720.00
02482             160.00    -2640.00
02483             140.00    -2400.00
02484             140.00    -2320.00
02485             140.00    -2160.00
02486             140.00    -2000.00
02487             160.00    -1920.00
02488             140.00    -1760.00
02489             100.00    -1680.00
02490             100.00    -1520.00
02491             100.00    -1360.00
02492             100.00    -1200.00
02493             100.00    -1040.00
02494              80.00     -960.00
02495              80.00     -800.00
02496              60.00     -720.00
02497              80.00     -480.00
02498              80.00     -320.00
02499              80.00     -240.00
02500              60.00     -160.00
02501              80.00       80.00
02502              60.00      160.00
02503             100.00      320.00
02504             160.00      400.00
02505             160.00      560.00
02506             140.00      720.00
02507              80.00      800.00
02508              80.00      880.00
02509              80.00     1120.00
02510             160.00     1200.00
02511             800.00     1520.00
02512            1120.00     1680.00
02513             260.00     1840.00
02514           -1280.00     1760.00
02515           -2120.00     1600.00
02516            -340.00     2320.00
02517            1280.00     2320.00
02518             -80.00     2240.00
02519             -80.00     2480.00
02520             820.00     2320.00
02521            -260.00     3120.00
02522            -380.00     3040.00
02523              80.00     2400.00
02524             -80.00     3600.00
02525             400.00     3440.00
02526            -200.00     2720.00
02527            -420.00     3920.00
02528             280.00     3920.00
02529            -380.00     3360.00
02530            -160.00     4080.00
02531             380.00     4000.00
02532            -260.00     4240.00
02533            -160.00     4320.00
02534               0.00     4080.00
02535             -20.00     4880.00
02536            -120.00     4400.00
02537            -260.00     4560.00
02538              80.00     5200.00
02539            -160.00     4640.00
02540            -240.00     5200.00
02541             -60.00     5200.00
02542            -180.00     5280.00
02543             -60.00     5520.00
02544            -120.00     5280.00
02545            -140.00     5840.00
02546            -160.00     5600.00
02547            -240.00     5680.00
02548            -100.00     6000.00
02549            -180.00     5840.00
02550            -180.00     6080.00
02551            -180.00     6080.00
02552            -240.00     6240.00
02553            -240.00     6320.00
02554            -180.00     6320.00
02555            -180.00     6560.00
02556            -280.00     6480.00
02557            -300.00     6560.00
02558            -260.00     6640.00
02559            -260.00     6640.00
02560            -260.00     6800.00
02561            -260.00     6880.00
02562            -340.00     6960.00
02563            -380.00     6960.00
02564            -300.00     7120.00
02565            -320.00     7200.00
02566            -340.00     7120.00
02567            -380.00     7200.00
02568            -380.00     7280.00
02569            -420.00     7360.00
02570            -460.00     7280.00
02571            -420.00     7360.00
02572            -440.00     7440.00
02573            -480.00     7440.00
02574            -460.00     7520.00
02575            -500.00     7520.00
02576            -580.00     7520.00
02577            -580.00     7440.00
02578            -560.00     7520.00
02579            -580.00     7600.00
02580            -640.00     7520.00
02581            -660.00     7600.00
02582            -700.00     7600.00
02583            -740.00     7520.00
02584            -740.00     7600.00
02585            -740.00     7600.00
02586            -800.00     7600.00
02587            -860.00     7600.00
02588            -880.00     7600.00
02589            -940.00     7600.00
02590            -980.00     7520.00
02591            -980.00     7520.00
02592           -1020.00     7520.00
02593           -1060.00     7520.00
02594           -1060.00     7520.00
02595           -1100.00     7440.00
02596           -1120.00     7440.00
02597           -1140.00     7360.00
02598           -1140.00     7360.00
02599           -1160.00     7360.00
02600           -1160.00     7280.00
02601           -1180.00     7280.00
02602           -1180.00     7200.00
02603           -1220.00     7120.00
02604           -1200.00     7120.00
02605           -1140.00     7040.00
02606           -1120.00     7040.00
02607           -1140.00     6880.00
02608           -1120.00     6880.00
02609           -1120.00     6800.00
02610           -1100.00     6720.00
02611           -1040.00     6640.00
02612            -980.00     6640.00
02613            -980.00     6560.00
02614            -960.00     6480.00
02615            -900.00     6400.00
02616            -880.00     6320.00
02617            -820.00     6160.00
02618            -780.00     6160.00
02619            -740.00     6000.00
02620            -720.00     6000.00
02621            -700.00     5920.00
02622            -660.00     5760.00
02623            -640.00     5680.00
02624            -580.00     5600.00
02625            -560.00     5440.00
02626            -500.00     5440.00
02627            -480.00     5280.00
02628            -480.00     5200.00
02629            -480.00     5040.00
02630            -420.00     4960.00
02631            -400.00     4880.00
02632            -380.00     4720.00
02633            -360.00     4640.00
02634            -340.00     4560.00
02635            -340.00     4400.00
02636            -320.00     4320.00
02637            -300.00     4160.00
02638            -280.00     4080.00
02639            -260.00     4000.00
02640            -240.00     3840.00
02641            -220.00     3760.00
02642            -240.00     3600.00
02643            -240.00     3440.00
02644            -240.00     3360.00
02645            -200.00     3280.00
02646            -180.00     3040.00
02647            -160.00     2960.00
02648            -160.00     2800.00
02649            -180.00     2640.00
02650            -180.00     2480.00
02651            -180.00     2400.00
02652            -160.00     2320.00
02653            -140.00     2160.00
02654            -120.00     2000.00
02655            -140.00     1840.00
02656            -160.00     1680.00
02657            -100.00     1520.00
02658            -100.00     1440.00
02659             -80.00     1360.00
02660            -100.00     1200.00
02661             -80.00     1040.00
02662            -100.00      880.00
02663            -100.00      720.00
02664             -80.00      640.00
02665             -80.00      480.00
02666             -60.00      400.00
02667             -60.00      160.00
02668             -60.00       80.00
02669             -60.00      -80.00
02670             -20.00     -240.00
02671              60.00     -320.00
02672              80.00     -480.00
02673              60.00     -560.00
02674              20.00     -720.00
02675               0.00     -800.00
02676               0.00    -1040.00
02677              20.00    -1120.00
02678             240.00    -1200.00
02679             800.00    -1440.00
02680             860.00    -1760.00
02681               0.00    -1840.00
02682           -1120.00    -2000.00
02683           -1700.00    -1840.00
02684            -320.00    -1840.00
02685             940.00    -2480.00
02686               0.00    -2080.00
02687              80.00    -2480.00
02688             620.00    -3040.00
02689               0.00    -2400.00
02690              80.00    -2800.00
02691              60.00    -3360.00
02692            -160.00    -2880.00
02693             480.00    -3200.00
02694             160.00    -3600.00
02695            -300.00    -3600.00
02696             100.00    -3600.00
02697             -20.00    -3680.00
02698              20.00    -4000.00
02699             300.00    -4080.00
02700              80.00    -3920.00
02701             -60.00    -4400.00
02702             160.00    -4400.00
02703             300.00    -4400.00
02704              20.00    -4640.00
02705               0.00    -4720.00
02706             260.00    -4800.00
02707             160.00    -4800.00
02708              60.00    -5200.00
02709             100.00    -5200.00
02710             160.00    -5040.00
02711             220.00    -5520.00
02712             140.00    -5440.00
02713             180.00    -5440.00
02714             160.00    -5680.00
02715             160.00    -5680.00
02716             260.00    -5840.00
02717             220.00    -5840.00
02718             140.00    -6080.00
02719             160.00    -6160.00
02720             240.00    -6160.00
02721             240.00    -6320.00
02722             220.00    -6320.00
02723             300.00    -6320.00
02724             240.00    -6480.00
02725             220.00    -6560.00
02726             260.00    -6640.00
02727             300.00    -6640.00
02728             300.00    -6800.00
02729             320.00    -6880.00
02730             320.00    -6800.00
02731             300.00    -6960.00
02732             320.00    -6960.00
02733             400.00    -6960.00
02734             380.00    -7120.00
02735             340.00    -7120.00
02736             380.00    -7200.00
02737             420.00    -7200.00
02738             420.00    -7280.00
02739             460.00    -7280.00
02740             460.00    -7280.00
02741             480.00    -7360.00
02742             500.00    -7440.00
02743             540.00    -7360.00
02744             540.00    -7440.00
02745             560.00    -7440.00
02746             620.00    -7440.00
02747             660.00    -7520.00
02748             660.00    -7520.00
02749             700.00    -7600.00
02750             720.00    -7520.00
02751             720.00    -7520.00
02752             760.00    -7520.00
02753             820.00    -7520.00
02754             860.00    -7520.00
02755             860.00    -7520.00
02756             900.00    -7520.00
02757             940.00    -7520.00
02758             960.00    -7440.00
02759            1020.00    -7440.00
02760            1100.00    -7360.00
02761            1100.00    -7440.00
02762            1100.00    -7440.00
02763            1120.00    -7280.00
02764            1140.00    -7280.00
02765            1140.00    -7280.00
02766            1180.00    -7280.00
02767            1200.00    -7200.00
02768            1180.00    -7200.00
02769            1180.00    -7120.00
02770            1180.00    -7120.00
02771            1180.00    -7040.00
02772            1180.00    -6960.00
02773            1180.00    -6880.00
02774            1180.00    -6880.00
02775            1140.00    -6800.00
02776            1120.00    -6800.00
02777            1060.00    -6640.00
02778            1040.00    -6560.00
02779            1020.00    -6560.00
02780            1020.00    -6480.00
02781             960.00    -6400.00
02782             900.00    -6320.00
02783             860.00    -6240.00
02784             800.00    -6160.00
02785             800.00    -6080.00
02786             780.00    -6000.00
02787             780.00    -5920.00
02788             720.00    -5840.00
02789             640.00    -5680.00
02790             580.00    -5600.00
02791             560.00    -5520.00
02792             580.00    -5440.00
02793             540.00    -5360.00
02794             540.00    -5280.00
02795             500.00    -5200.00
02796             420.00    -5040.00
02797             420.00    -4960.00
02798             400.00    -4800.00
02799             380.00    -4720.00
02800             400.00    -4640.00
02801             360.00    -4560.00
02802             320.00    -4400.00
02803             300.00    -4320.00
02804             300.00    -4160.00
02805             260.00    -4000.00
02806             260.00    -3920.00
02807             260.00    -3840.00
02808             260.00    -3680.00
02809             240.00    -3600.00
02810             220.00    -3440.00
02811             220.00    -3280.00
02812             180.00    -3200.00
02813             180.00    -3040.00
02814             200.00    -2880.00
02815             180.00    -2800.00
02816             180.00    -2720.00
02817             160.00    -2480.00
02818             140.00    -2400.00
02819             140.00    -2320.00
02820             140.00    -2160.00
02821             160.00    -2000.00
02822             140.00    -1840.00
02823             140.00    -1680.00
02824             100.00    -1520.00
02825              80.00    -1440.00
02826              80.00    -1280.00
02827             120.00    -1200.00
02828             100.00    -1040.00
02829              80.00     -880.00
02830              80.00     -720.00
02831              80.00     -560.00
02832              60.00     -480.00
02833              80.00     -320.00
02834              80.00     -160.00
02835              60.00      -80.00
02836              60.00       80.00
02837              60.00      240.00
02838             100.00      320.00
02839             180.00      480.00
02840             180.00      560.00
02841             140.00      800.00
02842             100.00      880.00
02843              60.00      960.00
02844              80.00     1120.00
02845             340.00     1360.00
02846            1100.00     1520.00
02847             900.00     1760.00
02848            -360.00     1840.00
02849           -1880.00     1680.00
02850           -1680.00     1840.00
02851             700.00     2400.00
02852             820.00     2320.00
02853            -420.00     2400.00
02854             480.00     2320.00
02855             540.00     2560.00
02856            -540.00     3360.00
02857            -100.00     2640.00
02858               0.00     2800.00
02859             100.00     3920.00
02860             260.00     2960.00
02861            -480.00     3120.00
02862             -20.00     4240.00
02863             120.00     3440.00
02864            -500.00     3680.00
02865             200.00     4080.00
02866             100.00     4000.00
02867            -340.00     4400.00
02868             -40.00     4080.00
02869             -20.00     4480.00
02870               0.00     4800.00
02871            -260.00     4240.00
02872            -100.00     5040.00
02873              60.00     4880.00
02874            -300.00     4800.00
02875            -100.00     5280.00
02876            -100.00     5040.00
02877            -160.00     5520.00
02878             -60.00     5280.00
02879            -160.00     5520.00
02880            -120.00     5840.00
02881            -240.00     5520.00
02882            -160.00     5920.00
02883            -100.00     5840.00
02884            -240.00     5920.00
02885            -180.00     6160.00
02886            -220.00     6080.00
02887            -240.00     6320.00
02888            -220.00     6240.00
02889            -160.00     6480.00
02890            -240.00     6560.00
02891            -300.00     6480.00
02892            -260.00     6720.00
02893            -260.00     6640.00
02894            -260.00     6720.00
02895            -240.00     6800.00
02896            -280.00     6960.00
02897            -380.00     6880.00
02898            -360.00     6960.00
02899            -300.00     7120.00
02900            -340.00     7120.00
02901            -340.00     7120.00
02902            -340.00     7200.00
02903            -400.00     7360.00
02904            -480.00     7360.00
02905            -460.00     7280.00
02906            -420.00     7360.00
02907            -480.00     7360.00
02908            -460.00     7440.00
02909            -460.00     7520.00
02910            -560.00     7520.00
02911            -620.00     7440.00
02912            -560.00     7520.00
02913            -560.00     7520.00
02914            -640.00     7520.00
02915            -640.00     7600.00
02916            -660.00     7600.00
02917            -720.00     7600.00
02918            -740.00     7600.00
02919            -740.00     7600.00
02920            -800.00     7600.00
02921            -820.00     7600.00
02922            -860.00     7600.00
02923            -900.00     7600.00
02924            -960.00     7520.00
02925            -980.00     7520.00
02926           -1000.00     7600.00
02927           -1020.00     7440.00
02928           -1060.00     7520.00
02929           -1100.00     7440.00
02930           -1120.00     7440.00
02931           -1140.00     7440.00
02932           -1140.00     7360.00
02933           -1140.00     7440.00
02934           -1180.00     7280.00
02935           -1180.00     7280.00
02936           -1180.00     7280.00
02937           -1180.00     7200.00
02938           -1200.00     7120.00
02939           -1180.00     7040.00
02940           -1140.00     6960.00
02941           -1140.00     6960.00
02942           -1120.00     6960.00
02943           -1120.00     6880.00
02944           -1100.00     6800.00
02945           -1060.00     6720.00
02946           -1020.00     6640.00
02947            -980.00     6560.00
02948            -960.00     6480.00
02949            -940.00     6320.00
02950            -900.00     6400.00
02951            -860.00     6320.00
02952            -820.00     6160.00
02953            -780.00     6080.00
02954            -740.00     6000.00
02955            -700.00     5920.00
02956            -660.00     5920.00
02957            -660.00     5760.00
02958            -620.00     5600.00
02959            -560.00     5600.00
02960            -520.00     5520.00
02961            -500.00     5360.00
02962            -500.00     5280.00
02963            -480.00     5120.00
02964            -460.00     5040.00
02965            -420.00     4880.00
02966            -400.00     4880.00
02967            -380.00     4720.00
02968            -340.00     4640.00
02969            -340.00     4560.00
02970            -340.00     4400.00
02971            -320.00     4320.00
02972            -300.00     4240.00
02973            -260.00     4000.00
02974            -240.00     3920.00
02975            -260.00     3840.00
02976            -260.00     3680.00
02977            -240.00     3520.00
02978            -240.00     3360.00
02979            -220.00     3280.00
02980            -220.00     3120.00
02981            -180.00     2960.00
02982            -180.00     2960.00
02983            -180.00     2800.00
02984            -180.00     2640.00
02985            -160.00     2480.00
02986            -160.00     2320.00
02987            -140.00     2240.00
02988            -140.00     2080.00
02989            -140.00     2000.00
02990            -140.00     1760.00
02991            -140.00     1680.00
02992            -100.00     1520.00
02993            -100.00     1360.00
02994            -100.00     1360.00
02995             -80.00     1120.00
02996            -100.00      960.00
02997            -100.00      800.00
02998            -100.00      720.00
02999             -80.00      560.00
03000             -80.00      400.00
03001             -60.00      240.00
03002             -80.00      160.00
03003             -60.00       80.00
03004             -60.00     -160.00
03005               0.00     -240.00
03006              60.00     -400.00
03007              80.00     -480.00
03008              60.00     -640.00
03009              20.00     -800.00
03010               0.00     -880.00
03011               0.00    -1040.00
03012              80.00    -1120.00
03013             480.00    -1280.00
03014             960.00    -1680.00
03015             560.00    -1760.00
03016            -480.00    -1840.00
03017           -1540.00    -2000.00
03018           -1340.00    -1760.00
03019             480.00    -2160.00
03020             640.00    -2400.00
03021            -180.00    -2080.00
03022             420.00    -2880.00
03023             420.00    -2720.00
03024             -80.00    -2320.00
03025             160.00    -3280.00
03026            -100.00    -3280.00
03027             100.00    -2880.00
03028             480.00    -3440.00
03029            -160.00    -3520.00
03030            -140.00    -3600.00
03031             100.00    -3600.00
03032             -60.00    -3760.00
03033             180.00    -4160.00
03034             220.00    -4000.00
03035             -20.00    -4160.00
03036               0.00    -4560.00
03037             240.00    -4320.00
03038             220.00    -4480.00
03039             -80.00    -4720.00
03040             140.00    -4880.00
03041             260.00    -4800.00
03042              60.00    -4880.00
03043              60.00    -5280.00
03044             140.00    -5200.00
03045             200.00    -5200.00
03046             160.00    -5520.00
03047             160.00    -5440.00
03048             180.00    -5600.00
03049             140.00    -5680.00
03050             180.00    -5840.00
03051             240.00    -5840.00
03052             140.00    -5920.00
03053             140.00    -6160.00
03054             220.00    -6080.00
03055             220.00    -6160.00
03056             220.00    -6320.00
03057             240.00    -6400.00
03058             300.00    -6400.00
03059             220.00    -6480.00
03060             240.00    -6560.00
03061             320.00    -6640.00
03062             300.00    -6720.00
03063             300.00    -6880.00
03064             300.00    -6800.00
03065             300.00    -6880.00
03066             280.00    -6960.00
03067             340.00    -7040.00
03068             400.00    -7040.00
03069             380.00    -7120.00
03070             400.00    -7200.00
03071             400.00    -7200.00
03072             400.00    -7280.00
03073             400.00    -7280.00
03074             480.00    -7280.00
03075             540.00    -7360.00
03076             480.00    -7440.00
03077             500.00    -7440.00
03078             540.00    -7440.00
03079             540.00    -7440.00
03080             620.00    -7520.00
03081             640.00    -7520.00
03082             640.00    -7520.00
03083             660.00    -7520.00
03084             700.00    -7520.00
03085             720.00    -7520.00
03086             740.00    -7520.00
03087             780.00    -7520.00
03088             820.00    -7520.00
03089             860.00    -7520.00
03090             900.00    -7520.00
03091             960.00    -7520.00
03092             960.00    -7520.00
03093             980.00    -7520.00
03094            1020.00    -7440.00
03095            1060.00    -7440.00
03096            1060.00    -7440.00
03097            1100.00    -7360.00
03098            1140.00    -7280.00
03099            1140.00    -7280.00
03100            1140.00    -7280.00
03101            1180.00    -7280.00
03102            1180.00    -7120.00
03103            1180.00    -7200.00
03104            1180.00    -7120.00
03105            1180.00    -7040.00
03106            1140.00    -7040.00
03107            1140.00    -6960.00
03108            1180.00    -6880.00
03109            1140.00    -6880.00
03110            1120.00    -6800.00
03111            1100.00    -6800.00
03112            1040.00    -6640.00
03113            1020.00    -6560.00
03114            1020.00    -6560.00
03115             980.00    -6480.00
03116             940.00    -6400.00
03117             880.00    -6320.00
03118             860.00    -6240.00
03119             800.00    -6160.00
03120             780.00    -6000.00
03121             760.00    -5920.00
03122             720.00    -5920.00
03123             660.00    -5840.00
03124             640.00    -5680.00
03125             620.00    -5520.00
03126             580.00    -5440.00
03127             560.00    -5360.00
03128             540.00    -5280.00
03129             500.00    -5200.00
03130             460.00    -5120.00
03131             420.00    -5040.00
03132             400.00    -4880.00
03133             380.00    -4800.00
03134             380.00    -4720.00
03135             380.00    -4560.00
03136             340.00    -4480.00
03137             320.00    -4400.00
03138             320.00    -4240.00
03139             300.00    -4080.00
03140             260.00    -4000.00
03141             300.00    -3840.00
03142             280.00    -3760.00
03143             240.00    -3600.00
03144             220.00    -3440.00
03145             220.00    -3360.00
03146             180.00    -3280.00
03147             200.00    -3120.00
03148             180.00    -2960.00
03149             180.00    -2800.00
03150             160.00    -2720.00
03151             160.00    -2560.00
03152             160.00    -2480.00
03153             140.00    -2400.00
03154             140.00    -2160.00
03155             160.00    -2080.00
03156             160.00    -2000.00
03157             140.00    -1840.00
03158             140.00    -1680.00
03159             100.00    -1520.00
03160             100.00    -1360.00
03161             100.00    -1280.00
03162             100.00    -1120.00
03163              80.00    -1040.00
03164              80.00     -880.00
03165              80.00     -720.00
03166              60.00     -480.00
03167              80.00     -400.00
03168              80.00     -240.00
03169              80.00     -160.00
03170              80.00        0.00
03171              60.00      160.00
03172              60.00      240.00
03173             140.00      400.00
03174             160.00      560.00
03175             160.00      720.00
03176             120.00      800.00
03177              60.00      880.00
03178              60.00     1040.00
03179             140.00     1200.00
03180             700.00     1360.00
03181            1140.00     1680.00
03182             420.00     1760.00
03183           -1060.00     1760.00
03184           -2180.00     1600.00
03185            -700.00     2160.00
03186            1260.00     2400.00
03187             100.00     2160.00
03188            -180.00     2400.00
03189             820.00     2320.00
03190             -80.00     2960.00
03191            -420.00     3120.00
03192              60.00     2400.00
03193             -80.00     3360.00
03194             340.00     3600.00
03195            -100.00     2640.00
03196            -480.00     3760.00
03197             260.00     4080.00
03198            -280.00     3280.00
03199            -260.00     4000.00
03200             380.00     4000.00
03201            -180.00     4160.00
03202            -220.00     4320.00
03203               0.00     4080.00
03204             -20.00     4880.00
03205             -80.00     4480.00
03206            -260.00     4480.00
03207              60.00     5280.00
03208            -100.00     4640.00
03209            -260.00     5040.00
03210             -60.00     5200.00
03211            -180.00     5200.00
03212             -80.00     5520.00
03213            -100.00     5200.00
03214            -160.00     5760.00
03215            -140.00     5600.00
03216            -240.00     5600.00
03217            -100.00     6000.00
03218            -180.00     5760.00
03219            -220.00     6160.00
03220            -180.00     6160.00
03221            -240.00     6240.00
03222            -220.00     6320.00
03223            -160.00     6240.00
03224            -160.00     6640.00
03225            -300.00     6400.00
03226            -320.00     6560.00
03227            -240.00     6720.00
03228            -260.00     6640.00
03229            -260.00     6800.00
03230            -260.00     6800.00
03231            -320.00     6960.00
03232            -380.00     6960.00
03233            -320.00     7120.00
03234            -300.00     7120.00
03235            -340.00     7120.00
03236            -360.00     7120.00
03237            -340.00     7280.00
03238            -420.00     7280.00
03239            -460.00     7280.00
03240            -420.00     7360.00
03241            -460.00     7440.00
03242            -480.00     7360.00
03243            -480.00     7520.00
03244            -480.00     7440.00
03245            -580.00     7520.00
03246            -580.00     7440.00
03247            -540.00     7600.00
03248            -580.00     7600.00
03249            -660.00     7520.00
03250            -660.00     7600.00
03251            -700.00     7600.00
03252            -740.00     7600.00
03253            -740.00     7520.00
03254            -760.00     7600.00
03255            -840.00     7600.00
03256            -860.00     7600.00
03257            -880.00     7600.00
03258            -900.00     7600.00
03259            -980.00     7520.00
03260            -980.00     7600.00
03261            -980.00     7520.00
03262           -1060.00     7520.00
03263           -1100.00     7440.00
03264           -1060.00     7440.00
03265           -1120.00     7440.00
03266           -1140.00     7440.00
03267           -1140.00     7360.00
03268           -1140.00     7440.00
03269           -1180.00     7280.00
03270           -1180.00     7200.00
03271           -1180.00     7200.00
03272           -1200.00     7200.00
03273           -1180.00     7120.00
03274           -1140.00     7040.00
03275           -1120.00     6960.00
03276           -1140.00     6960.00
03277           -1120.00     6800.00
03278           -1120.00     6800.00
03279           -1060.00     6720.00
03280           -1040.00     6640.00
03281            -980.00     6640.00
03282            -960.00     6560.00
03283            -960.00     6480.00
03284            -920.00     6480.00
03285            -880.00     6320.00
03286            -860.00     6240.00
03287            -800.00     6160.00
03288            -740.00     6080.00
03289            -700.00     6000.00
03290            -680.00     5840.00
03291            -660.00     5840.00
03292            -640.00     5680.00
03293            -580.00     5520.00
03294            -560.00     5520.00
03295            -520.00     5440.00
03296            -480.00     5280.00
03297            -500.00     5200.00
03298            -460.00     5120.00
03299            -420.00     5040.00
03300            -420.00     4880.00
03301            -380.00     4720.00
03302            -380.00     4640.00
03303            -340.00     4560.00
03304            -320.00     4400.00
03305            -340.00     4320.00
03306            -320.00     4160.00
03307            -300.00     4080.00
03308            -280.00     4000.00
03309            -260.00     3840.00
03310            -260.00     3760.00
03311            -260.00     3600.00
03312            -240.00     3520.00
03313            -240.00     3360.00
03314            -200.00     3200.00
03315            -220.00     3120.00
03316            -220.00     2960.00
03317            -160.00     2800.00
03318            -160.00     2720.00
03319            -160.00     2560.00
03320            -160.00     2400.00
03321            -160.00     2320.00
03322            -140.00     2160.00
03323            -140.00     2080.00
03324            -140.00     1840.00
03325            -140.00     1680.00
03326            -100.00     1600.00
03327            -100.00     1440.00
03328            -100.00     1360.00
03329            -100.00     1200.00
03330            -100.00     1120.00
03331             -80.00      880.00
03332             -60.00      800.00
03333             -80.00      640.00
03334            -100.00      480.00
03335             -80.00      400.00
03336             -60.00      240.00
03337             -60.00       80.00
03338             -20.00      -80.00
03339             -20.00     -160.00
03340              20.00     -240.00
03341              80.00     -400.00
03342              80.00     -560.00
03343              60.00     -720.00
03344              20.00     -880.00
03345               0.00    -1040.00
03346              20.00    -1040.00
03347             180.00    -1200.00
03348             740.00    -1440.00
03349             940.00    -1760.00
03350             140.00    -1840.00
03351            -980.00    -2000.00
03352           -1740.00    -1840.00
03353            -580.00    -1840.00
03354             920.00    -2480.00
03355             140.00    -2160.00
03356               0.00    -2320.00
03357             620.00    -3120.00
03358              80.00    -2400.00
03359              60.00    -2640.00
03360             100.00    -3440.00
03361            -160.00    -2880.00
03362             440.00    -3120.00
03363             240.00    -3520.00
03364            -320.00    -3600.00
03365              60.00    -3600.00
03366               0.00    -3680.00
03367             -20.00    -3920.00
03368             300.00    -4080.00
03369             100.00    -3920.00
03370             -80.00    -4400.00
03371             120.00    -4400.00
03372             300.00    -4320.00
03373              60.00    -4640.00
03374             -20.00    -4800.00
03375             220.00    -4880.00
03376             160.00    -4800.00
03377              20.00    -5040.00
03378              80.00    -5280.00
03379             160.00    -5040.00
03380             220.00    -5440.00
03381             160.00    -5520.00
03382             180.00    -5360.00
03383             160.00    -5680.00
03384             140.00    -5760.00
03385             240.00    -5920.00
03386             220.00    -5840.00
03387             120.00    -6000.00
03388             160.00    -6160.00
03389             240.00    -6000.00
03390             240.00    -6320.00
03391             220.00    -6320.00
03392             300.00    -6320.00
03393             260.00    -6480.00
03394             220.00    -6480.00
03395             240.00    -6640.00
03396             300.00    -6640.00
03397             300.00    -6800.00
03398             320.00    -6800.00
03399             320.00    -6800.00
03400             300.00    -6960.00
03401             320.00    -7040.00
03402             380.00    -6960.00
03403             400.00    -7120.00
03404             380.00    -7200.00
03405             420.00    -7200.00
03406             420.00    -7200.00
03407             400.00    -7280.00
03408             460.00    -7280.00
03409             480.00    -7280.00
03410             480.00    -7440.00
03411             540.00    -7440.00
03412             540.00    -7440.00
03413             540.00    -7440.00
03414             540.00    -7520.00
03415             620.00    -7520.00
03416             640.00    -7520.00
03417             660.00    -7520.00
03418             720.00    -7520.00
03419             700.00    -7520.00
03420             680.00    -7520.00
03421             740.00    -7520.00
03422             820.00    -7520.00
03423             860.00    -7520.00
03424             880.00    -7520.00
03425             920.00    -7520.00
03426             940.00    -7440.00
03427             940.00    -7440.00
03428            1020.00    -7520.00
03429            1080.00    -7440.00
03430            1080.00    -7440.00
03431            1060.00    -7440.00
03432            1100.00    -7360.00
03433            1120.00    -7280.00
03434            1120.00    -7280.00
03435            1180.00    -7200.00
03436            1180.00    -7200.00
03437            1160.00    -7200.00
03438            1140.00    -7120.00
03439            1180.00    -7120.00
03440            1180.00    -6960.00
03441            1180.00    -6960.00
03442            1180.00    -6960.00
03443            1140.00    -6880.00
03444            1120.00    -6880.00
03445            1080.00    -6800.00
03446            1060.00    -6640.00
03447            1040.00    -6640.00
03448            1020.00    -6560.00
03449            1020.00    -6480.00
03450             960.00    -6480.00
03451             900.00    -6320.00
03452             880.00    -6320.00
03453             820.00    -6240.00
03454             780.00    -6160.00
03455             780.00    -6000.00
03456             740.00    -5920.00
03457             720.00    -5840.00
03458             660.00    -5840.00
03459             620.00    -5680.00
03460             580.00    -5520.00
03461             560.00    -5440.00
03462             560.00    -5360.00
03463             540.00    -5280.00
03464             480.00    -5200.00
03465             460.00    -5040.00
03466             420.00    -4960.00
03467             380.00    -4880.00
03468             400.00    -4720.00
03469             400.00    -4640.00
03470             380.00    -4560.00
03471             340.00    -4400.00
03472             300.00    -4320.00
03473             300.00    -4160.00
03474             260.00    -4080.00
03475             260.00    -4000.00
03476             300.00    -3840.00
03477             260.00    -3680.00
03478             240.00    -3600.00
03479             220.00    -3440.00
03480             220.00    -3360.00
03481             180.00    -3200.00
03482             220.00    -3120.00
03483             220.00    -2880.00
03484             180.00    -2800.00
03485             160.00    -2720.00
03486             160.00    -2560.00
03487             140.00    -2400.00
03488             140.00    -2240.00
03489             160.00    -2080.00
03490             160.00    -2000.00
03491             140.00    -1920.00
03492             140.00    -1760.00
03493             120.00    -1520.00
03494             100.00    -1440.00
03495             100.00    -1280.00
03496             100.00    -1200.00
03497             100.00    -1040.00
03498              80.00     -960.00
03499              80.00     -720.00
03500              80.00     -640.00
03501              60.00     -480.00
03502              60.00     -320.00
03503              80.00     -240.00
03504              60.00      -80.00
03505              60.00       80.00
03506              80.00      240.00
03507              80.00      400.00
03508             140.00      480.00
03509             160.00      560.00
03510             140.00      720.00
03511              80.00      800.00
03512              60.00     1040.00
03513              80.00     1120.00
03514             260.00     1280.00
03515            1020.00     1520.00
03516             960.00     1680.00
03517            -160.00     1760.00
03518           -1740.00     1680.00
03519           -1860.00     1760.00
03520             420.00     2400.00
03521            1040.00     2320.00
03522            -380.00     2320.00
03523             320.00     2400.00
03524             640.00     2400.00
03525            -500.00     3360.00
03526            -160.00     2720.00
03527              40.00     2640.00
03528              60.00     3920.00
03529             340.00     3040.00
03530            -420.00     2960.00
03531            -160.00     4080.00
03532             200.00     3600.00
03533            -480.00     3600.00
03534             140.00     4160.00
03535             220.00     3920.00
03536            -320.00     4320.00
03537             -80.00     4080.00
03538             -20.00     4320.00
03539               0.00     4880.00
03540            -220.00     4240.00
03541            -140.00     4960.00
03542              80.00     5040.00
03543            -260.00     4720.00
03544            -140.00     5280.00
03545            -100.00     5040.00
03546            -160.00     5520.00
03547             -60.00     5360.00
03548            -160.00     5360.00
03549            -140.00     5840.00
03550            -220.00     5520.00
03551            -180.00     5920.00
03552            -100.00     5920.00
03553            -220.00     5840.00
03554            -180.00     6240.00
03555            -220.00     6080.00
03556            -240.00     6320.00
03557            -220.00     6240.00
03558            -160.00     6480.00
03559            -220.00     6640.00
03560            -320.00     6480.00
03561            -280.00     6720.00
03562            -260.00     6640.00
03563            -260.00     6720.00
03564            -260.00     6800.00
03565            -260.00     6880.00
03566            -380.00     6960.00
03567            -340.00     6960.00
03568            -300.00     7120.00
03569            -320.00     7120.00
03570            -360.00     7120.00
03571            -380.00     7200.00
03572            -380.00     7280.00
03573            -460.00     7280.00
03574            -460.00     7360.00
03575            -420.00     7360.00
03576            -480.00     7440.00
03577            -480.00     7440.00
03578            -460.00     7440.00
03579            -540.00     7520.00
03580            -620.00     7520.00
03581            -580.00     7520.00
03582            -560.00     7600.00
03583            -640.00     7600.00
03584            -660.00     7520.00
03585            -660.00     7600.00
03586            -700.00     7600.00
03587            -740.00     7600.00
03588            -740.00     7600.00
03589            -800.00     7600.00
03590            -820.00     7600.00
03591            -860.00     7600.00
03592            -880.00     7600.00
03593            -940.00     7600.00
03594           -1000.00     7520.00
03595            -980.00     7520.00
03596           -1020.00     7520.00
03597           -1060.00     7440.00
03598           -1060.00     7440.00
03599           -1100.00     7440.00
03600           -1140.00     7440.00
03601           -1140.00     7360.00
03602           -1140.00     7360.00
03603           -1180.00     7280.00
03604           -1180.00     7200.00
03605           -1140.00     7360.00
03606           -1160.00     7200.00
03607           -1200.00     7120.00
03608           -1180.00     7040.00
03609           -1140.00     6960.00
03610           -1140.00     6960.00
03611           -1120.00     6880.00
03612           -1120.00     6880.00
03613           -1120.00     6800.00
03614           -1060.00     6720.00
03615           -1020.00     6640.00
03616            -980.00     6640.00
03617            -960.00     6480.00
03618            -940.00     6480.00
03619            -900.00     6320.00
03620            -860.00     6320.00
03621            -820.00     6240.00
03622            -780.00     6080.00
03623            -740.00     6000.00
03624            -720.00     5920.00
03625            -660.00     5920.00
03626            -660.00     5760.00
03627            -640.00     5680.00
03628            -580.00     5600.00
03629            -540.00     5520.00
03630            -520.00     5440.00
03631            -500.00     5280.00
03632            -480.00     5200.00
03633            -440.00     5040.00
03634            -420.00     4960.00
03635            -420.00     4800.00
03636            -380.00     4720.00
03637            -380.00     4640.00
03638            -320.00     4560.00
03639            -340.00     4400.00
03640            -320.00     4240.00
03641            -300.00     4160.00
03642            -280.00     4080.00
03643            -260.00     3920.00
03644            -260.00     3840.00
03645            -260.00     3680.00
03646            -240.00     3520.00
03647            -240.00     3440.00
03648            -220.00     3280.00
03649            -180.00     3120.00
03650            -200.00     3040.00
03651            -180.00     2960.00
03652            -180.00     2800.00
03653            -160.00     2640.00
03654            -180.00     2480.00
03655            -160.00     2320.00
03656            -160.00     2320.00
03657            -140.00     2160.00
03658            -140.00     2000.00
03659            -140.00     1840.00
03660            -120.00     1680.00
03661            -100.00     1600.00
03662            -100.00     1440.00
03663             -80.00     1360.00
03664            -100.00     1120.00
03665            -100.00     1040.00
03666             -80.00      800.00
03667             -80.00      720.00
03668             -80.00      560.00
03669             -80.00      400.00
03670             -20.00      320.00
03671             -60.00      160.00
03672             -20.00        0.00
03673             -60.00      -80.00
03674               0.00     -240.00
03675              80.00     -320.00
03676              80.00     -480.00
03677              80.00     -640.00
03678              20.00     -800.00
03679              20.00     -880.00
03680               0.00    -1040.00
03681              60.00    -1120.00
03682             400.00    -1280.00
03683             940.00    -1520.00
03684             700.00    -1840.00
03685            -340.00    -1840.00
03686           -1420.00    -2000.00
03687           -1500.00    -1760.00
03688             240.00    -2080.00
03689             800.00    -2480.00
03690            -180.00    -2080.00
03691             320.00    -2800.00
03692             520.00    -2880.00
03693             -80.00    -2320.00
03694             140.00    -3120.00
03695             -80.00    -3280.00
03696               0.00    -2880.00
03697             500.00    -3360.00
03698            -100.00    -3600.00
03699            -220.00    -3520.00
03700             140.00    -3680.00
03701             -60.00    -3680.00
03702             100.00    -4080.00
03703             240.00    -4000.00
03704             -20.00    -4080.00
03705             -20.00    -4480.00
03706             220.00    -4320.00
03707             260.00    -4480.00
03708             -60.00    -4720.00
03709              80.00    -4800.00
03710             260.00    -4800.00
03711              80.00    -4880.00
03712              60.00    -5280.00
03713             140.00    -5200.00
03714             200.00    -5120.00
03715             180.00    -5520.00
03716             160.00    -5440.00
03717             180.00    -5520.00
03718             160.00    -5680.00
03719             180.00    -5840.00
03720             260.00    -5920.00
03721             160.00    -5920.00
03722             120.00    -6160.00
03723             220.00    -6000.00
03724             260.00    -6160.00
03725             220.00    -6320.00
03726             240.00    -6320.00
03727             300.00    -6480.00
03728             220.00    -6560.00
03729             220.00    -6560.00
03730             300.00    -6640.00
03731             320.00    -6720.00
03732             300.00    -6800.00
03733             320.00    -6800.00
03734             300.00    -6880.00
03735             300.00    -6960.00
03736             380.00    -6960.00
03737             420.00    -6960.00
03738             380.00    -7120.00
03739             380.00    -7120.00
03740             420.00    -7200.00
03741             400.00    -7120.00
03742             400.00    -7280.00
03743             480.00    -7280.00
03744             500.00    -7280.00
03745             500.00    -7440.00
03746             540.00    -7440.00
03747             540.00    -7440.00
03748             540.00    -7440.00
03749             560.00    -7520.00
03750             640.00    -7520.00
03751             640.00    -7520.00
03752             640.00    -7520.00
03753             700.00    -7520.00
03754             720.00    -7520.00
03755             740.00    -7600.00
03756             780.00    -7520.00
03757             860.00    -7520.00
03758             860.00    -7520.00
03759             880.00    -7600.00
03760             940.00    -7520.00
03761             940.00    -7440.00
03762             960.00    -7440.00
03763            1020.00    -7440.00
03764            1060.00    -7440.00
03765            1100.00    -7440.00
03766            1100.00    -7440.00
03767            1120.00    -7280.00
03768            1120.00    -7280.00
03769            1140.00    -7280.00
03770            1180.00    -7200.00
03771            1180.00    -7200.00
03772            1180.00    -7200.00
03773            1180.00    -7120.00
03774            1180.00    -7120.00
03775            1140.00    -7040.00
03776            1160.00    -6960.00
03777            1180.00    -6960.00
03778            1140.00    -6880.00
03779            1120.00    -6800.00
03780            1100.00    -6800.00
03781            1060.00    -6640.00
03782            1020.00    -6560.00
03783            1020.00    -6560.00
03784             960.00    -6480.00
03785             940.00    -6320.00
03786             900.00    -6320.00
03787             860.00    -6240.00
03788             820.00    -6240.00
03789             780.00    -6000.00
03790             740.00    -6000.00
03791             720.00    -5920.00
03792             700.00    -5840.00
03793             660.00    -5680.00
03794             580.00    -5600.00
03795             560.00    -5520.00
03796             540.00    -5360.00
03797             540.00    -5280.00
03798             540.00    -5200.00
03799             480.00    -5040.00
03800             460.00    -5040.00
03801             420.00    -4880.00
03802             400.00    -4880.00
03803             400.00    -4720.00
03804             360.00    -4560.00
03805             340.00    -4400.00
03806             320.00    -4400.00
03807             300.00    -4240.00
03808             300.00    -4080.00
03809             300.00    -4000.00
03810             300.00    -3840.00
03811             260.00    -3760.00
03812             240.00    -3600.00
03813             220.00    -3520.00
03814             220.00    -3360.00
03815             220.00    -3280.00
03816             220.00    -3120.00
03817             180.00    -3040.00
03818             200.00    -2880.00
03819             180.00    -2720.00
03820             160.00    -2640.00
03821             160.00    -2480.00
03822             140.00    -2320.00
03823             160.00    -2160.00
03824             160.00    -2080.00
03825             140.00    -1920.00
03826             120.00    -1840.00
03827              80.00    -1680.00
03828             100.00    -1520.00
03829             100.00    -1360.00
03830             100.00    -1200.00
03831             100.00    -1120.00
03832              80.00     -960.00
03833              80.00     -880.00
03834              60.00     -720.00
03835              60.00     -480.00
03836              60.00     -400.00
03837              80.00     -240.00
03838              80.00     -160.00
03839              60.00       80.00
03840              60.00      160.00
03841              60.00      240.00
03842             140.00      400.00
03843             160.00      560.00
03844             160.00      640.00
03845             120.00      800.00
03846              80.00      880.00
03847              60.00     1040.00
03848             100.00     1200.00
03849             580.00     1360.00
03850            1180.00     1680.00
03851             580.00     1760.00
03852            -860.00     1760.00
03853           -2140.00     1600.00
03854           -1000.00     2080.00
03855            1180.00     2400.00
03856             300.00     2320.00
03857            -300.00     2480.00
03858             780.00     2240.00
03859             100.00     2800.00
03860            -500.00     3280.00
03861              60.00     2400.00
03862             -80.00     3280.00
03863             300.00     3760.00
03864              40.00     2720.00
03865            -500.00     3600.00
03866             220.00     4080.00
03867            -160.00     3360.00
03868            -380.00     3920.00
03869             380.00     4000.00
03870            -100.00     4080.00
03871            -260.00     4400.00
03872               0.00     4000.00
03873             -20.00     4720.00
03874             -40.00     4640.00
03875            -280.00     4400.00
03876               0.00     5200.00
03877             -60.00     4800.00
03878            -300.00     4960.00
03879             -60.00     5200.00
03880            -160.00     5200.00
03881            -100.00     5520.00
03882            -100.00     5200.00
03883            -160.00     5680.00
03884            -160.00     5680.00
03885            -240.00     5520.00
03886            -100.00     6000.00
03887            -160.00     5840.00
03888            -220.00     6000.00
03889            -160.00     6160.00
03890            -240.00     6160.00
03891            -240.00     6320.00
03892            -180.00     6240.00
03893            -160.00     6560.00
03894            -260.00     6480.00
03895            -320.00     6480.00
03896            -260.00     6720.00
03897            -280.00     6640.00
03898            -260.00     6800.00
03899            -260.00     6800.00
03900            -320.00     6960.00
03901            -400.00     6880.00
03902            -320.00     6960.00
03903            -320.00     7120.00
03904            -340.00     7120.00
03905            -380.00     7120.00
03906            -380.00     7280.00
03907            -420.00     7280.00
03908            -480.00     7280.00
03909            -420.00     7360.00
03910            -420.00     7440.00
03911            -480.00     7440.00
03912            -480.00     7440.00
03913            -480.00     7440.00
03914            -580.00     7440.00
03915            -580.00     7520.00
03916            -560.00     7520.00
03917            -580.00     7600.00
03918            -640.00     7600.00
03919            -640.00     7520.00
03920            -660.00     7600.00
03921            -740.00     7600.00
03922            -740.00     7600.00
03923            -740.00     7520.00
03924            -800.00     7600.00
03925            -840.00     7520.00
03926            -860.00     7600.00
03927            -900.00     7600.00
03928            -980.00     7520.00
03929           -1020.00     7520.00
03930            -980.00     7520.00
03931           -1040.00     7440.00
03932           -1060.00     7520.00
03933           -1060.00     7440.00
03934           -1120.00     7440.00
03935           -1140.00     7440.00
03936           -1140.00     7280.00
03937           -1140.00     7360.00
03938           -1160.00     7360.00
03939           -1140.00     7200.00
03940           -1180.00     7200.00
03941           -1180.00     7200.00
03942           -1200.00     7120.00
03943           -1160.00     7120.00
03944           -1140.00     6960.00
03945           -1120.00     6960.00
03946           -1120.00     6880.00
03947           -1120.00     6800.00
03948           -1100.00     6720.00
03949           -1040.00     6720.00
03950           -1000.00     6640.00
03951            -980.00     6560.00
03952            -960.00     6480.00
03953            -900.00     6400.00
03954            -880.00     6320.00
03955            -860.00     6240.00
03956            -820.00     6160.00
03957            -760.00     6080.00
03958            -720.00     6000.00
03959            -700.00     5840.00
03960            -660.00     5840.00
03961            -660.00     5680.00
03962            -620.00     5600.00
03963            -560.00     5520.00
03964            -540.00     5440.00
03965            -500.00     5360.00
03966            -500.00     5200.00
03967            -480.00     5200.00
03968            -460.00     5040.00
03969            -420.00     4880.00
03970            -380.00     4720.00
03971            -380.00     4720.00
03972            -340.00     4560.00
03973            -340.00     4480.00
03974            -340.00     4320.00
03975            -320.00     4240.00
03976            -300.00     4080.00
03977            -260.00     4000.00
03978            -260.00     3840.00
03979            -260.00     3760.00
03980            -240.00     3600.00
03981            -240.00     3440.00
03982            -240.00     3360.00
03983            -180.00     3280.00
03984            -180.00     3120.00
03985            -180.00     2960.00
03986            -180.00     2880.00
03987            -160.00     2640.00
03988            -160.00     2640.00
03989            -160.00     2400.00
03990            -160.00     2320.00
03991            -140.00     2240.00
03992            -140.00     2080.00
03993            -140.00     1840.00
03994            -140.00     1760.00
03995            -140.00     1680.00
03996            -100.00     1520.00
03997             -80.00     1360.00
03998            -100.00     1200.00
03999             -80.00     1120.00
04000            -100.00      880.00
04001             -80.00      800.00
04002             -80.00      640.00
04003             -80.00      560.00
04004             -60.00      400.00
04005             -60.00      240.00
04006             -60.00      160.00
04007             -20.00      -80.00
04008             -20.00     -160.00
04009              20.00     -240.00
04010              80.00     -400.00
04011              80.00     -560.00
04012              40.00     -720.00
04013              20.00     -880.00
04014               0.00     -880.00
04015               0.00    -1120.00
04016             160.00    -1120.00
04017             660.00    -1360.00
04018             960.00    -1680.00
04019             300.00    -1760.00
04020            -820.00    -1920.00
04021           -1700.00    -2000.00
04022            -860.00    -1760.00
04023             820.00    -2400.00
04024             260.00    -2240.00
04025            -100.00    -2320.00
04026             580.00    -3120.00
04027             160.00    -2480.00
04028             -20.00    -2480.00
04029             140.00    -3360.00
04030            -180.00    -3040.00
04031             320.00    -3040.00
04032             320.00    -3520.00
04033            -300.00    -3520.00
04034               0.00    -3680.00
04035              20.00    -3600.00
04036             -40.00    -3920.00
04037             240.00    -4160.00
04038             140.00    -4000.00
04039             -80.00    -4320.00
04040              60.00    -4480.00
04041             280.00    -4320.00
04042             140.00    -4640.00
04043             -20.00    -4720.00
04044             220.00    -4880.00
04045             220.00    -4720.00
04046              20.00    -5040.00
04047             100.00    -5360.00
04048             160.00    -5040.00
04049             220.00    -5360.00
04050             160.00    -5520.00
04051             160.00    -5440.00
04052             180.00    -5600.00
04053             140.00    -5680.00
04054             240.00    -5840.00
04055             240.00    -5840.00
04056             140.00    -6000.00
04057             160.00    -6160.00
04058             240.00    -6000.00
04059             240.00    -6240.00
04060             220.00    -6400.00
04061             300.00    -6320.00
04062             260.00    -6480.00
04063             220.00    -6560.00
04064             280.00    -6640.00
04065             320.00    -6560.00
04066             300.00    -6800.00
04067             300.00    -6880.00
04068             320.00    -6800.00
04069             300.00    -6880.00
04070             320.00    -6960.00
04071             400.00    -6960.00
04072             400.00    -7040.00
04073             380.00    -7120.00
04074             400.00    -7200.00
04075             400.00    -7120.00
04076             400.00    -7200.00
04077             440.00    -7280.00
04078             500.00    -7280.00
04079             500.00    -7280.00
04080             500.00    -7440.00
04081             540.00    -7440.00
04082             540.00    -7440.00
04083             540.00    -7520.00
04084             580.00    -7520.00
04085             640.00    -7520.00
04086             640.00    -7520.00
04087             660.00    -7520.00
04088             700.00    -7440.00
04089             720.00    -7520.00
04090             740.00    -7520.00
04091             800.00    -7440.00
04092             860.00    -7520.00
04093             860.00    -7520.00
04094             900.00    -7520.00
04095             940.00    -7520.00
04096             960.00    -7440.00
04097             960.00    -7520.00
04098            1040.00    -7440.00
04099            1080.00    -7440.00
04100            1060.00    -7440.00
04101            1100.00    -7360.00
04102            1120.00    -7280.00
04103            1120.00    -7280.00
04104            1140.00    -7280.00
04105            1180.00    -7200.00
04106            1180.00    -7120.00
04107            1180.00    -7120.00
04108            1180.00    -7120.00
04109            1180.00    -7120.00
04110            1140.00    -6960.00
04111            1120.00    -6960.00
04112            1180.00    -6880.00
04113            1120.00    -6800.00
04114            1120.00    -6800.00
04115            1080.00    -6640.00
04116            1040.00    -6560.00
04117            1020.00    -6560.00
04118            1000.00    -6480.00
04119             960.00    -6400.00
04120             940.00    -6320.00
04121             880.00    -6240.00
04122             860.00    -6160.00
04123             800.00    -6160.00
04124             780.00    -6000.00
04125             780.00    -5920.00
04126             740.00    -5840.00
04127             680.00    -5840.00
04128             640.00    -5600.00
04129             600.00    -5600.00
04130             560.00    -5440.00
04131             540.00    -5360.00
04132             540.00    -5280.00
04133             500.00    -5200.00
04134             460.00    -5120.00
04135             420.00    -4960.00
04136             400.00    -4800.00
04137             380.00    -4800.00
04138             380.00    -4640.00
04139             360.00    -4560.00
04140             340.00    -4400.00
04141             320.00    -4320.00
04142             300.00    -4240.00
04143             300.00    -4080.00
04144             300.00    -3920.00
04145             260.00    -3920.00
04146             240.00    -3680.00
04147             220.00    -3600.00
04148             220.00    -3440.00
04149             220.00    -3360.00
04150             180.00    -3200.00
04151             220.00    -3120.00
04152             180.00    -2960.00
04153             160.00    -2800.00
04154             160.00    -2720.00
04155             160.00    -2560.00
04156             140.00    -2400.00
04157             160.00    -2320.00
04158             140.00    -2160.00
04159             140.00    -2000.00
04160             140.00    -1840.00
04161             100.00    -1760.00
04162              80.00    -1520.00
04163             100.00    -1440.00
04164             100.00    -1360.00
04165              80.00    -1200.00
04166             100.00    -1040.00
04167              80.00     -960.00
04168              60.00     -800.00
04169              60.00     -640.00
04170              80.00     -480.00
04171              60.00     -320.00
04172              40.00     -160.00
04173              60.00      -80.00
04174              80.00       80.00
04175              60.00      240.00
04176              80.00      400.00
04177             160.00      480.00
04178             160.00      560.00
04179             140.00      720.00
04180             100.00      880.00
04181              80.00     1040.00
04182              40.00     1120.00
04183             220.00     1200.00
04184             960.00     1520.00
04185            1040.00     1680.00
04186               0.00     1840.00
04187           -1580.00     1680.00
04188           -2060.00     1760.00
04189             120.00     2320.00
04190            1200.00     2320.00
04191            -240.00     2320.00
04192             200.00     2400.00
04193             780.00     2320.00
04194            -420.00     3280.00
04195            -260.00     2880.00
04196              60.00     2480.00
04197             -20.00     3760.00
04198             380.00     3280.00
04199            -320.00     2800.00
04200            -260.00     4000.00
04201             260.00     3760.00
04202            -480.00     3440.00
04203               0.00     4160.00
04204             300.00     4000.00
04205            -300.00     4320.00
04206            -100.00     4240.00
04207               0.00     4240.00
04208               0.00     4960.00
04209            -180.00     4320.00
04210            -220.00     4800.00
04211             100.00     5200.00
04212            -240.00     4640.00
04213            -160.00     5200.00
04214             -80.00     5120.00
04215            -180.00     5360.00
04216             -60.00     5360.00
04217            -140.00     5280.00
04218            -120.00     5840.00
04219            -180.00     5520.00
04220            -220.00     5840.00
04221            -120.00     6000.00
04222            -240.00     5840.00
04223            -220.00     6240.00
04224            -180.00     6160.00
04225            -240.00     6320.00
04226            -220.00     6240.00
04227            -160.00     6320.00
04228            -180.00     6560.00
04229            -320.00     6400.00
04230            -300.00     6640.00
04231            -260.00     6720.00
04232            -260.00     6720.00
04233            -260.00     6800.00
04234            -260.00     6880.00
04235            -360.00     6880.00
04236            -380.00     6880.00
04237            -300.00     7120.00
04238            -340.00     7120.00
04239            -380.00     7120.00
04240            -380.00     7200.00
04241            -380.00     7360.00
04242            -460.00     7280.00
04243            -480.00     7360.00
04244            -420.00     7440.00
04245            -460.00     7360.00
04246            -460.00     7440.00
04247            -440.00     7520.00
04248            -500.00     7520.00
04249            -580.00     7520.00
04250            -580.00     7520.00
04251            -560.00     7600.00
04252            -640.00     7600.00
04253            -660.00     7600.00
04254            -660.00     7600.00
04255            -700.00     7600.00
04256            -740.00     7600.00
04257            -740.00     7600.00
04258            -780.00     7600.00
04259            -820.00     7600.00
04260            -860.00     7600.00
04261            -860.00     7600.00
04262            -900.00     7600.00
04263            -980.00     7520.00
04264            -980.00     7600.00
04265           -1000.00     7520.00
04266           -1060.00     7520.00
04267           -1060.00     7440.00
04268           -1100.00     7440.00
04269           -1120.00     7440.00
04270           -1140.00     7440.00
04271           -1140.00     7440.00
04272           -1140.00     7360.00
04273           -1180.00     7280.00
04274           -1180.00     7200.00
04275           -1180.00     7280.00
04276           -1220.00     7120.00
04277           -1180.00     7120.00
04278           -1140.00     6960.00
04279           -1140.00     6960.00
04280           -1120.00     6880.00
04281           -1120.00     6880.00
04282           -1120.00     6800.00
04283           -1100.00     6720.00
04284           -1020.00     6720.00
04285            -980.00     6640.00
04286            -960.00     6480.00
04287            -940.00     6480.00
04288            -920.00     6400.00
04289            -880.00     6320.00
04290            -860.00     6160.00
04291            -800.00     6160.00
04292            -740.00     6080.00
04293            -720.00     5920.00
04294            -680.00     5840.00
04295            -680.00     5760.00
04296            -640.00     5680.00
04297            -580.00     5600.00
04298            -540.00     5520.00
04299            -500.00     5440.00
04300            -500.00     5200.00
04301            -480.00     5200.00
04302            -460.00     5040.00
04303            -440.00     5040.00
04304            -400.00     4880.00
04305            -380.00     4720.00
04306            -380.00     4640.00
04307            -360.00     4560.00
04308            -340.00     4400.00
04309            -340.00     4320.00
04310            -320.00     4160.00
04311            -260.00     4080.00
04312            -260.00     4000.00
04313            -240.00     3760.00
04314            -260.00     3680.00
04315            -240.00     3600.00
04316            -240.00     3440.00
04317            -240.00     3280.00
04318            -180.00     3120.00
04319            -180.00     3120.00
04320            -180.00     2960.00
04321            -160.00     2800.00
04322            -160.00     2640.00
04323            -160.00     2480.00
04324            -140.00     2400.00
04325            -140.00     2320.00
04326            -140.00     2160.00
04327            -140.00     2000.00
04328            -140.00     1840.00
04329            -120.00     1680.00
04330            -100.00     1520.00
04331            -100.00     1440.00
04332             -80.00     1360.00
04333            -100.00     1120.00
04334            -100.00     1040.00
04335            -100.00      880.00
04336             -80.00      720.00
04337             -80.00      640.00
04338             -80.00      480.00
04339             -80.00      320.00
04340             -20.00      160.00
04341             -40.00       80.00
04342             -60.00     -160.00
04343               0.00     -240.00
04344              60.00     -400.00
04345              80.00     -480.00
04346              80.00     -640.00
04347              20.00     -720.00
04348               0.00     -880.00
04349               0.00     -960.00
04350              20.00    -1120.00
04351             300.00    -1200.00
04352             880.00    -1520.00
04353             780.00    -1760.00
04354            -180.00    -1840.00
04355           -1300.00    -2000.00
04356           -1620.00    -1840.00
04357              20.00    -2000.00
04358             880.00    -2480.00
04359            -140.00    -2080.00
04360             220.00    -2640.00
04361             560.00    -2960.00
04362             -80.00    -2320.00
04363             140.00    -3040.00
04364               0.00    -3360.00
04365             -80.00    -2880.00
04366             500.00    -3360.00
04367               0.00    -3520.00
04368            -260.00    -3600.00
04369             140.00    -3680.00
04370             -40.00    -3760.00
04371              80.00    -4080.00
04372             260.00    -4080.00
04373              20.00    -4000.00
04374             -20.00    -4480.00
04375             180.00    -4320.00
04376             300.00    -4400.00
04377             -20.00    -4720.00
04378              60.00    -4720.00
04379             280.00    -4880.00
04380             100.00    -4880.00
04381              60.00    -5200.00
04382             140.00    -5200.00
04383             180.00    -5120.00
04384             200.00    -5520.00
04385             140.00    -5440.00
04386             180.00    -5520.00
04387             160.00    -5680.00
04388             180.00    -5840.00
04389             280.00    -5840.00
04390             180.00    -5840.00
04391             140.00    -6160.00
04392             220.00    -6080.00
04393             260.00    -6160.00
04394             220.00    -6320.00
04395             240.00    -6320.00
04396             300.00    -6400.00
04397             240.00    -6480.00
04398             220.00    -6640.00
04399             300.00    -6640.00
04400             320.00    -6640.00
04401             300.00    -6800.00
04402             340.00    -6800.00
04403             320.00    -6880.00
04404             300.00    -6960.00
04405             340.00    -6960.00
04406             400.00    -6960.00
04407             400.00    -7120.00
04408             380.00    -7120.00
04409             420.00    -7200.00
04410             400.00    -7200.00
04411             400.00    -7280.00
04412             460.00    -7360.00
04413             500.00    -7280.00
04414             500.00    -7440.00
04415             500.00    -7440.00
04416             540.00    -7360.00
04417             520.00    -7440.00
04418             540.00    -7520.00
04419             640.00    -7520.00
04420             640.00    -7520.00
04421             620.00    -7520.00
04422             660.00    -7520.00
04423             720.00    -7520.00
04424             720.00    -7520.00
04425             740.00    -7520.00
04426             820.00    -7520.00
04427             860.00    -7520.00
04428             880.00    -7600.00
04429             940.00    -7520.00
04430             960.00    -7440.00
04431             960.00    -7520.00
04432            1020.00    -7440.00
04433            1040.00    -7360.00
04434            1100.00    -7440.00
04435            1060.00    -7440.00
04436            1120.00    -7360.00
04437            1120.00    -7280.00
04438            1140.00    -7280.00
04439            1180.00    -7200.00
04440            1180.00    -7200.00
04441            1180.00    -7120.00
04442            1180.00    -7120.00
04443            1180.00    -7040.00
04444            1140.00    -7040.00
04445            1160.00    -6960.00
04446            1180.00    -6880.00
04447            1140.00    -6880.00
04448            1120.00    -6800.00
04449            1100.00    -6800.00
04450            1060.00    -6640.00
04451            1020.00    -6560.00
04452            1020.00    -6560.00
04453            1000.00    -6480.00
04454             940.00    -6480.00
04455             900.00    -6320.00
04456             880.00    -6240.00
04457             820.00    -6160.00
04458             780.00    -6080.00
04459             780.00    -6000.00
04460             760.00    -5920.00
04461             700.00    -5840.00
04462             640.00    -5680.00
04463             620.00    -5600.00
04464             560.00    -5520.00
04465             560.00    -5440.00
04466             540.00    -5360.00
04467             520.00    -5280.00
04468             480.00    -5120.00
04469             460.00    -5040.00
04470             420.00    -4880.00
04471             400.00    -4880.00
04472             380.00    -4720.00
04473             380.00    -4560.00
04474             360.00    -4480.00
04475             340.00    -4400.00
04476             320.00    -4320.00
04477             300.00    -4160.00
04478             260.00    -4000.00
04479             260.00    -3920.00
04480             260.00    -3760.00
04481             220.00    -3680.00
04482             220.00    -3600.00
04483             220.00    -3440.00
04484             220.00    -3360.00
04485             180.00    -3200.00
04486             180.00    -3040.00
04487             160.00    -2880.00
04488             160.00    -2720.00
04489             160.00    -2720.00
04490             140.00    -2480.00
04491             140.00    -2320.00
04492             140.00    -2240.00
04493             140.00    -2080.00
04494             140.00    -2000.00
04495             140.00    -1840.00
04496             100.00    -1680.00
04497              80.00    -1520.00
04498             100.00    -1440.00
04499              80.00    -1200.00
04500             100.00    -1120.00
04501              80.00    -1040.00
04502              80.00     -800.00
04503              60.00     -720.00
04504              60.00     -640.00
04505              60.00     -400.00
04506              60.00     -240.00
04507              80.00      -80.00
04508              80.00        0.00
04509              60.00       80.00
04510              60.00      240.00
04511             100.00      400.00
04512             160.00      560.00
04513             160.00      560.00
04514             140.00      800.00
04515              80.00      880.00
04516              20.00     1040.00
04517             100.00     1120.00
04518             480.00     1360.00
04519            1140.00     1680.00
04520             740.00     1760.00
04521            -640.00     1840.00
04522           -2060.00     1600.00
04523           -1300.00     2000.00
04524            1020.00     2400.00
04525             540.00     2240.00
04526            -380.00     2480.00
04527             700.00     2320.00
04528             320.00     2720.00
04529            -540.00     3360.00
04530             -20.00     2480.00
04531             -60.00     3040.00
04532             240.00     3920.00
04533             160.00     2720.00
04534            -480.00     3360.00
04535             140.00     4240.00
04536             -80.00     3360.00
04537            -460.00     3760.00
04538             320.00     4080.00
04539             -20.00     4000.00
04540            -300.00     4400.00
04541               0.00     4080.00
04542             -20.00     4640.00
04543             -60.00     4720.00
04544            -280.00     4320.00
04545             -20.00     5200.00
04546               0.00     4880.00
04547            -320.00     4880.00
04548             -80.00     5280.00
04549            -160.00     5200.00
04550            -140.00     5520.00
04551             -80.00     5200.00
04552            -160.00     5600.00
04553            -120.00     5840.00
04554            -240.00     5520.00
04555            -160.00     6080.00
04556            -160.00     5840.00
04557            -240.00     6000.00
04558            -160.00     6160.00
04559            -240.00     6080.00
04560            -260.00     6320.00
04561            -220.00     6240.00
04562            -160.00     6560.00
04563            -240.00     6480.00
04564            -300.00     6480.00
04565            -280.00     6800.00
04566            -260.00     6640.00
04567            -300.00     6640.00
04568            -260.00     6800.00
04569            -320.00     6960.00
04570            -380.00     6880.00
04571            -340.00     6960.00
04572            -300.00     7200.00
04573            -340.00     7120.00
04574            -360.00     7120.00
04575            -380.00     7280.00
04576            -420.00     7360.00
04577            -480.00     7280.00
04578            -420.00     7360.00
04579            -420.00     7440.00
04580            -480.00     7360.00
04581            -460.00     7440.00
04582            -480.00     7440.00
04583            -560.00     7440.00
04584            -580.00     7520.00
04585            -560.00     7600.00
04586            -560.00     7600.00
04587            -640.00     7520.00
04588            -660.00     7600.00
04589            -660.00     7600.00
04590            -720.00     7600.00
04591            -740.00     7600.00
04592            -740.00     7600.00
04593            -800.00     7600.00
04594            -820.00     7600.00
04595            -860.00     7600.00
04596            -900.00     7600.00
04597            -960.00     7520.00
04598           -1000.00     7520.00
04599            -980.00     7520.00
04600           -1020.00     7520.00
04601           -1060.00     7440.00
04602           -1060.00     7440.00
04603           -1120.00     7440.00
04604           -1140.00     7440.00
04605           -1140.00     7440.00
04606           -1140.00     7360.00
04607           -1180.00     7200.00
04608           -1180.00     7280.00
04609           -1180.00     7280.00
04610           -1200.00     7200.00
04611           -1200.00     7120.00
04612           -1180.00     7120.00
04613           -1140.00     7120.00
04614           -1140.00     6960.00
04615           -1120.00     6880.00
04616           -1120.00     6880.00
04617           -1120.00     6800.00
04618           -1060.00     6640.00
04619           -1020.00     6720.00
04620            -980.00     6560.00
04621            -960.00     6480.00
04622            -900.00     6480.00
04623            -880.00     6320.00
04624            -880.00     6240.00
04625            -820.00     6240.00
04626            -780.00     6160.00
04627            -740.00     6000.00
04628            -700.00     5840.00
04629            -660.00     5840.00
04630            -660.00     5760.00
04631            -640.00     5680.00
04632            -560.00     5520.00
04633            -540.00     5520.00
04634            -520.00     5360.00
04635            -500.00     5200.00
04636            -480.00     5200.00
04637            -440.00     4960.00
04638            -420.00     4960.00
04639            -380.00     4880.00
04640            -380.00     4720.00
04641            -340.00     4640.00
04642            -340.00     4480.00
04643            -340.00     4400.00
04644            -320.00     4240.00
04645            -300.00     4080.00
04646            -260.00     4000.00
04647            -260.00     3920.00
04648            -260.00     3760.00
04649            -240.00     3680.00
04650            -240.00     3440.00
04651            -220.00     3360.00
04652            -180.00     3280.00
04653            -200.00     3120.00
04654            -180.00     2960.00
04655            -180.00     2800.00
04656            -160.00     2720.00
04657            -160.00     2640.00
04658            -160.00     2480.00
04659            -160.00     2320.00
04660            -140.00     2240.00
04661            -140.00     2080.00
04662            -160.00     1840.00
04663            -140.00     1840.00
04664            -120.00     1680.00
04665            -100.00     1520.00
04666            -100.00     1360.00
04667             -80.00     1280.00
04668            -100.00     1120.00
04669            -100.00      880.00
04670             -80.00      800.00
04671             -80.00      720.00
04672             -80.00      560.00
04673             -80.00      400.00
04674             -60.00      240.00
04675             -60.00       80.00
04676             -80.00      -80.00
04677             -40.00     -160.00
04678              20.00     -320.00
04679              80.00     -400.00
04680              80.00     -480.00
04681              40.00     -720.00
04682               0.00     -800.00
04683               0.00     -880.00
04684               0.00    -1040.00
04685             140.00    -1200.00
04686             560.00    -1360.00
04687             960.00    -1680.00
04688             380.00    -1840.00
04689            -700.00    -1920.00
04690           -1640.00    -2000.00
04691           -1060.00    -1680.00
04692             700.00    -2320.00
04693             460.00    -2320.00
04694            -160.00    -2080.00
04695             540.00    -3040.00
04696             240.00    -2560.00
04697             -80.00    -2480.00
04698             140.00    -3280.00
04699            -140.00    -3040.00
04700             280.00    -3040.00
04701             400.00    -3440.00
04702            -320.00    -3600.00
04703            -100.00    -3600.00
04704              60.00    -3600.00
04705             -60.00    -3760.00
04706             260.00    -4160.00
04707             220.00    -3920.00
04708             -60.00    -4320.00
04709              20.00    -4480.00
04710             260.00    -4320.00
04711             160.00    -4560.00
04712             -60.00    -4720.00
04713             180.00    -4880.00
04714             240.00    -4720.00
04715              60.00    -5040.00
04716             100.00    -5360.00
04717             160.00    -5040.00
04718             200.00    -5280.00
04719             140.00    -5520.00
04720             160.00    -5360.00
04721             220.00    -5600.00
04722             160.00    -5760.00
04723             240.00    -5840.00
04724             240.00    -5840.00
04725             140.00    -6000.00
04726             140.00    -6240.00
04727             260.00    -6080.00
04728             260.00    -6240.00
04729             220.00    -6480.00
04730             300.00    -6320.00
04731             300.00    -6480.00
04732             180.00    -6480.00
04733             220.00    -6640.00
04734             320.00    -6640.00
04735             320.00    -6800.00
04736             320.00    -6880.00
04737             320.00    -6800.00
04738             300.00    -6880.00
04739             300.00    -7040.00
04740             380.00    -7040.00
04741             420.00    -7040.00
04742             380.00    -7120.00
04743             380.00    -7200.00
04744             400.00    -7200.00
04745             400.00    -7200.00
04746             420.00    -7280.00
04747             480.00    -7280.00
04748             500.00    -7360.00
04749             500.00    -7440.00
04750             540.00    -7440.00
04751             560.00    -7440.00
04752             540.00    -7520.00
04753             560.00    -7520.00
04754             640.00    -7520.00
04755             640.00    -7520.00
04756             640.00    -7600.00
04757             700.00    -7520.00
04758             720.00    -7520.00
04759             720.00    -7600.00
04760             800.00    -7520.00
04761             880.00    -7600.00
04762             860.00    -7520.00
04763             880.00    -7520.00
04764             940.00    -7520.00
04765             960.00    -7520.00
04766             960.00    -7440.00
04767            1040.00    -7440.00
04768            1100.00    -7440.00
04769            1100.00    -7440.00
04770            1120.00    -7440.00
04771            1140.00    -7360.00
04772            1140.00    -7280.00
04773            1120.00    -7280.00
04774            1180.00    -7200.00
04775            1180.00    -7200.00
04776            1180.00    -7200.00
04777            1180.00    -7120.00
04778            1200.00    -7040.00
04779            1180.00    -6960.00
04780            1180.00    -6960.00
04781            1180.00    -6880.00
04782            1120.00    -6880.00
04783            1100.00    -6800.00
04784            1100.00    -6640.00
04785            1060.00    -6640.00
04786            1020.00    -6560.00
04787            1020.00    -6560.00
04788             960.00    -6480.00
04789             920.00    -6400.00
04790             880.00    -6320.00
04791             860.00    -6240.00
04792             800.00    -6080.00
04793             780.00    -6000.00
04794             780.00    -6000.00
04795             720.00    -5920.00
04796             680.00    -5840.00
04797             640.00    -5680.00
04798             600.00    -5520.00
04799             560.00    -5440.00
04800             560.00    -5360.00
04801             540.00    -5360.00
04802             520.00    -5200.00
04803             460.00    -5040.00
04804             460.00    -4960.00
04805             400.00    -4960.00
04806             380.00    -4800.00
04807             380.00    -4640.00
04808             380.00    -4560.00
04809             320.00    -4480.00
04810             320.00    -4320.00
04811             300.00    -4240.00
04812             260.00    -4080.00
04813             240.00    -4000.00
04814             260.00    -3920.00
04815             280.00    -3760.00
04816             240.00    -3600.00
04817             220.00    -3520.00
04818             180.00    -3360.00
04819             180.00    -3200.00
04820             180.00    -3120.00
04821             180.00    -2880.00
04822             180.00    -2800.00
04823             160.00    -2640.00
04824             140.00    -2560.00
04825             140.00    -2400.00
04826             140.00    -2320.00
04827             140.00    -2160.00
04828             140.00    -2000.00
04829             140.00    -1920.00
04830             100.00    -1760.00
04831              80.00    -1680.00
04832             100.00    -1520.00
04833             100.00    -1360.00
04834             120.00    -1200.00
04835             100.00    -1120.00
04836              80.00     -960.00
04837              60.00     -800.00
04838              60.00     -720.00
04839              60.00     -480.00
04840              80.00     -400.00
04841              80.00     -240.00
04842              80.00      -80.00
04843              80.00       80.00
04844              60.00      240.00
04845              80.00      320.00
04846             160.00      400.00
04847             160.00      560.00
04848             140.00      720.00
04849             100.00      800.00
04850              80.00      960.00
04851              80.00     1040.00
04852             160.00     1280.00
04853             860.00     1520.00
04854            1120.00     1760.00
04855             200.00     1760.00
04856           -1360.00     1760.00
04857           -2120.00     1600.00
04858            -220.00     2240.00
04859            1260.00     2400.00
04860            -160.00     2240.00
04861               0.00     2400.00
04862             820.00     2320.00
04863            -300.00     3120.00
04864            -320.00     3040.00
04865              80.00     2400.00
04866             -60.00     3680.00
04867             400.00     3440.00
04868            -240.00     2720.00
04869            -380.00     3920.00
04870             300.00     3920.00
04871            -400.00     3360.00
04872            -140.00     4080.00
04873             320.00     3920.00
04874            -280.00     4240.00
04875            -160.00     4240.00
04876               0.00     4080.00
04877               0.00     4960.00
04878            -140.00     4320.00
04879            -240.00     4640.00
04880              80.00     5200.00
04881            -180.00     4640.00
04882            -240.00     5200.00
04883             -60.00     5200.00
04884            -180.00     5280.00
04885             -60.00     5440.00
04886            -140.00     5280.00
04887            -160.00     5840.00
04888            -160.00     5520.00
04889            -240.00     5760.00
04890            -100.00     6000.00
04891            -220.00     5760.00
04892            -220.00     6160.00
04893            -220.00     6080.00
04894            -260.00     6320.00
04895            -240.00     6240.00
04896            -180.00     6320.00
04897            -180.00     6560.00
04898            -300.00     6480.00
04899            -280.00     6640.00
04900            -260.00     6800.00
04901            -280.00     6800.00
04902            -260.00     6800.00
04903            -260.00     6880.00
04904            -340.00     6960.00
04905            -380.00     6880.00
04906            -300.00     7040.00
04907            -320.00     7120.00
04908            -340.00     7120.00
04909            -380.00     7200.00
04910            -380.00     7280.00
04911            -420.00     7360.00
04912            -460.00     7280.00
04913            -420.00     7360.00
04914            -460.00     7440.00
04915            -480.00     7440.00
04916            -480.00     7520.00
04917            -500.00     7520.00
04918            -580.00     7440.00
04919            -560.00     7520.00
04920            -540.00     7600.00
04921            -620.00     7600.00
04922            -640.00     7520.00
04923            -640.00     7600.00
04924            -680.00     7600.00
04925            -740.00     7600.00
04926            -760.00     7600.00
04927            -740.00     7600.00
04928            -820.00     7600.00
04929            -860.00     7600.00
04930            -860.00     7600.00
04931            -920.00     7600.00
04932            -980.00     7520.00
04933            -980.00     7600.00
04934            -980.00     7600.00
04935           -1040.00     7440.00
04936           -1080.00     7520.00
04937           -1100.00     7440.00
04938           -1140.00     7440.00
04939           -1160.00     7440.00
04940           -1140.00     7360.00
04941           -1160.00     7360.00
04942           -1180.00     7280.00
04943           -1160.00     7360.00
04944           -1180.00     7280.00
04945           -1200.00     7120.00
04946           -1200.00     7040.00
04947           -1180.00     7040.00
04948           -1140.00     6960.00
04949           -1120.00     6960.00
04950           -1120.00     6880.00
04951           -1120.00     6800.00
04952           -1100.00     6720.00
04953           -1040.00     6640.00
04954           -1020.00     6560.00
04955            -980.00     6560.00
04956            -940.00     6480.00
04957            -900.00     6400.00
04958            -880.00     6320.00
04959            -840.00     6240.00
04960            -800.00     6160.00
04961            -740.00     6000.00
04962            -720.00     5920.00
04963            -700.00     5840.00
04964            -660.00     5840.00
04965            -640.00     5680.00
04966            -580.00     5600.00
04967            -560.00     5520.00
04968            -520.00     5360.00
04969            -500.00     5280.00
04970            -480.00     5200.00
04971            -460.00     5120.00
04972            -420.00     4960.00
04973            -400.00     4880.00
04974            -380.00     4800.00
04975            -380.00     4640.00
04976            -360.00     4560.00
04977            -340.00     4400.00
04978            -320.00     4320.00
04979            -320.00     4160.00
04980            -280.00     4080.00
04981            -260.00     4000.00
04982            -260.00     3840.00
04983            -260.00     3680.00
04984            -240.00     3600.00
04985            -260.00     3520.00
04986            -240.00     3280.00
04987            -180.00     3200.00
04988            -180.00     3120.00
04989            -160.00     2960.00
04990            -160.00     2800.00
04991            -140.00     2640.00
04992            -160.00     2560.00
04993            -160.00     2400.00
04994            -140.00     2320.00
04995            -100.00     2160.00
04996            -140.00     2000.00
04997            -160.00     1840.00
04998            -140.00     1680.00
04999            -100.00     1600.00
05000            -100.00     1440.00
