Unit:(mV)
                     CH1         CH2
Frequency              ? 298.977 kHz
00001               0.00     -720.00
00002               0.00     -800.00
00003              40.00     -880.00
00004             380.00     -960.00
00005             840.00    -1200.00
00006             580.00    -1360.00
00007            -580.00    -1440.00
00008           -1760.00    -1360.00
00009            -800.00    -1280.00
00010             960.00    -1920.00
00011             320.00    -1680.00
00012            -320.00    -1680.00
00013             460.00    -2400.00
00014             460.00    -1840.00
00015            -100.00    -1760.00
00016             -20.00    -2640.00
00017             -20.00    -2480.00
00018             220.00    -2000.00
00019             360.00    -2640.00
00020            -220.00    -2960.00
00021            -100.00    -2480.00
00022             220.00    -2720.00
00023            -160.00    -3040.00
00024             180.00    -3040.00
00025             400.00    -2960.00
00026            -240.00    -3120.00
00027              60.00    -3600.00
00028             460.00    -3280.00
00029              20.00    -3280.00
00030             -80.00    -3840.00
00031             240.00    -3680.00
00032             240.00    -3440.00
00033               0.00    -4000.00
00034              20.00    -4000.00
00035             220.00    -3680.00
00036             200.00    -4000.00
00037             100.00    -4320.00
00038             220.00    -4080.00
00039             180.00    -4160.00
00040              80.00    -4560.00
00041             200.00    -4400.00
00042             300.00    -4320.00
00043             140.00    -4640.00
00044             100.00    -4640.00
00045             280.00    -4560.00
00046             220.00    -4640.00
00047             140.00    -4880.00
00048             300.00    -4880.00
00049             300.00    -4880.00
00050             160.00    -5040.00
00051             240.00    -5040.00
00052             300.00    -4960.00
00053             240.00    -5120.00
00054             260.00    -5280.00
00055             320.00    -5120.00
00056             260.00    -5200.00
00057             220.00    -5360.00
00058             360.00    -5360.00
00059             380.00    -5280.00
00060             320.00    -5520.00
00061             320.00    -5440.00
00062             380.00    -5360.00
00063             320.00    -5520.00
00064             340.00    -5600.00
00065             420.00    -5440.00
00066             420.00    -5520.00
00067             400.00    -5680.00
00068             460.00    -5600.00
00069             460.00    -5520.00
00070             400.00    -5680.00
00071             480.00    -5680.00
00072             560.00    -5600.00
00073             520.00    -5680.00
00074             500.00    -5760.00
00075             580.00    -5680.00
00076             560.00    -5680.00
00077             560.00    -5840.00
00078             640.00    -5760.00
00079             660.00    -5680.00
00080             640.00    -5680.00
00081             700.00    -5760.00
00082             720.00    -5680.00
00083             720.00    -5680.00
00084             700.00    -5680.00
00085             780.00    -5600.00
00086             800.00    -5600.00
00087             780.00    -5680.00
00088             820.00    -5520.00
00089             860.00    -5520.00
00090             800.00    -5520.00
00091             840.00    -5520.00
00092             860.00    -5440.00
00093             880.00    -5440.00
00094             860.00    -5440.00
00095             880.00    -5360.00
00096             860.00    -5360.00
00097             840.00    -5360.00
00098             860.00    -5280.00
00099             900.00    -5200.00
00100             880.00    -5120.00
00101             860.00    -5200.00
00102             860.00    -5040.00
00103             820.00    -5040.00
00104             820.00    -5040.00
00105             820.00    -4960.00
00106             820.00    -4880.00
00107             780.00    -4880.00
00108             780.00    -4720.00
00109             740.00    -4720.00
00110             720.00    -4640.00
00111             700.00    -4560.00
00112             700.00    -4560.00
00113             700.00    -4480.00
00114             640.00    -4400.00
00115             620.00    -4320.00
00116             580.00    -4240.00
00117             580.00    -4240.00
00118             560.00    -4160.00
00119             560.00    -4000.00
00120             520.00    -3920.00
00121             480.00    -3920.00
00122             480.00    -3760.00
00123             460.00    -3680.00
00124             440.00    -3680.00
00125             420.00    -3600.00
00126             380.00    -3520.00
00127             380.00    -3440.00
00128             380.00    -3360.00
00129             340.00    -3280.00
00130             320.00    -3120.00
00131             320.00    -3040.00
00132             320.00    -2880.00
00133             300.00    -2800.00
00134             260.00    -2800.00
00135             260.00    -2640.00
00136             260.00    -2480.00
00137             220.00    -2480.00
00138             240.00    -2400.00
00139             240.00    -2240.00
00140             220.00    -2160.00
00141             200.00    -2080.00
00142             180.00    -2000.00
00143             160.00    -1920.00
00144             160.00    -1760.00
00145             160.00    -1680.00
00146             180.00    -1520.00
00147             160.00    -1440.00
00148             140.00    -1360.00
00149             120.00    -1200.00
00150             140.00    -1200.00
00151             140.00    -1040.00
00152             160.00     -960.00
00153             120.00     -880.00
00154             100.00     -720.00
00155              80.00     -560.00
00156             100.00     -480.00
00157              80.00     -320.00
00158              80.00     -320.00
00159              80.00     -240.00
00160              60.00      -80.00
00161              60.00       80.00
00162              80.00      160.00
00163              80.00      240.00
00164             100.00      240.00
00165             140.00      400.00
00166             140.00      560.00
00167             100.00      640.00
00168              80.00      720.00
00169              60.00      800.00
00170              80.00      880.00
00171             540.00     1120.00
00172            1020.00     1360.00
00173             420.00     1440.00
00174           -1340.00     1280.00
00175           -2000.00     1200.00
00176             -20.00     1680.00
00177            1380.00     1920.00
00178            -300.00     1680.00
00179            -320.00     1760.00
00180             980.00     1840.00
00181            -100.00     2480.00
00182            -740.00     2320.00
00183             220.00     1760.00
00184             200.00     2720.00
00185              20.00     2800.00
00186            -120.00     1840.00
00187            -320.00     2800.00
00188             180.00     3360.00
00189            -160.00     2320.00
00190            -460.00     2800.00
00191             460.00     3520.00
00192             -20.00     2960.00
00193            -660.00     3120.00
00194             320.00     3360.00
00195              60.00     3440.00
00196            -460.00     3600.00
00197              60.00     3360.00
00198             -40.00     3840.00
00199            -140.00     4000.00
00200            -160.00     3440.00
00201            -180.00     4160.00
00202               0.00     4240.00
00203            -160.00     3760.00
00204            -140.00     4240.00
00205             -60.00     4320.00
00206            -240.00     4240.00
00207            -180.00     4320.00
00208            -120.00     4400.00
00209            -140.00     4560.00
00210            -180.00     4480.00
00211            -260.00     4720.00
00212            -160.00     4880.00
00213            -240.00     4640.00
00214            -160.00     4880.00
00215            -120.00     4960.00
00216            -300.00     4960.00
00217            -260.00     5040.00
00218            -220.00     5040.00
00219            -260.00     5200.00
00220            -220.00     5200.00
00221            -240.00     5280.00
00222            -320.00     5360.00
00223            -340.00     5200.00
00224            -260.00     5440.00
00225            -240.00     5360.00
00226            -320.00     5440.00
00227            -320.00     5440.00
00228            -320.00     5520.00
00229            -380.00     5600.00
00230            -400.00     5520.00
00231            -340.00     5600.00
00232            -380.00     5680.00
00233            -400.00     5600.00
00234            -380.00     5680.00
00235            -420.00     5760.00
00236            -500.00     5680.00
00237            -480.00     5680.00
00238            -420.00     5760.00
00239            -480.00     5840.00
00240            -540.00     5840.00
00241            -500.00     5760.00
00242            -540.00     5840.00
00243            -620.00     5840.00
00244            -620.00     5840.00
00245            -580.00     5840.00
00246            -640.00     5760.00
00247            -660.00     5840.00
00248            -640.00     5840.00
00249            -700.00     5760.00
00250            -740.00     5680.00
00251            -740.00     5680.00
00252            -740.00     5760.00
00253            -780.00     5680.00
00254            -800.00     5680.00
00255            -800.00     5680.00
00256            -820.00     5600.00
00257            -860.00     5600.00
00258            -820.00     5680.00
00259            -860.00     5520.00
00260            -860.00     5520.00
00261            -840.00     5520.00
00262            -860.00     5520.00
00263            -900.00     5440.00
00264            -880.00     5360.00
00265            -880.00     5360.00
00266            -820.00     5360.00
00267            -860.00     5280.00
00268            -860.00     5280.00
00269            -840.00     5200.00
00270            -860.00     5200.00
00271            -820.00     5040.00
00272            -800.00     5120.00
00273            -800.00     4960.00
00274            -780.00     4880.00
00275            -780.00     4880.00
00276            -740.00     4720.00
00277            -740.00     4800.00
00278            -720.00     4640.00
00279            -700.00     4640.00
00280            -660.00     4560.00
00281            -640.00     4480.00
00282            -640.00     4400.00
00283            -620.00     4400.00
00284            -580.00     4240.00
00285            -560.00     4240.00
00286            -520.00     4160.00
00287            -520.00     4000.00
00288            -500.00     4000.00
00289            -480.00     3920.00
00290            -480.00     3840.00
00291            -420.00     3680.00
00292            -420.00     3680.00
00293            -400.00     3600.00
00294            -380.00     3440.00
00295            -380.00     3360.00
00296            -360.00     3280.00
00297            -340.00     3200.00
00298            -320.00     3120.00
00299            -320.00     3040.00
00300            -320.00     2960.00
00301            -300.00     2800.00
00302            -260.00     2720.00
00303            -260.00     2640.00
00304            -240.00     2560.00
00305            -240.00     2480.00
00306            -220.00     2400.00
00307            -220.00     2320.00
00308            -200.00     2160.00
00309            -180.00     2080.00
00310            -180.00     1840.00
00311            -180.00     1840.00
00312            -160.00     1760.00
00313            -140.00     1680.00
00314            -160.00     1520.00
00315            -160.00     1440.00
00316            -140.00     1360.00
00317            -140.00     1200.00
00318            -100.00     1120.00
00319            -100.00     1040.00
00320            -100.00      880.00
00321            -100.00      800.00
00322            -100.00      720.00
00323            -100.00      560.00
00324             -80.00      480.00
00325             -80.00      400.00
00326             -60.00      240.00
00327             -60.00      160.00
00328             -60.00       80.00
00329             -60.00      -80.00
00330             -20.00     -160.00
00331              20.00     -240.00
00332              60.00     -320.00
00333              60.00     -400.00
00334              20.00     -480.00
00335               0.00     -640.00
00336               0.00     -720.00
00337               0.00     -800.00
00338             160.00     -880.00
00339             660.00    -1040.00
00340             800.00    -1360.00
00341              80.00    -1440.00
00342           -1340.00    -1440.00
00343           -1540.00    -1200.00
00344             220.00    -1600.00
00345             960.00    -1840.00
00346            -260.00    -1440.00
00347              20.00    -2080.00
00348             720.00    -2320.00
00349               0.00    -1600.00
00350            -100.00    -2160.00
00351              60.00    -2720.00
00352             -20.00    -2080.00
00353             400.00    -2240.00
00354             140.00    -2960.00
00355            -340.00    -2720.00
00356             220.00    -2560.00
00357              20.00    -2960.00
00358            -100.00    -3040.00
00359             460.00    -3040.00
00360              60.00    -2880.00
00361            -260.00    -3360.00
00362             340.00    -3440.00
00363             300.00    -3120.00
00364            -140.00    -3600.00
00365             100.00    -3760.00
00366             300.00    -3440.00
00367             100.00    -3680.00
00368             -20.00    -4160.00
00369             160.00    -3920.00
00370             220.00    -3760.00
00371             140.00    -4240.00
00372             140.00    -4240.00
00373             220.00    -4000.00
00374             140.00    -4320.00
00375             120.00    -4560.00
00376             260.00    -4320.00
00377             220.00    -4400.00
00378              60.00    -4720.00
00379             220.00    -4560.00
00380             300.00    -4640.00
00381             140.00    -4880.00
00382             220.00    -4880.00
00383             320.00    -4800.00
00384             180.00    -4880.00
00385             180.00    -5040.00
00386             260.00    -4960.00
00387             300.00    -5040.00
00388             240.00    -5280.00
00389             300.00    -5200.00
00390             300.00    -5120.00
00391             220.00    -5280.00
00392             300.00    -5360.00
00393             380.00    -5280.00
00394             320.00    -5360.00
00395             320.00    -5520.00
00396             380.00    -5360.00
00397             380.00    -5360.00
00398             320.00    -5600.00
00399             400.00    -5600.00
00400             420.00    -5520.00
00401             420.00    -5680.00
00402             420.00    -5680.00
00403             480.00    -5600.00
00404             420.00    -5680.00
00405             460.00    -5680.00
00406             540.00    -5680.00
00407             540.00    -5680.00
00408             500.00    -5680.00
00409             540.00    -5680.00
00410             580.00    -5680.00
00411             560.00    -5680.00
00412             580.00    -5840.00
00413             660.00    -5680.00
00414             660.00    -5680.00
00415             640.00    -5760.00
00416             720.00    -5680.00
00417             720.00    -5600.00
00418             720.00    -5680.00
00419             740.00    -5680.00
00420             780.00    -5600.00
00421             800.00    -5600.00
00422             800.00    -5680.00
00423             840.00    -5520.00
00424             820.00    -5520.00
00425             820.00    -5440.00
00426             860.00    -5520.00
00427             880.00    -5440.00
00428             860.00    -5440.00
00429             860.00    -5360.00
00430             880.00    -5360.00
00431             860.00    -5360.00
00432             840.00    -5280.00
00433             860.00    -5280.00
00434             880.00    -5280.00
00435             860.00    -5200.00
00436             860.00    -5120.00
00437             840.00    -5040.00
00438             800.00    -5040.00
00439             820.00    -4960.00
00440             820.00    -4960.00
00441             800.00    -4880.00
00442             780.00    -4800.00
00443             740.00    -4720.00
00444             720.00    -4720.00
00445             700.00    -4640.00
00446             700.00    -4560.00
00447             720.00    -4480.00
00448             660.00    -4400.00
00449             640.00    -4320.00
00450             620.00    -4320.00
00451             580.00    -4240.00
00452             560.00    -4080.00
00453             560.00    -4080.00
00454             540.00    -4000.00
00455             480.00    -3920.00
00456             480.00    -3840.00
00457             480.00    -3760.00
00458             460.00    -3680.00
00459             420.00    -3680.00
00460             420.00    -3520.00
00461             400.00    -3360.00
00462             380.00    -3360.00
00463             340.00    -3280.00
00464             340.00    -3200.00
00465             320.00    -3040.00
00466             320.00    -2960.00
00467             320.00    -2880.00
00468             300.00    -2800.00
00469             260.00    -2720.00
00470             260.00    -2640.00
00471             240.00    -2480.00
00472             240.00    -2400.00
00473             220.00    -2320.00
00474             220.00    -2240.00
00475             200.00    -2160.00
00476             220.00    -2000.00
00477             160.00    -1840.00
00478             160.00    -1840.00
00479             160.00    -1680.00
00480             160.00    -1520.00
00481             160.00    -1520.00
00482             140.00    -1360.00
00483             140.00    -1280.00
00484             120.00    -1200.00
00485             120.00    -1120.00
00486             140.00    -1040.00
00487             120.00     -880.00
00488             100.00     -800.00
00489             100.00     -640.00
00490             100.00     -560.00
00491              80.00     -400.00
00492              80.00     -320.00
00493              80.00     -240.00
00494              80.00      -80.00
00495              80.00        0.00
00496              60.00       80.00
00497              60.00      240.00
00498             100.00      240.00
00499             140.00      400.00
00500             140.00      480.00
00501             120.00      560.00
00502              60.00      720.00
00503              60.00      800.00
00504              60.00      880.00
00505             240.00      960.00
00506             900.00     1200.00
00507             860.00     1360.00
00508            -380.00     1360.00
00509           -2080.00     1120.00
00510           -1200.00     1440.00
00511            1180.00     1840.00
00512             580.00     1840.00
00513            -620.00     1680.00
00514             480.00     1600.00
00515             660.00     2240.00
00516            -700.00     2480.00
00517            -340.00     1760.00
00518             400.00     2160.00
00519              60.00     3040.00
00520             -60.00     2160.00
00521            -240.00     2160.00
00522            -100.00     3360.00
00523             140.00     2880.00
00524            -480.00     2320.00
00525              60.00     3360.00
00526             440.00     3200.00
00527            -580.00     2960.00
00528            -160.00     3360.00
00529             400.00     3360.00
00530            -380.00     3600.00
00531            -180.00     3440.00
00532              80.00     3440.00
00533            -140.00     4080.00
00534            -140.00     3600.00
00535            -240.00     3760.00
00536             -60.00     4320.00
00537             -60.00     3920.00
00538            -220.00     4000.00
00539             -20.00     4320.00
00540            -160.00     4240.00
00541            -260.00     4320.00
00542            -100.00     4400.00
00543            -160.00     4640.00
00544            -160.00     4560.00
00545            -220.00     4480.00
00546            -180.00     4880.00
00547            -220.00     4640.00
00548            -240.00     4720.00
00549            -100.00     5040.00
00550            -220.00     4960.00
00551            -300.00     5040.00
00552            -220.00     5040.00
00553            -240.00     5200.00
00554            -240.00     5200.00
00555            -260.00     5120.00
00556            -260.00     5360.00
00557            -320.00     5200.00
00558            -320.00     5280.00
00559            -240.00     5440.00
00560            -280.00     5360.00
00561            -340.00     5520.00
00562            -300.00     5440.00
00563            -340.00     5520.00
00564            -400.00     5520.00
00565            -400.00     5520.00
00566            -380.00     5680.00
00567            -420.00     5600.00
00568            -420.00     5600.00
00569            -400.00     5760.00
00570            -460.00     5680.00
00571            -500.00     5600.00
00572            -420.00     5760.00
00573            -460.00     5760.00
00574            -520.00     5680.00
00575            -540.00     5760.00
00576            -500.00     5840.00
00577            -580.00     5840.00
00578            -620.00     5760.00
00579            -580.00     5760.00
00580            -620.00     5840.00
00581            -660.00     5680.00
00582            -660.00     5840.00
00583            -660.00     5840.00
00584            -740.00     5760.00
00585            -760.00     5760.00
00586            -740.00     5760.00
00587            -720.00     5760.00
00588            -800.00     5600.00
00589            -800.00     5680.00
00590            -800.00     5680.00
00591            -820.00     5600.00
00592            -820.00     5680.00
00593            -820.00     5600.00
00594            -840.00     5520.00
00595            -860.00     5600.00
00596            -860.00     5520.00
00597            -880.00     5520.00
00598            -880.00     5440.00
00599            -880.00     5360.00
00600            -820.00     5360.00
00601            -820.00     5360.00
00602            -860.00     5280.00
00603            -860.00     5200.00
00604            -880.00     5200.00
00605            -820.00     5120.00
00606            -800.00     5040.00
00607            -800.00     5040.00
00608            -800.00     4880.00
00609            -780.00     4880.00
00610            -740.00     4880.00
00611            -740.00     4800.00
00612            -740.00     4720.00
00613            -700.00     4640.00
00614            -660.00     4640.00
00615            -660.00     4560.00
00616            -660.00     4480.00
00617            -640.00     4320.00
00618            -620.00     4320.00
00619            -560.00     4240.00
00620            -540.00     4160.00
00621            -540.00     4080.00
00622            -500.00     4000.00
00623            -480.00     3920.00
00624            -480.00     3920.00
00625            -440.00     3760.00
00626            -420.00     3680.00
00627            -420.00     3680.00
00628            -400.00     3520.00
00629            -380.00     3440.00
00630            -380.00     3360.00
00631            -380.00     3280.00
00632            -340.00     3120.00
00633            -320.00     3120.00
00634            -300.00     3040.00
00635            -300.00     2800.00
00636            -300.00     2800.00
00637            -260.00     2640.00
00638            -260.00     2640.00
00639            -240.00     2480.00
00640            -220.00     2400.00
00641            -220.00     2320.00
00642            -220.00     2240.00
00643            -220.00     2080.00
00644            -180.00     2000.00
00645            -180.00     1920.00
00646            -180.00     1760.00
00647            -160.00     1680.00
00648            -140.00     1520.00
00649            -160.00     1440.00
00650            -140.00     1360.00
00651            -140.00     1280.00
00652            -120.00     1200.00
00653            -100.00     1120.00
00654            -100.00      960.00
00655            -100.00      880.00
00656            -100.00      720.00
00657            -100.00      640.00
00658             -80.00      560.00
00659             -80.00      400.00
00660             -60.00      320.00
00661             -60.00      240.00
00662             -60.00       80.00
00663             -60.00       80.00
00664             -60.00      -80.00
00665               0.00     -240.00
00666              60.00     -240.00
00667              60.00     -400.00
00668              60.00     -480.00
00669              20.00     -560.00
00670               0.00     -720.00
00671               0.00     -800.00
00672              60.00     -880.00
00673             400.00     -960.00
00674             840.00    -1200.00
00675             560.00    -1360.00
00676            -640.00    -1440.00
00677           -1760.00    -1360.00
00678            -720.00    -1360.00
00679             980.00    -1840.00
00680             260.00    -1680.00
00681            -260.00    -1680.00
00682             500.00    -2480.00
00683             400.00    -1840.00
00684            -140.00    -1760.00
00685               0.00    -2640.00
00686             -40.00    -2480.00
00687             220.00    -2000.00
00688             340.00    -2640.00
00689            -240.00    -2960.00
00690             -80.00    -2480.00
00691             220.00    -2720.00
00692            -160.00    -3040.00
00693             180.00    -3040.00
00694             380.00    -2880.00
00695            -260.00    -3120.00
00696              80.00    -3520.00
00697             460.00    -3280.00
00698               0.00    -3280.00
00699             -80.00    -3920.00
00700             220.00    -3600.00
00701             220.00    -3440.00
00702               0.00    -3920.00
00703              60.00    -4080.00
00704             220.00    -3760.00
00705             160.00    -4000.00
00706              80.00    -4320.00
00707             220.00    -4080.00
00708             180.00    -4160.00
00709             100.00    -4560.00
00710             220.00    -4400.00
00711             260.00    -4320.00
00712             100.00    -4640.00
00713             100.00    -4720.00
00714             300.00    -4560.00
00715             220.00    -4720.00
00716             140.00    -4880.00
00717             300.00    -4800.00
00718             260.00    -4880.00
00719             160.00    -5040.00
00720             220.00    -5040.00
00721             300.00    -4960.00
00722             260.00    -5120.00
00723             260.00    -5280.00
00724             320.00    -5040.00
00725             260.00    -5200.00
00726             240.00    -5360.00
00727             340.00    -5360.00
00728             380.00    -5280.00
00729             320.00    -5520.00
00730             340.00    -5360.00
00731             380.00    -5360.00
00732             340.00    -5600.00
00733             340.00    -5520.00
00734             420.00    -5440.00
00735             420.00    -5600.00
00736             420.00    -5680.00
00737             480.00    -5600.00
00738             480.00    -5600.00
00739             420.00    -5680.00
00740             480.00    -5680.00
00741             540.00    -5600.00
00742             500.00    -5680.00
00743             540.00    -5760.00
00744             580.00    -5680.00
00745             580.00    -5680.00
00746             540.00    -5760.00
00747             640.00    -5680.00
00748             660.00    -5680.00
00749             640.00    -5680.00
00750             700.00    -5760.00
00751             740.00    -5680.00
00752             700.00    -5680.00
00753             700.00    -5680.00
00754             780.00    -5680.00
00755             800.00    -5600.00
00756             800.00    -5680.00
00757             800.00    -5600.00
00758             820.00    -5520.00
00759             820.00    -5600.00
00760             800.00    -5520.00
00761             860.00    -5440.00
00762             880.00    -5520.00
00763             860.00    -5440.00
00764             880.00    -5360.00
00765             860.00    -5360.00
00766             840.00    -5360.00
00767             860.00    -5280.00
00768             880.00    -5280.00
00769             860.00    -5280.00
00770             860.00    -5120.00
00771             860.00    -5040.00
00772             800.00    -5040.00
00773             820.00    -5040.00
00774             820.00    -4960.00
00775             800.00    -4880.00
00776             780.00    -4880.00
00777             780.00    -4720.00
00778             740.00    -4720.00
00779             720.00    -4720.00
00780             700.00    -4560.00
00781             700.00    -4480.00
00782             680.00    -4400.00
00783             640.00    -4400.00
00784             640.00    -4320.00
00785             580.00    -4240.00
00786             560.00    -4240.00
00787             560.00    -4080.00
00788             560.00    -4000.00
00789             540.00    -3920.00
00790             480.00    -3920.00
00791             480.00    -3760.00
00792             460.00    -3760.00
00793             440.00    -3600.00
00794             420.00    -3600.00
00795             400.00    -3440.00
00796             380.00    -3360.00
00797             380.00    -3280.00
00798             360.00    -3280.00
00799             320.00    -3120.00
00800             320.00    -3040.00
00801             320.00    -2880.00
00802             320.00    -2800.00
00803             260.00    -2800.00
00804             260.00    -2640.00
00805             240.00    -2560.00
00806             240.00    -2480.00
00807             220.00    -2400.00
00808             220.00    -2240.00
00809             220.00    -2160.00
00810             220.00    -2080.00
00811             200.00    -2000.00
00812             160.00    -1840.00
00813             160.00    -1760.00
00814             160.00    -1680.00
00815             180.00    -1520.00
00816             160.00    -1440.00
00817             140.00    -1360.00
00818             140.00    -1280.00
00819             140.00    -1120.00
00820             120.00    -1040.00
00821             120.00     -960.00
00822             100.00     -800.00
00823             100.00     -720.00
00824              80.00     -640.00
00825              80.00     -480.00
00826              60.00     -400.00
00827              60.00     -240.00
00828              80.00     -160.00
00829              60.00      -80.00
00830              60.00       80.00
00831              60.00      160.00
00832              60.00      240.00
00833             120.00      400.00
00834             140.00      480.00
00835             140.00      560.00
00836              80.00      640.00
00837              80.00      720.00
00838              40.00      800.00
00839              80.00      880.00
00840             580.00     1200.00
00841            1020.00     1280.00
00842             360.00     1440.00
00843           -1420.00     1360.00
00844           -1960.00     1200.00
00845             120.00     1680.00
00846            1360.00     1920.00
00847            -340.00     1760.00
00848            -260.00     1680.00
00849            1000.00     1840.00
00850            -180.00     2480.00
00851            -740.00     2160.00
00852             240.00     1760.00
00853             180.00     2800.00
00854               0.00     2720.00
00855            -100.00     1840.00
00856            -300.00     2880.00
00857             200.00     3360.00
00858            -180.00     2320.00
00859            -420.00     2960.00
00860             540.00     3440.00
00861            -100.00     2960.00
00862            -620.00     3280.00
00863             340.00     3360.00
00864               0.00     3440.00
00865            -420.00     3600.00
00866              60.00     3360.00
00867             -60.00     3920.00
00868            -140.00     3920.00
00869            -180.00     3440.00
00870            -180.00     4160.00
00871               0.00     4240.00
00872            -180.00     3760.00
00873            -100.00     4320.00
00874             -60.00     4320.00
00875            -260.00     4320.00
00876            -160.00     4400.00
00877            -140.00     4400.00
00878            -160.00     4640.00
00879            -180.00     4400.00
00880            -240.00     4720.00
00881            -160.00     4880.00
00882            -260.00     4640.00
00883            -160.00     4960.00
00884            -120.00     4960.00
00885            -320.00     4880.00
00886            -260.00     5040.00
00887            -220.00     5120.00
00888            -240.00     5200.00
00889            -240.00     5200.00
00890            -260.00     5280.00
00891            -300.00     5360.00
00892            -340.00     5200.00
00893            -260.00     5360.00
00894            -260.00     5440.00
00895            -340.00     5360.00
00896            -320.00     5440.00
00897            -320.00     5520.00
00898            -380.00     5600.00
00899            -400.00     5520.00
00900            -340.00     5600.00
00901            -400.00     5680.00
00902            -420.00     5600.00
00903            -400.00     5680.00
00904            -420.00     5680.00
00905            -500.00     5680.00
00906            -480.00     5760.00
00907            -420.00     5840.00
00908            -480.00     5840.00
00909            -560.00     5680.00
00910            -540.00     5760.00
00911            -540.00     5920.00
00912            -620.00     5760.00
00913            -580.00     5840.00
00914            -580.00     5840.00
00915            -640.00     5760.00
00916            -660.00     5760.00
00917            -640.00     5840.00
00918            -700.00     5840.00
00919            -740.00     5680.00
00920            -740.00     5760.00
00921            -720.00     5760.00
00922            -780.00     5680.00
00923            -800.00     5600.00
00924            -800.00     5680.00
00925            -820.00     5600.00
00926            -840.00     5600.00
00927            -820.00     5680.00
00928            -820.00     5520.00
00929            -860.00     5520.00
00930            -860.00     5520.00
00931            -860.00     5520.00
00932            -880.00     5520.00
00933            -880.00     5360.00
00934            -860.00     5360.00
00935            -860.00     5360.00
00936            -860.00     5280.00
00937            -860.00     5280.00
00938            -860.00     5200.00
00939            -860.00     5200.00
00940            -820.00     5120.00
00941            -800.00     5040.00
00942            -800.00     4960.00
00943            -780.00     4880.00
00944            -780.00     4880.00
00945            -740.00     4880.00
00946            -740.00     4800.00
00947            -720.00     4720.00
00948            -660.00     4640.00
00949            -660.00     4560.00
00950            -640.00     4480.00
00951            -640.00     4400.00
00952            -640.00     4400.00
00953            -600.00     4240.00
00954            -560.00     4240.00
00955            -540.00     4080.00
00956            -520.00     4000.00
00957            -500.00     3920.00
00958            -500.00     3920.00
00959            -480.00     3760.00
00960            -460.00     3760.00
00961            -420.00     3680.00
00962            -420.00     3600.00
00963            -380.00     3440.00
00964            -380.00     3360.00
00965            -380.00     3280.00
00966            -340.00     3200.00
00967            -320.00     3120.00
00968            -300.00     3040.00
00969            -300.00     2960.00
00970            -300.00     2800.00
00971            -260.00     2720.00
00972            -260.00     2640.00
00973            -240.00     2560.00
00974            -240.00     2480.00
00975            -220.00     2320.00
00976            -220.00     2320.00
00977            -220.00     2160.00
00978            -180.00     2080.00
00979            -180.00     2000.00
00980            -160.00     1840.00
00981            -160.00     1760.00
00982            -160.00     1680.00
00983            -160.00     1520.00
00984            -160.00     1440.00
00985            -140.00     1360.00
00986            -140.00     1200.00
00987            -100.00     1200.00
00988            -100.00     1040.00
00989            -100.00      880.00
00990            -100.00      800.00
00991            -100.00      720.00
00992             -80.00      560.00
00993             -80.00      480.00
00994             -80.00      400.00
00995             -80.00      240.00
00996             -60.00      160.00
00997             -80.00       80.00
00998             -60.00      -80.00
00999             -20.00     -160.00
01000              20.00     -240.00
01001              80.00     -320.00
01002              80.00     -400.00
01003              60.00     -560.00
01004              20.00     -720.00
01005             -40.00     -720.00
01006             -60.00     -800.00
01007              80.00     -880.00
01008             680.00    -1040.00
01009             860.00    -1360.00
01010             120.00    -1360.00
01011           -1280.00    -1520.00
01012           -1440.00    -1200.00
01013             320.00    -1680.00
01014             840.00    -1840.00
01015            -400.00    -1440.00
01016             -60.00    -2160.00
01017             680.00    -2240.00
01018             -20.00    -1520.00
01019             -20.00    -2160.00
01020             140.00    -2720.00
01021              60.00    -2080.00
01022             460.00    -2320.00
01023              80.00    -3040.00
01024            -380.00    -2640.00
01025             160.00    -2640.00
01026             -60.00    -2960.00
01027            -140.00    -3040.00
01028             460.00    -2960.00
01029              40.00    -3040.00
01030            -180.00    -3360.00
01031             420.00    -3440.00
01032             300.00    -3120.00
01033            -160.00    -3600.00
01034              80.00    -3840.00
01035             240.00    -3440.00
01036              60.00    -3680.00
01037             -60.00    -4160.00
01038             140.00    -3760.00
01039             240.00    -3760.00
01040             160.00    -4240.00
01041             200.00    -4240.00
01042             260.00    -4000.00
01043             160.00    -4400.00
01044             100.00    -4560.00
01045             220.00    -4320.00
01046             140.00    -4560.00
01047              20.00    -4720.00
01048             220.00    -4640.00
01049             320.00    -4640.00
01050             180.00    -4880.00
01051             260.00    -4880.00
01052             320.00    -4800.00
01053             200.00    -4960.00
01054             180.00    -5120.00
01055             240.00    -4960.00
01056             240.00    -5040.00
01057             220.00    -5200.00
01058             300.00    -5200.00
01059             340.00    -5120.00
01060             260.00    -5360.00
01061             320.00    -5360.00
01062             380.00    -5280.00
01063             320.00    -5360.00
01064             320.00    -5520.00
01065             320.00    -5360.00
01066             320.00    -5440.00
01067             340.00    -5520.00
01068             420.00    -5520.00
01069             460.00    -5520.00
01070             420.00    -5600.00
01071             460.00    -5680.00
01072             460.00    -5600.00
01073             420.00    -5680.00
01074             460.00    -5760.00
01075             540.00    -5680.00
01076             540.00    -5680.00
01077             480.00    -5680.00
01078             560.00    -5760.00
01079             560.00    -5680.00
01080             540.00    -5760.00
01081             580.00    -5680.00
01082             660.00    -5680.00
01083             660.00    -5680.00
01084             640.00    -5760.00
01085             700.00    -5680.00
01086             700.00    -5600.00
01087             700.00    -5680.00
01088             740.00    -5680.00
01089             800.00    -5680.00
01090             780.00    -5680.00
01091             780.00    -5600.00
01092             800.00    -5520.00
01093             820.00    -5520.00
01094             820.00    -5600.00
01095             860.00    -5520.00
01096             820.00    -5440.00
01097             840.00    -5440.00
01098             860.00    -5360.00
01099             860.00    -5360.00
01100             860.00    -5280.00
01101             860.00    -5280.00
01102             860.00    -5200.00
01103             860.00    -5200.00
01104             880.00    -5200.00
01105             860.00    -5120.00
01106             820.00    -5040.00
01107             800.00    -5040.00
01108             820.00    -5040.00
01109             820.00    -4880.00
01110             800.00    -4880.00
01111             780.00    -4800.00
01112             780.00    -4720.00
01113             740.00    -4720.00
01114             720.00    -4640.00
01115             720.00    -4560.00
01116             700.00    -4480.00
01117             660.00    -4400.00
01118             640.00    -4400.00
01119             620.00    -4240.00
01120             560.00    -4240.00
01121             560.00    -4080.00
01122             560.00    -4080.00
01123             540.00    -4000.00
01124             500.00    -3920.00
01125             480.00    -3840.00
01126             480.00    -3760.00
01127             460.00    -3680.00
01128             460.00    -3600.00
01129             420.00    -3520.00
01130             400.00    -3440.00
01131             380.00    -3360.00
01132             360.00    -3280.00
01133             340.00    -3120.00
01134             320.00    -3120.00
01135             320.00    -3040.00
01136             320.00    -2800.00
01137             280.00    -2800.00
01138             260.00    -2720.00
01139             260.00    -2640.00
01140             240.00    -2480.00
01141             240.00    -2400.00
01142             240.00    -2320.00
01143             220.00    -2240.00
01144             220.00    -2080.00
01145             200.00    -2000.00
01146             180.00    -1920.00
01147             160.00    -1840.00
01148             180.00    -1680.00
01149             160.00    -1600.00
01150             160.00    -1520.00
01151             140.00    -1360.00
01152             140.00    -1360.00
01153             140.00    -1120.00
01154             120.00    -1040.00
01155             140.00     -960.00
01156             100.00     -880.00
01157             100.00     -720.00
01158              80.00     -640.00
01159              80.00     -560.00
01160              80.00     -480.00
01161              60.00     -320.00
01162              80.00     -160.00
01163              80.00     -160.00
01164              80.00        0.00
01165              60.00       80.00
01166              60.00      240.00
01167              80.00      240.00
01168             140.00      400.00
01169             140.00      480.00
01170             100.00      560.00
01171              80.00      640.00
01172              60.00      720.00
01173              60.00      880.00
01174             260.00     1040.00
01175             920.00     1280.00
01176             800.00     1360.00
01177            -460.00     1360.00
01178           -2080.00     1120.00
01179           -1060.00     1520.00
01180            1240.00     1840.00
01181             500.00     1840.00
01182            -620.00     1760.00
01183             540.00     1680.00
01184             620.00     2320.00
01185            -700.00     2560.00
01186            -300.00     1760.00
01187             380.00     2320.00
01188              60.00     3040.00
01189             -60.00     2160.00
01190            -260.00     2240.00
01191             -80.00     3440.00
01192             140.00     2800.00
01193            -480.00     2400.00
01194             100.00     3440.00
01195             420.00     3200.00
01196            -600.00     2960.00
01197            -100.00     3360.00
01198             380.00     3440.00
01199            -380.00     3680.00
01200            -160.00     3440.00
01201              60.00     3520.00
01202            -160.00     4080.00
01203            -120.00     3600.00
01204            -240.00     3760.00
01205             -60.00     4400.00
01206             -80.00     3840.00
01207            -240.00     4000.00
01208             -20.00     4400.00
01209            -160.00     4240.00
01210            -240.00     4400.00
01211            -100.00     4320.00
01212            -160.00     4640.00
01213            -160.00     4560.00
01214            -240.00     4560.00
01215            -180.00     4880.00
01216            -220.00     4720.00
01217            -260.00     4800.00
01218            -100.00     5040.00
01219            -240.00     4880.00
01220            -320.00     4960.00
01221            -220.00     5040.00
01222            -260.00     5200.00
01223            -240.00     5200.00
01224            -260.00     5200.00
01225            -260.00     5360.00
01226            -320.00     5280.00
01227            -320.00     5360.00
01228            -240.00     5520.00
01229            -300.00     5360.00
01230            -360.00     5360.00
01231            -320.00     5520.00
01232            -340.00     5600.00
01233            -400.00     5520.00
01234            -380.00     5600.00
01235            -380.00     5680.00
01236            -420.00     5600.00
01237            -400.00     5680.00
01238            -380.00     5760.00
01239            -480.00     5680.00
01240            -500.00     5680.00
01241            -440.00     5840.00
01242            -440.00     5760.00
01243            -540.00     5760.00
01244            -520.00     5760.00
01245            -500.00     5840.00
01246            -580.00     5840.00
01247            -620.00     5680.00
01248            -580.00     5840.00
01249            -620.00     5840.00
01250            -660.00     5680.00
01251            -640.00     5840.00
01252            -660.00     5840.00
01253            -720.00     5680.00
01254            -740.00     5760.00
01255            -720.00     5760.00
01256            -740.00     5680.00
01257            -780.00     5680.00
01258            -800.00     5680.00
01259            -800.00     5680.00
01260            -820.00     5600.00
01261            -840.00     5680.00
01262            -820.00     5600.00
01263            -840.00     5600.00
01264            -840.00     5520.00
01265            -860.00     5520.00
01266            -880.00     5520.00
01267            -900.00     5360.00
01268            -860.00     5360.00
01269            -840.00     5360.00
01270            -840.00     5360.00
01271            -860.00     5360.00
01272            -860.00     5200.00
01273            -840.00     5200.00
01274            -860.00     5200.00
01275            -800.00     5040.00
01276            -800.00     5040.00
01277            -800.00     4960.00
01278            -780.00     4880.00
01279            -760.00     4880.00
01280            -780.00     4800.00
01281            -740.00     4800.00
01282            -680.00     4640.00
01283            -680.00     4640.00
01284            -700.00     4560.00
01285            -640.00     4400.00
01286            -640.00     4400.00
01287            -620.00     4320.00
01288            -580.00     4240.00
01289            -560.00     4240.00
01290            -560.00     4080.00
01291            -540.00     4000.00
01292            -480.00     3920.00
01293            -480.00     3920.00
01294            -480.00     3760.00
01295            -460.00     3680.00
01296            -420.00     3680.00
01297            -400.00     3440.00
01298            -380.00     3440.00
01299            -380.00     3360.00
01300            -340.00     3280.00
01301            -340.00     3120.00
01302            -320.00     3120.00
01303            -300.00     2960.00
01304            -300.00     2880.00
01305            -300.00     2800.00
01306            -260.00     2640.00
01307            -260.00     2640.00
01308            -240.00     2480.00
01309            -240.00     2400.00
01310            -220.00     2320.00
01311            -220.00     2160.00
01312            -180.00     2080.00
01313            -220.00     2000.00
01314            -180.00     1840.00
01315            -160.00     1840.00
01316            -140.00     1680.00
01317            -140.00     1600.00
01318            -160.00     1520.00
01319            -160.00     1360.00
01320            -140.00     1360.00
01321            -100.00     1200.00
01322            -100.00     1120.00
01323            -100.00      960.00
01324            -100.00      880.00
01325            -100.00      720.00
01326             -80.00      720.00
01327             -80.00      560.00
01328             -60.00      400.00
01329             -60.00      320.00
01330             -60.00      240.00
01331             -60.00      160.00
01332             -80.00       80.00
01333             -60.00      -80.00
01334               0.00     -160.00
01335              40.00     -240.00
01336              80.00     -400.00
01337              60.00     -480.00
01338              20.00     -560.00
01339               0.00     -720.00
01340             -20.00     -720.00
01341              60.00     -880.00
01342             400.00     -960.00
01343             880.00    -1200.00
01344             520.00    -1360.00
01345            -700.00    -1440.00
01346           -1780.00    -1360.00
01347            -660.00    -1360.00
01348            1020.00    -1920.00
01349             160.00    -1520.00
01350            -260.00    -1680.00
01351             540.00    -2480.00
01352             340.00    -1760.00
01353            -140.00    -1760.00
01354              20.00    -2640.00
01355             -60.00    -2400.00
01356             240.00    -2000.00
01357             320.00    -2720.00
01358            -260.00    -2960.00
01359             -60.00    -2480.00
01360             180.00    -2800.00
01361            -160.00    -3040.00
01362             240.00    -3040.00
01363             340.00    -2960.00
01364            -300.00    -3200.00
01365             100.00    -3520.00
01366             460.00    -3120.00
01367               0.00    -3280.00
01368             -40.00    -3840.00
01369             240.00    -3600.00
01370             220.00    -3440.00
01371             -20.00    -4000.00
01372              60.00    -4000.00
01373             240.00    -3760.00
01374             180.00    -4080.00
01375             100.00    -4320.00
01376             200.00    -4080.00
01377             180.00    -4160.00
01378             100.00    -4560.00
01379             220.00    -4400.00
01380             280.00    -4320.00
01381              80.00    -4640.00
01382             100.00    -4640.00
01383             300.00    -4560.00
01384             220.00    -4720.00
01385             160.00    -4880.00
01386             300.00    -4880.00
01387             260.00    -4880.00
01388             160.00    -5040.00
01389             240.00    -5040.00
01390             300.00    -4960.00
01391             220.00    -5200.00
01392             260.00    -5200.00
01393             320.00    -5120.00
01394             260.00    -5280.00
01395             260.00    -5360.00
01396             380.00    -5280.00
01397             380.00    -5360.00
01398             320.00    -5520.00
01399             340.00    -5440.00
01400             380.00    -5360.00
01401             320.00    -5520.00
01402             360.00    -5600.00
01403             460.00    -5520.00
01404             420.00    -5600.00
01405             440.00    -5680.00
01406             480.00    -5600.00
01407             460.00    -5600.00
01408             440.00    -5680.00
01409             500.00    -5680.00
01410             560.00    -5680.00
01411             500.00    -5680.00
01412             500.00    -5760.00
01413             580.00    -5680.00
01414             560.00    -5680.00
01415             560.00    -5840.00
01416             620.00    -5680.00
01417             660.00    -5600.00
01418             640.00    -5760.00
01419             680.00    -5680.00
01420             700.00    -5680.00
01421             700.00    -5600.00
01422             720.00    -5680.00
01423             780.00    -5600.00
01424             800.00    -5600.00
01425             780.00    -5600.00
01426             800.00    -5600.00
01427             820.00    -5600.00
01428             800.00    -5520.00
01429             860.00    -5520.00
01430             860.00    -5440.00
01431             860.00    -5440.00
01432             860.00    -5440.00
01433             860.00    -5360.00
01434             860.00    -5360.00
01435             860.00    -5360.00
01436             880.00    -5280.00
01437             860.00    -5200.00
01438             860.00    -5200.00
01439             860.00    -5200.00
01440             860.00    -5040.00
01441             820.00    -5040.00
01442             800.00    -5040.00
01443             800.00    -4960.00
01444             800.00    -4880.00
01445             820.00    -4880.00
01446             820.00    -4720.00
01447             780.00    -4720.00
01448             720.00    -4720.00
01449             700.00    -4640.00
01450             700.00    -4560.00
01451             660.00    -4560.00
01452             660.00    -4400.00
01453             640.00    -4320.00
01454             620.00    -4240.00
01455             580.00    -4160.00
01456             580.00    -4080.00
01457             560.00    -4000.00
01458             540.00    -3920.00
01459             480.00    -3920.00
01460             480.00    -3760.00
01461             480.00    -3760.00
01462             460.00    -3680.00
01463             420.00    -3600.00
01464             400.00    -3440.00
01465             380.00    -3440.00
01466             380.00    -3360.00
01467             340.00    -3280.00
01468             340.00    -3120.00
01469             340.00    -3040.00
01470             320.00    -2880.00
01471             300.00    -2800.00
01472             260.00    -2720.00
01473             260.00    -2640.00
01474             240.00    -2480.00
01475             240.00    -2480.00
01476             240.00    -2320.00
01477             220.00    -2240.00
01478             200.00    -2160.00
01479             180.00    -2080.00
01480             180.00    -2000.00
01481             180.00    -1920.00
01482             180.00    -1760.00
01483             180.00    -1680.00
01484             140.00    -1520.00
01485             140.00    -1440.00
01486             140.00    -1360.00
01487             140.00    -1200.00
01488             100.00    -1120.00
01489             140.00    -1040.00
01490             140.00     -880.00
01491             100.00     -800.00
01492             100.00     -720.00
01493             100.00     -640.00
01494              80.00     -480.00
01495              80.00     -400.00
01496              60.00     -240.00
01497              60.00     -160.00
01498              60.00      -80.00
01499              80.00       80.00
01500              80.00      160.00
01501              80.00      240.00
01502             140.00      400.00
01503             160.00      400.00
01504             140.00      560.00
01505              80.00      640.00
01506              60.00      720.00
01507              60.00      800.00
01508             100.00      880.00
01509             620.00     1200.00
01510            1020.00     1360.00
01511             300.00     1440.00
01512           -1520.00     1280.00
01513           -1920.00     1200.00
01514             220.00     1680.00
01515            1340.00     1840.00
01516            -380.00     1760.00
01517            -180.00     1680.00
01518            1020.00     1840.00
01519            -240.00     2560.00
01520            -720.00     2160.00
01521             260.00     1760.00
01522             160.00     2880.00
01523              20.00     2720.00
01524            -140.00     1920.00
01525            -260.00     2880.00
01526             220.00     3280.00
01527            -220.00     2320.00
01528            -380.00     2960.00
01529             540.00     3440.00
01530            -140.00     2960.00
01531            -580.00     3280.00
01532             380.00     3360.00
01533             -20.00     3520.00
01534            -420.00     3600.00
01535              60.00     3360.00
01536             -80.00     3920.00
01537            -140.00     3920.00
01538            -160.00     3440.00
01539            -160.00     4240.00
01540               0.00     4160.00
01541            -180.00     3760.00
01542            -120.00     4320.00
01543             -80.00     4320.00
01544            -260.00     4320.00
01545            -160.00     4400.00
01546            -140.00     4480.00
01547            -160.00     4640.00
01548            -220.00     4400.00
01549            -220.00     4720.00
01550            -160.00     4880.00
01551            -260.00     4640.00
01552            -160.00     4960.00
01553            -140.00     4960.00
01554            -320.00     4960.00
01555            -260.00     5040.00
01556            -240.00     5200.00
01557            -260.00     5200.00
01558            -240.00     5040.00
01559            -260.00     5280.00
01560            -300.00     5360.00
01561            -320.00     5280.00
01562            -260.00     5520.00
01563            -260.00     5360.00
01564            -360.00     5360.00
01565            -340.00     5440.00
01566            -320.00     5520.00
01567            -380.00     5600.00
01568            -380.00     5520.00
01569            -340.00     5680.00
01570            -380.00     5680.00
01571            -420.00     5680.00
01572            -380.00     5680.00
01573            -420.00     5760.00
01574            -500.00     5680.00
01575            -480.00     5680.00
01576            -420.00     5840.00
01577            -500.00     5840.00
01578            -540.00     5680.00
01579            -500.00     5760.00
01580            -540.00     5840.00
01581            -580.00     5840.00
01582            -580.00     5840.00
01583            -580.00     5840.00
01584            -640.00     5840.00
01585            -660.00     5760.00
01586            -640.00     5840.00
01587            -680.00     5760.00
01588            -740.00     5680.00
01589            -740.00     5760.00
01590            -720.00     5760.00
01591            -760.00     5680.00
01592            -780.00     5680.00
01593            -780.00     5680.00
01594            -820.00     5680.00
01595            -820.00     5600.00
01596            -820.00     5680.00
01597            -860.00     5600.00
01598            -860.00     5520.00
01599            -860.00     5520.00
01600            -860.00     5520.00
01601            -900.00     5440.00
01602            -880.00     5360.00
01603            -860.00     5440.00
01604            -840.00     5360.00
01605            -880.00     5280.00
01606            -860.00     5200.00
01607            -880.00     5200.00
01608            -860.00     5120.00
01609            -820.00     5120.00
01610            -820.00     5040.00
01611            -800.00     5040.00
01612            -800.00     4960.00
01613            -780.00     4880.00
01614            -760.00     4800.00
01615            -740.00     4720.00
01616            -720.00     4640.00
01617            -700.00     4640.00
01618            -680.00     4560.00
01619            -640.00     4560.00
01620            -640.00     4400.00
01621            -620.00     4320.00
01622            -580.00     4320.00
01623            -560.00     4240.00
01624            -540.00     4080.00
01625            -540.00     4000.00
01626            -500.00     3920.00
01627            -500.00     3920.00
01628            -480.00     3760.00
01629            -420.00     3760.00
01630            -420.00     3680.00
01631            -420.00     3520.00
01632            -400.00     3440.00
01633            -380.00     3360.00
01634            -380.00     3360.00
01635            -360.00     3120.00
01636            -320.00     3120.00
01637            -300.00     3040.00
01638            -300.00     2960.00
01639            -280.00     2800.00
01640            -280.00     2720.00
01641            -260.00     2640.00
01642            -240.00     2480.00
01643            -220.00     2480.00
01644            -220.00     2320.00
01645            -200.00     2240.00
01646            -180.00     2160.00
01647            -180.00     2080.00
01648            -180.00     2000.00
01649            -180.00     1840.00
01650            -160.00     1760.00
01651            -140.00     1680.00
01652            -140.00     1520.00
01653            -140.00     1440.00
01654            -140.00     1360.00
01655            -100.00     1280.00
01656            -100.00     1120.00
01657            -100.00     1040.00
01658            -100.00      880.00
01659            -100.00      800.00
01660            -100.00      720.00
01661            -100.00      560.00
01662             -80.00      480.00
01663             -80.00      400.00
01664             -60.00      240.00
01665             -60.00      160.00
01666             -20.00       80.00
01667             -60.00      -80.00
01668             -20.00     -160.00
01669              20.00     -240.00
01670              60.00     -320.00
01671              80.00     -400.00
01672              20.00     -560.00
01673               0.00     -720.00
01674               0.00     -720.00
01675               0.00     -800.00
01676             180.00     -880.00
01677             700.00    -1120.00
01678             780.00    -1360.00
01679             -20.00    -1440.00
01680           -1440.00    -1440.00
01681           -1460.00    -1200.00
01682             380.00    -1680.00
01683             880.00    -1840.00
01684            -320.00    -1440.00
01685             100.00    -2240.00
01686             700.00    -2240.00
01687             -80.00    -1600.00
01688             -80.00    -2320.00
01689              60.00    -2720.00
01690             -20.00    -2080.00
01691             400.00    -2320.00
01692              60.00    -2960.00
01693            -340.00    -2640.00
01694             220.00    -2560.00
01695             -20.00    -2960.00
01696             -60.00    -3120.00
01697             480.00    -2960.00
01698             -20.00    -3040.00
01699            -220.00    -3440.00
01700             400.00    -3440.00
01701             240.00    -3040.00
01702            -160.00    -3680.00
01703             160.00    -3840.00
01704             300.00    -3360.00
01705             100.00    -3680.00
01706             -20.00    -4160.00
01707             160.00    -3760.00
01708             220.00    -3840.00
01709             120.00    -4240.00
01710             160.00    -4240.00
01711             220.00    -4080.00
01712             140.00    -4400.00
01713             140.00    -4560.00
01714             300.00    -4320.00
01715             180.00    -4480.00
01716              60.00    -4720.00
01717             220.00    -4640.00
01718             300.00    -4560.00
01719             140.00    -4880.00
01720             240.00    -4880.00
01721             320.00    -4720.00
01722             220.00    -4960.00
01723             200.00    -5040.00
01724             300.00    -4960.00
01725             260.00    -5040.00
01726             240.00    -5200.00
01727             320.00    -5120.00
01728             300.00    -5120.00
01729             240.00    -5280.00
01730             320.00    -5360.00
01731             400.00    -5280.00
01732             340.00    -5360.00
01733             320.00    -5520.00
01734             380.00    -5360.00
01735             380.00    -5440.00
01736             320.00    -5600.00
01737             400.00    -5520.00
01738             440.00    -5440.00
01739             400.00    -5680.00
01740             440.00    -5600.00
01741             480.00    -5600.00
01742             440.00    -5680.00
01743             460.00    -5760.00
01744             540.00    -5680.00
01745             540.00    -5680.00
01746             500.00    -5760.00
01747             560.00    -5680.00
01748             580.00    -5600.00
01749             540.00    -5680.00
01750             600.00    -5760.00
01751             660.00    -5680.00
01752             640.00    -5680.00
01753             660.00    -5760.00
01754             700.00    -5680.00
01755             720.00    -5600.00
01756             700.00    -5680.00
01757             740.00    -5680.00
01758             800.00    -5680.00
01759             780.00    -5600.00
01760             800.00    -5600.00
01761             820.00    -5600.00
01762             820.00    -5520.00
01763             800.00    -5440.00
01764             860.00    -5440.00
01765             860.00    -5440.00
01766             860.00    -5440.00
01767             860.00    -5360.00
01768             860.00    -5360.00
01769             860.00    -5360.00
01770             860.00    -5360.00
01771             880.00    -5280.00
01772             880.00    -5200.00
01773             860.00    -5200.00
01774             860.00    -5120.00
01775             820.00    -5040.00
01776             820.00    -5040.00
01777             820.00    -4960.00
01778             820.00    -4880.00
01779             800.00    -4800.00
01780             760.00    -4800.00
01781             760.00    -4720.00
01782             740.00    -4720.00
01783             720.00    -4640.00
01784             720.00    -4560.00
01785             700.00    -4480.00
01786             660.00    -4400.00
01787             620.00    -4400.00
01788             620.00    -4320.00
01789             580.00    -4240.00
01790             560.00    -4160.00
01791             580.00    -4080.00
01792             540.00    -4000.00
01793             500.00    -3920.00
01794             480.00    -3760.00
01795             460.00    -3760.00
01796             420.00    -3680.00
01797             420.00    -3600.00
01798             420.00    -3520.00
01799             400.00    -3440.00
01800             380.00    -3360.00
01801             360.00    -3200.00
01802             320.00    -3120.00
01803             320.00    -3040.00
01804             300.00    -2880.00
01805             300.00    -2800.00
01806             300.00    -2800.00
01807             240.00    -2720.00
01808             260.00    -2640.00
01809             240.00    -2480.00
01810             240.00    -2400.00
01811             240.00    -2320.00
01812             220.00    -2160.00
01813             180.00    -2080.00
01814             180.00    -2000.00
01815             180.00    -1920.00
01816             160.00    -1840.00
01817             160.00    -1680.00
01818             160.00    -1680.00
01819             160.00    -1520.00
01820             140.00    -1440.00
01821             140.00    -1280.00
01822             100.00    -1120.00
01823             100.00    -1040.00
01824             140.00     -960.00
01825             120.00     -880.00
01826             100.00     -800.00
01827              80.00     -640.00
01828              80.00     -560.00
01829              80.00     -400.00
01830              80.00     -320.00
01831              80.00     -240.00
01832              80.00      -80.00
01833              80.00        0.00
01834              60.00      160.00
01835              60.00      240.00
01836             100.00      320.00
01837             140.00      400.00
01838             160.00      480.00
01839             100.00      560.00
01840              80.00      640.00
01841              60.00      800.00
01842              60.00      880.00
01843             320.00     1040.00
01844             960.00     1200.00
01845             800.00     1360.00
01846            -560.00     1360.00
01847           -2100.00     1200.00
01848            -980.00     1520.00
01849            1280.00     1840.00
01850             400.00     1760.00
01851            -580.00     1760.00
01852             620.00     1680.00
01853             540.00     2320.00
01854            -720.00     2480.00
01855            -240.00     1760.00
01856             380.00     2320.00
01857              80.00     3040.00
01858             -60.00     2160.00
01859            -260.00     2240.00
01860             -20.00     3440.00
01861             100.00     2800.00
01862            -480.00     2400.00
01863             140.00     3440.00
01864             380.00     3200.00
01865            -620.00     3040.00
01866             -60.00     3440.00
01867             320.00     3440.00
01868            -420.00     3600.00
01869            -160.00     3440.00
01870              60.00     3600.00
01871            -160.00     4080.00
01872            -140.00     3600.00
01873            -240.00     3760.00
01874             -20.00     4400.00
01875             -80.00     3840.00
01876            -220.00     4000.00
01877             -20.00     4400.00
01878            -180.00     4240.00
01879            -240.00     4400.00
01880            -100.00     4400.00
01881            -160.00     4640.00
01882            -160.00     4560.00
01883            -240.00     4560.00
01884            -180.00     4880.00
01885            -220.00     4640.00
01886            -260.00     4800.00
01887            -100.00     5040.00
01888            -240.00     4880.00
01889            -320.00     5040.00
01890            -240.00     4960.00
01891            -240.00     5200.00
01892            -240.00     5200.00
01893            -240.00     5200.00
01894            -260.00     5360.00
01895            -320.00     5280.00
01896            -320.00     5280.00
01897            -240.00     5520.00
01898            -300.00     5360.00
01899            -340.00     5440.00
01900            -320.00     5520.00
01901            -360.00     5600.00
01902            -400.00     5520.00
01903            -380.00     5520.00
01904            -360.00     5680.00
01905            -400.00     5600.00
01906            -400.00     5680.00
01907            -380.00     5680.00
01908            -460.00     5680.00
01909            -500.00     5680.00
01910            -460.00     5760.00
01911            -460.00     5840.00
01912            -540.00     5840.00
01913            -540.00     5840.00
01914            -500.00     5840.00
01915            -560.00     5840.00
01916            -580.00     5840.00
01917            -560.00     5840.00
01918            -620.00     5840.00
01919            -660.00     5760.00
01920            -640.00     5840.00
01921            -660.00     5840.00
01922            -740.00     5760.00
01923            -740.00     5680.00
01924            -720.00     5760.00
01925            -740.00     5760.00
01926            -780.00     5680.00
01927            -780.00     5680.00
01928            -800.00     5680.00
01929            -820.00     5680.00
01930            -820.00     5680.00
01931            -820.00     5600.00
01932            -860.00     5600.00
01933            -860.00     5600.00
01934            -860.00     5520.00
01935            -880.00     5520.00
01936            -880.00     5440.00
01937            -880.00     5360.00
01938            -820.00     5360.00
01939            -880.00     5280.00
01940            -860.00     5280.00
01941            -880.00     5200.00
01942            -860.00     5200.00
01943            -820.00     5200.00
01944            -820.00     5040.00
01945            -800.00     5040.00
01946            -800.00     4880.00
01947            -800.00     4880.00
01948            -740.00     4880.00
01949            -740.00     4800.00
01950            -740.00     4720.00
01951            -720.00     4720.00
01952            -700.00     4640.00
01953            -680.00     4560.00
01954            -640.00     4480.00
01955            -640.00     4320.00
01956            -620.00     4320.00
01957            -580.00     4240.00
01958            -560.00     4160.00
01959            -540.00     4080.00
01960            -500.00     4000.00
01961            -480.00     3920.00
01962            -480.00     3760.00
01963            -460.00     3760.00
01964            -420.00     3680.00
01965            -420.00     3600.00
01966            -380.00     3440.00
01967            -380.00     3440.00
01968            -380.00     3360.00
01969            -340.00     3280.00
01970            -320.00     3120.00
01971            -300.00     3040.00
01972            -300.00     3040.00
01973            -300.00     2800.00
01974            -260.00     2800.00
01975            -260.00     2640.00
01976            -260.00     2640.00
01977            -220.00     2480.00
01978            -200.00     2400.00
01979            -200.00     2320.00
01980            -220.00     2240.00
01981            -220.00     2080.00
01982            -180.00     2000.00
01983            -180.00     1840.00
01984            -160.00     1760.00
01985            -160.00     1680.00
01986            -140.00     1600.00
01987            -140.00     1440.00
01988            -140.00     1360.00
01989            -120.00     1360.00
01990            -120.00     1200.00
01991            -100.00     1040.00
01992            -100.00      960.00
01993             -80.00      800.00
01994            -100.00      720.00
01995            -100.00      560.00
01996            -100.00      480.00
01997             -80.00      400.00
01998             -60.00      400.00
01999             -60.00      240.00
02000             -60.00      160.00
02001             -60.00       80.00
02002             -60.00     -160.00
02003               0.00     -160.00
02004              40.00     -240.00
02005              60.00     -400.00
02006              60.00     -480.00
02007               0.00     -640.00
02008               0.00     -720.00
02009               0.00     -720.00
02010              80.00     -880.00
02011             420.00     -960.00
02012             820.00    -1200.00
02013             460.00    -1360.00
02014            -780.00    -1440.00
02015           -1760.00    -1360.00
02016            -540.00    -1360.00
02017            1040.00    -1920.00
02018             100.00    -1520.00
02019            -260.00    -1680.00
02020             580.00    -2480.00
02021             300.00    -1760.00
02022            -140.00    -1840.00
02023              20.00    -2720.00
02024             -60.00    -2400.00
02025             260.00    -2000.00
02026             300.00    -2800.00
02027            -300.00    -2880.00
02028               0.00    -2480.00
02029             220.00    -2800.00
02030            -160.00    -3040.00
02031             260.00    -3040.00
02032             320.00    -2960.00
02033            -320.00    -3200.00
02034             160.00    -3600.00
02035             420.00    -3120.00
02036             -20.00    -3360.00
02037             -20.00    -3840.00
02038             240.00    -3600.00
02039             220.00    -3440.00
02040               0.00    -4000.00
02041              80.00    -4000.00
02042             240.00    -3680.00
02043             180.00    -4080.00
02044             120.00    -4320.00
02045             220.00    -4000.00
02046             160.00    -4240.00
02047             100.00    -4560.00
02048             240.00    -4400.00
02049             260.00    -4400.00
02050              80.00    -4720.00
02051             140.00    -4640.00
02052             320.00    -4560.00
02053             200.00    -4720.00
02054             160.00    -4880.00
02055             300.00    -4800.00
02056             260.00    -4880.00
02057             160.00    -5040.00
02058             260.00    -5040.00
02059             300.00    -4960.00
02060             240.00    -5200.00
02061             260.00    -5200.00
02062             320.00    -5120.00
02063             240.00    -5280.00
02064             240.00    -5360.00
02065             380.00    -5280.00
02066             360.00    -5280.00
02067             300.00    -5520.00
02068             340.00    -5440.00
02069             380.00    -5360.00
02070             320.00    -5520.00
02071             340.00    -5600.00
02072             420.00    -5440.00
02073             420.00    -5600.00
02074             400.00    -5680.00
02075             480.00    -5600.00
02076             460.00    -5520.00
02077             420.00    -5760.00
02078             500.00    -5680.00
02079             540.00    -5600.00
02080             500.00    -5680.00
02081             540.00    -5840.00
02082             580.00    -5680.00
02083             560.00    -5680.00
02084             560.00    -5760.00
02085             620.00    -5680.00
02086             660.00    -5680.00
02087             640.00    -5680.00
02088             680.00    -5760.00
02089             720.00    -5680.00
02090             700.00    -5680.00
02091             700.00    -5760.00
02092             800.00    -5600.00
02093             800.00    -5600.00
02094             800.00    -5680.00
02095             800.00    -5600.00
02096             820.00    -5520.00
02097             820.00    -5600.00
02098             820.00    -5440.00
02099             880.00    -5440.00
02100             880.00    -5520.00
02101             860.00    -5440.00
02102             860.00    -5440.00
02103             860.00    -5360.00
02104             860.00    -5280.00
02105             880.00    -5280.00
02106             900.00    -5200.00
02107             880.00    -5200.00
02108             820.00    -5200.00
02109             820.00    -5040.00
02110             820.00    -5040.00
02111             860.00    -4960.00
02112             860.00    -4960.00
02113             800.00    -4880.00
02114             780.00    -4880.00
02115             780.00    -4800.00
02116             740.00    -4720.00
02117             740.00    -4720.00
02118             740.00    -4560.00
02119             720.00    -4560.00
02120             660.00    -4400.00
02121             640.00    -4400.00
02122             640.00    -4320.00
02123             620.00    -4240.00
02124             580.00    -4240.00
02125             560.00    -4080.00
02126             560.00    -4000.00
02127             500.00    -4000.00
02128             480.00    -3920.00
02129             480.00    -3760.00
02130             460.00    -3680.00
02131             420.00    -3600.00
02132             420.00    -3600.00
02133             400.00    -3440.00
02134             360.00    -3360.00
02135             380.00    -3280.00
02136             340.00    -3200.00
02137             320.00    -3040.00
02138             320.00    -2960.00
02139             320.00    -2960.00
02140             300.00    -2880.00
02141             260.00    -2720.00
02142             240.00    -2640.00
02143             240.00    -2480.00
02144             240.00    -2480.00
02145             240.00    -2400.00
02146             220.00    -2240.00
02147             220.00    -2160.00
02148             180.00    -2080.00
02149             180.00    -2000.00
02150             160.00    -1840.00
02151             180.00    -1760.00
02152             180.00    -1680.00
02153             160.00    -1520.00
02154             140.00    -1440.00
02155             140.00    -1360.00
02156             140.00    -1200.00
02157             140.00    -1120.00
02158             140.00    -1040.00
02159             140.00     -880.00
02160             100.00     -800.00
02161              80.00     -720.00
02162              80.00     -640.00
02163              80.00     -480.00
02164              80.00     -400.00
02165              80.00     -240.00
02166              80.00     -160.00
02167              80.00      -80.00
02168              60.00       80.00
02169              80.00      160.00
02170              80.00      240.00
02171             140.00      320.00
02172             160.00      480.00
02173             140.00      480.00
02174              80.00      640.00
02175              60.00      720.00
02176              60.00      800.00
02177             140.00      880.00
02178             660.00     1120.00
02179            1020.00     1360.00
02180             240.00     1440.00
02181           -1600.00     1360.00
02182           -1840.00     1200.00
02183             340.00     1760.00
02184            1260.00     1840.00
02185            -420.00     1760.00
02186            -100.00     1680.00
02187            1020.00     2000.00
02188            -320.00     2640.00
02189            -660.00     2080.00
02190             300.00     1840.00
02191             160.00     2880.00
02192               0.00     2640.00
02193            -100.00     1920.00
02194            -280.00     3040.00
02195             200.00     3280.00
02196            -260.00     2320.00
02197            -340.00     3040.00
02198             540.00     3440.00
02199            -220.00     2880.00
02200            -540.00     3280.00
02201             420.00     3360.00
02202            -100.00     3440.00
02203            -400.00     3440.00
02204              80.00     3280.00
02205            -100.00     3920.00
02206            -160.00     3920.00
02207            -180.00     3440.00
02208            -140.00     4240.00
02209              20.00     4080.00
02210            -220.00     3760.00
02211            -100.00     4320.00
02212             -80.00     4240.00
02213            -260.00     4320.00
02214            -160.00     4400.00
02215            -100.00     4400.00
02216            -160.00     4640.00
02217            -220.00     4400.00
02218            -240.00     4800.00
02219            -180.00     4880.00
02220            -260.00     4640.00
02221            -160.00     4960.00
02222            -140.00     4960.00
02223            -300.00     4960.00
02224            -240.00     5040.00
02225            -240.00     5120.00
02226            -260.00     5200.00
02227            -220.00     5200.00
02228            -240.00     5280.00
02229            -300.00     5360.00
02230            -320.00     5280.00
02231            -260.00     5440.00
02232            -260.00     5440.00
02233            -340.00     5360.00
02234            -320.00     5440.00
02235            -300.00     5520.00
02236            -380.00     5600.00
02237            -380.00     5520.00
02238            -340.00     5680.00
02239            -380.00     5600.00
02240            -400.00     5600.00
02241            -380.00     5680.00
02242            -420.00     5760.00
02243            -480.00     5680.00
02244            -460.00     5680.00
02245            -420.00     5840.00
02246            -500.00     5760.00
02247            -560.00     5760.00
02248            -540.00     5840.00
02249            -540.00     5840.00
02250            -620.00     5840.00
02251            -580.00     5840.00
02252            -580.00     5840.00
02253            -640.00     5840.00
02254            -660.00     5840.00
02255            -660.00     5840.00
02256            -700.00     5760.00
02257            -740.00     5760.00
02258            -720.00     5680.00
02259            -740.00     5760.00
02260            -760.00     5680.00
02261            -800.00     5680.00
02262            -800.00     5680.00
02263            -820.00     5600.00
02264            -820.00     5600.00
02265            -820.00     5600.00
02266            -820.00     5520.00
02267            -860.00     5600.00
02268            -860.00     5520.00
02269            -860.00     5520.00
02270            -880.00     5440.00
02271            -900.00     5360.00
02272            -860.00     5360.00
02273            -860.00     5360.00
02274            -860.00     5280.00
02275            -860.00     5280.00
02276            -860.00     5200.00
02277            -860.00     5120.00
02278            -820.00     5040.00
02279            -800.00     5040.00
02280            -800.00     4960.00
02281            -800.00     4880.00
02282            -780.00     4880.00
02283            -760.00     4800.00
02284            -780.00     4800.00
02285            -720.00     4720.00
02286            -700.00     4640.00
02287            -660.00     4560.00
02288            -640.00     4560.00
02289            -640.00     4400.00
02290            -620.00     4320.00
02291            -580.00     4240.00
02292            -560.00     4240.00
02293            -540.00     4080.00
02294            -540.00     4000.00
02295            -500.00     4000.00
02296            -480.00     3920.00
02297            -460.00     3760.00
02298            -420.00     3760.00
02299            -420.00     3600.00
02300            -400.00     3520.00
02301            -380.00     3440.00
02302            -380.00     3360.00
02303            -340.00     3280.00
02304            -340.00     3200.00
02305            -320.00     3120.00
02306            -300.00     3040.00
02307            -300.00     2960.00
02308            -300.00     2800.00
02309            -260.00     2640.00
02310            -260.00     2640.00
02311            -240.00     2640.00
02312            -240.00     2480.00
02313            -220.00     2320.00
02314            -220.00     2320.00
02315            -180.00     2160.00
02316            -180.00     2080.00
02317            -180.00     2000.00
02318            -160.00     1840.00
02319            -160.00     1760.00
02320            -140.00     1680.00
02321            -160.00     1520.00
02322            -140.00     1440.00
02323            -140.00     1360.00
02324            -120.00     1200.00
02325            -100.00     1120.00
02326            -100.00     1040.00
02327            -100.00      880.00
02328            -100.00      800.00
02329            -100.00      720.00
02330            -100.00      640.00
02331            -100.00      480.00
02332             -80.00      400.00
02333             -80.00      240.00
02334             -60.00      160.00
02335             -60.00       80.00
02336             -60.00      -80.00
02337             -20.00     -160.00
02338              20.00     -240.00
02339              60.00     -320.00
02340              40.00     -400.00
02341              20.00     -560.00
02342               0.00     -640.00
02343               0.00     -720.00
02344              20.00     -800.00
02345             220.00     -880.00
02346             720.00    -1120.00
02347             780.00    -1360.00
02348            -100.00    -1440.00
02349           -1520.00    -1440.00
02350           -1360.00    -1200.00
02351             480.00    -1680.00
02352             820.00    -1760.00
02353            -340.00    -1520.00
02354             160.00    -2160.00
02355             660.00    -2160.00
02356             -80.00    -1520.00
02357             -80.00    -2320.00
02358              60.00    -2720.00
02359              20.00    -2000.00
02360             400.00    -2400.00
02361               0.00    -2960.00
02362            -320.00    -2560.00
02363             240.00    -2560.00
02364               0.00    -3040.00
02365             -20.00    -3040.00
02366             480.00    -2880.00
02367             -60.00    -3040.00
02368            -180.00    -3440.00
02369             420.00    -3360.00
02370             220.00    -3120.00
02371            -160.00    -3680.00
02372             140.00    -3760.00
02373             260.00    -3440.00
02374              80.00    -3760.00
02375               0.00    -4160.00
02376             220.00    -3760.00
02377             300.00    -3840.00
02378             180.00    -4240.00
02379             220.00    -4240.00
02380             220.00    -4000.00
02381              60.00    -4400.00
02382              40.00    -4560.00
02383             180.00    -4240.00
02384             140.00    -4480.00
02385              80.00    -4720.00
02386             320.00    -4560.00
02387             380.00    -4640.00
02388             240.00    -4880.00
02389             300.00    -4880.00
02390             280.00    -4800.00
02391             100.00    -4960.00
02392             100.00    -5040.00
02393             220.00    -4960.00
02394             260.00    -5040.00
02395             260.00    -5200.00
02396             380.00    -5200.00
02397             340.00    -5200.00
02398             260.00    -5360.00
02399             320.00    -5360.00
02400             380.00    -5280.00
02401             300.00    -5360.00
02402             260.00    -5520.00
02403             340.00    -5360.00
02404             320.00    -5360.00
02405             320.00    -5600.00
02406             420.00    -5520.00
02407             500.00    -5520.00
02408             460.00    -5600.00
02409             480.00    -5680.00
02410             480.00    -5600.00
02411             400.00    -5680.00
02412             380.00    -5680.00
02413             480.00    -5680.00
02414             480.00    -5680.00
02415             480.00    -5760.00
02416             580.00    -5680.00
02417             640.00    -5680.00
02418             620.00    -5840.00
02419             640.00    -5840.00
02420             660.00    -5680.00
02421             620.00    -5680.00
02422             600.00    -5760.00
02423             660.00    -5680.00
02424             680.00    -5600.00
02425             700.00    -5600.00
02426             800.00    -5680.00
02427             860.00    -5600.00
02428             820.00    -5680.00
02429             800.00    -5600.00
02430             800.00    -5520.00
02431             800.00    -5520.00
02432             780.00    -5600.00
02433             860.00    -5520.00
02434             880.00    -5440.00
02435             880.00    -5440.00
02436             900.00    -5360.00
02437             900.00    -5360.00
02438             860.00    -5360.00
02439             860.00    -5280.00
02440             880.00    -5200.00
02441             860.00    -5200.00
02442             840.00    -5200.00
02443             840.00    -5040.00
02444             820.00    -5040.00
02445             820.00    -5040.00
02446             820.00    -4960.00
02447             820.00    -4880.00
02448             800.00    -4880.00
02449             780.00    -4800.00
02450             760.00    -4720.00
02451             720.00    -4640.00
02452             720.00    -4640.00
02453             720.00    -4560.00
02454             700.00    -4480.00
02455             640.00    -4400.00
02456             640.00    -4320.00
02457             580.00    -4320.00
02458             600.00    -4240.00
02459             560.00    -4240.00
02460             560.00    -4080.00
02461             540.00    -4080.00
02462             500.00    -3920.00
02463             480.00    -3840.00
02464             460.00    -3760.00
02465             420.00    -3680.00
02466             420.00    -3600.00
02467             420.00    -3440.00
02468             400.00    -3440.00
02469             380.00    -3280.00
02470             340.00    -3280.00
02471             320.00    -3200.00
02472             300.00    -3040.00
02473             320.00    -2960.00
02474             320.00    -2880.00
02475             300.00    -2800.00
02476             260.00    -2720.00
02477             240.00    -2560.00
02478             220.00    -2480.00
02479             220.00    -2400.00
02480             220.00    -2320.00
02481             220.00    -2240.00
02482             180.00    -2080.00
02483             180.00    -2000.00
02484             180.00    -1840.00
02485             180.00    -1840.00
02486             180.00    -1680.00
02487             160.00    -1600.00
02488             160.00    -1520.00
02489             140.00    -1440.00
02490             140.00    -1280.00
02491             140.00    -1200.00
02492             140.00    -1040.00
02493             140.00    -1040.00
02494             100.00     -880.00
02495             100.00     -800.00
02496              80.00     -640.00
02497              80.00     -560.00
02498              80.00     -400.00
02499              80.00     -320.00
02500              80.00     -240.00
02501              60.00     -160.00
02502              80.00      -80.00
02503              80.00       80.00
02504              60.00      240.00
02505             100.00      240.00
02506             140.00      400.00
02507             140.00      480.00
02508             100.00      560.00
02509              80.00      720.00
02510              60.00      800.00
02511              80.00      880.00
02512             320.00      960.00
02513             980.00     1280.00
02514             740.00     1360.00
02515            -640.00     1360.00
02516           -2140.00     1120.00
02517            -860.00     1520.00
02518            1360.00     1840.00
02519             280.00     1760.00
02520            -560.00     1680.00
02521             700.00     1680.00
02522             420.00     2320.00
02523            -740.00     2480.00
02524            -160.00     1760.00
02525             340.00     2400.00
02526              80.00     3040.00
02527             -80.00     2080.00
02528            -280.00     2400.00
02529               0.00     3440.00
02530              80.00     2640.00
02531            -500.00     2480.00
02532             220.00     3440.00
02533             340.00     3120.00
02534            -660.00     2960.00
02535               0.00     3360.00
02536             300.00     3360.00
02537            -420.00     3600.00
02538            -100.00     3360.00
02539              20.00     3600.00
02540            -140.00     4080.00
02541            -140.00     3440.00
02542            -260.00     3840.00
02543             -20.00     4400.00
02544            -100.00     3840.00
02545            -220.00     4080.00
02546             -20.00     4400.00
02547            -200.00     4240.00
02548            -240.00     4400.00
02549            -100.00     4400.00
02550            -160.00     4640.00
02551            -160.00     4560.00
02552            -240.00     4560.00
02553            -160.00     4960.00
02554            -220.00     4560.00
02555            -240.00     4880.00
02556            -100.00     5040.00
02557            -240.00     4880.00
02558            -300.00     5040.00
02559            -220.00     5040.00
02560            -240.00     5200.00
02561            -240.00     5200.00
02562            -240.00     5200.00
02563            -260.00     5360.00
02564            -320.00     5200.00
02565            -320.00     5360.00
02566            -240.00     5520.00
02567            -300.00     5360.00
02568            -340.00     5440.00
02569            -320.00     5520.00
02570            -340.00     5520.00
02571            -400.00     5520.00
02572            -340.00     5600.00
02573            -360.00     5680.00
02574            -400.00     5600.00
02575            -380.00     5680.00
02576            -400.00     5760.00
02577            -460.00     5680.00
02578            -500.00     5680.00
02579            -420.00     5840.00
02580            -460.00     5840.00
02581            -540.00     5760.00
02582            -540.00     5840.00
02583            -520.00     5840.00
02584            -580.00     5840.00
02585            -600.00     5680.00
02586            -560.00     5840.00
02587            -640.00     5840.00
02588            -660.00     5680.00
02589            -660.00     5840.00
02590            -660.00     5840.00
02591            -740.00     5760.00
02592            -740.00     5680.00
02593            -720.00     5840.00
02594            -740.00     5760.00
02595            -780.00     5680.00
02596            -800.00     5680.00
02597            -800.00     5600.00
02598            -860.00     5600.00
02599            -820.00     5680.00
02600            -840.00     5600.00
02601            -860.00     5520.00
02602            -860.00     5520.00
02603            -860.00     5520.00
02604            -880.00     5520.00
02605            -880.00     5440.00
02606            -860.00     5360.00
02607            -840.00     5360.00
02608            -860.00     5280.00
02609            -880.00     5280.00
02610            -860.00     5200.00
02611            -880.00     5200.00
02612            -820.00     5200.00
02613            -800.00     5040.00
02614            -800.00     4960.00
02615            -780.00     4960.00
02616            -800.00     4880.00
02617            -740.00     4880.00
02618            -740.00     4720.00
02619            -740.00     4720.00
02620            -680.00     4640.00
02621            -660.00     4560.00
02622            -640.00     4560.00
02623            -640.00     4400.00
02624            -640.00     4400.00
02625            -620.00     4320.00
02626            -560.00     4240.00
02627            -540.00     4240.00
02628            -500.00     4080.00
02629            -500.00     4000.00
02630            -500.00     3920.00
02631            -480.00     3760.00
02632            -460.00     3760.00
02633            -420.00     3680.00
02634            -420.00     3600.00
02635            -400.00     3440.00
02636            -380.00     3440.00
02637            -380.00     3360.00
02638            -340.00     3200.00
02639            -320.00     3120.00
02640            -300.00     3040.00
02641            -280.00     2960.00
02642            -300.00     2880.00
02643            -260.00     2800.00
02644            -260.00     2720.00
02645            -260.00     2560.00
02646            -240.00     2480.00
02647            -220.00     2400.00
02648            -220.00     2320.00
02649            -180.00     2160.00
02650            -200.00     2080.00
02651            -220.00     2000.00
02652            -200.00     1840.00
02653            -180.00     1840.00
02654            -160.00     1680.00
02655            -140.00     1520.00
02656            -140.00     1440.00
02657            -140.00     1360.00
02658            -140.00     1280.00
02659            -100.00     1200.00
02660            -100.00     1040.00
02661            -100.00      880.00
02662            -100.00      880.00
02663            -100.00      720.00
02664            -100.00      720.00
02665            -100.00      560.00
02666            -100.00      480.00
02667             -80.00      320.00
02668             -40.00      160.00
02669             -60.00      160.00
02670             -60.00       80.00
02671             -60.00     -160.00
02672               0.00     -240.00
02673              40.00     -240.00
02674              60.00     -400.00
02675              20.00     -480.00
02676              20.00     -640.00
02677               0.00     -720.00
02678               0.00     -800.00
02679              80.00     -880.00
02680             480.00    -1040.00
02681             860.00    -1200.00
02682             400.00    -1440.00
02683            -860.00    -1440.00
02684           -1760.00    -1360.00
02685            -440.00    -1360.00
02686            1060.00    -1840.00
02687              60.00    -1520.00
02688            -200.00    -1760.00
02689             620.00    -2400.00
02690             260.00    -1760.00
02691            -140.00    -1840.00
02692              20.00    -2720.00
02693             -60.00    -2320.00
02694             300.00    -2000.00
02695             300.00    -2800.00
02696            -300.00    -2880.00
02697              20.00    -2480.00
02698             180.00    -2800.00
02699            -180.00    -3040.00
02700             300.00    -2960.00
02701             300.00    -2960.00
02702            -300.00    -3280.00
02703             160.00    -3520.00
02704             420.00    -3200.00
02705             -60.00    -3360.00
02706               0.00    -3840.00
02707             300.00    -3600.00
02708             220.00    -3440.00
02709             -20.00    -4000.00
02710              80.00    -4000.00
02711             240.00    -3760.00
02712             160.00    -4000.00
02713             120.00    -4320.00
02714             220.00    -4080.00
02715             180.00    -4240.00
02716              80.00    -4560.00
02717             220.00    -4320.00
02718             260.00    -4400.00
02719              80.00    -4640.00
02720             140.00    -4720.00
02721             320.00    -4560.00
02722             180.00    -4720.00
02723             160.00    -4960.00
02724             300.00    -4880.00
02725             240.00    -4880.00
02726             160.00    -5040.00
02727             240.00    -5040.00
02728             300.00    -4960.00
02729             220.00    -5200.00
02730             260.00    -5200.00
02731             300.00    -5040.00
02732             240.00    -5280.00
02733             240.00    -5360.00
02734             380.00    -5280.00
02735             380.00    -5280.00
02736             300.00    -5520.00
02737             340.00    -5440.00
02738             380.00    -5440.00
02739             320.00    -5520.00
02740             380.00    -5600.00
02741             420.00    -5520.00
02742             420.00    -5520.00
02743             400.00    -5680.00
02744             480.00    -5600.00
02745             460.00    -5600.00
02746             420.00    -5680.00
02747             500.00    -5680.00
02748             540.00    -5600.00
02749             500.00    -5680.00
02750             520.00    -5680.00
02751             580.00    -5680.00
02752             560.00    -5680.00
02753             580.00    -5840.00
02754             640.00    -5760.00
02755             660.00    -5680.00
02756             640.00    -5680.00
02757             700.00    -5760.00
02758             720.00    -5680.00
02759             700.00    -5680.00
02760             720.00    -5680.00
02761             800.00    -5600.00
02762             800.00    -5600.00
02763             780.00    -5600.00
02764             820.00    -5600.00
02765             840.00    -5600.00
02766             820.00    -5600.00
02767             860.00    -5520.00
02768             880.00    -5440.00
02769             860.00    -5360.00
02770             860.00    -5440.00
02771             880.00    -5360.00
02772             860.00    -5360.00
02773             820.00    -5360.00
02774             880.00    -5280.00
02775             900.00    -5200.00
02776             860.00    -5200.00
02777             860.00    -5200.00
02778             860.00    -5040.00
02779             820.00    -5040.00
02780             820.00    -5040.00
02781             820.00    -4960.00
02782             800.00    -4880.00
02783             780.00    -4880.00
02784             740.00    -4720.00
02785             740.00    -4720.00
02786             720.00    -4640.00
02787             720.00    -4560.00
02788             700.00    -4480.00
02789             680.00    -4560.00
02790             640.00    -4400.00
02791             620.00    -4320.00
02792             580.00    -4320.00
02793             560.00    -4160.00
02794             560.00    -4080.00
02795             560.00    -4000.00
02796             540.00    -3920.00
02797             480.00    -3920.00
02798             460.00    -3760.00
02799             460.00    -3680.00
02800             420.00    -3680.00
02801             400.00    -3600.00
02802             400.00    -3440.00
02803             380.00    -3360.00
02804             340.00    -3280.00
02805             340.00    -3200.00
02806             320.00    -3120.00
02807             320.00    -3040.00
02808             320.00    -2880.00
02809             300.00    -2800.00
02810             260.00    -2720.00
02811             240.00    -2640.00
02812             240.00    -2560.00
02813             240.00    -2480.00
02814             220.00    -2400.00
02815             240.00    -2240.00
02816             220.00    -2160.00
02817             200.00    -2080.00
02818             180.00    -1920.00
02819             160.00    -1840.00
02820             160.00    -1760.00
02821             180.00    -1680.00
02822             180.00    -1520.00
02823             160.00    -1440.00
02824             140.00    -1360.00
02825             140.00    -1200.00
02826             120.00    -1200.00
02827             140.00    -1040.00
02828             140.00     -880.00
02829             140.00     -800.00
02830             100.00     -720.00
02831             100.00     -560.00
02832              80.00     -560.00
02833              80.00     -400.00
02834              80.00     -240.00
02835              80.00     -160.00
02836              80.00        0.00
02837              60.00       80.00
02838              60.00      160.00
02839              80.00      240.00
02840             140.00      400.00
02841             160.00      480.00
02842             140.00      560.00
02843              80.00      560.00
02844              60.00      720.00
02845              60.00      880.00
02846             160.00      880.00
02847             700.00     1200.00
02848             980.00     1360.00
02849             160.00     1440.00
02850           -1700.00     1200.00
02851           -1760.00     1280.00
02852             480.00     1760.00
02853            1180.00     1840.00
02854            -480.00     1680.00
02855             -60.00     1680.00
02856             980.00     2000.00
02857            -400.00     2560.00
02858            -660.00     2080.00
02859             320.00     1840.00
02860             140.00     2960.00
02861               0.00     2640.00
02862            -140.00     1920.00
02863            -260.00     3040.00
02864             200.00     3280.00
02865            -300.00     2240.00
02866            -300.00     3120.00
02867             540.00     3360.00
02868            -260.00     2960.00
02869            -500.00     3280.00
02870             400.00     3360.00
02871            -160.00     3520.00
02872            -380.00     3600.00
02873              80.00     3360.00
02874            -100.00     4000.00
02875            -140.00     3840.00
02876            -180.00     3520.00
02877            -160.00     4240.00
02878               0.00     4080.00
02879            -220.00     3840.00
02880             -80.00     4320.00
02881            -100.00     4320.00
02882            -260.00     4320.00
02883            -140.00     4400.00
02884            -140.00     4560.00
02885            -160.00     4640.00
02886            -200.00     4400.00
02887            -220.00     4800.00
02888            -160.00     4800.00
02889            -240.00     4720.00
02890            -140.00     5040.00
02891            -140.00     4880.00
02892            -300.00     4960.00
02893            -240.00     5040.00
02894            -220.00     5040.00
02895            -240.00     5200.00
02896            -240.00     5040.00
02897            -260.00     5280.00
02898            -320.00     5280.00
02899            -340.00     5280.00
02900            -260.00     5360.00
02901            -260.00     5360.00
02902            -340.00     5360.00
02903            -320.00     5440.00
02904            -320.00     5520.00
02905            -380.00     5600.00
02906            -380.00     5520.00
02907            -340.00     5600.00
02908            -400.00     5680.00
02909            -400.00     5600.00
02910            -380.00     5680.00
02911            -420.00     5680.00
02912            -500.00     5680.00
02913            -480.00     5680.00
02914            -420.00     5840.00
02915            -500.00     5760.00
02916            -540.00     5760.00
02917            -500.00     5840.00
02918            -560.00     5840.00
02919            -600.00     5840.00
02920            -580.00     5760.00
02921            -580.00     5840.00
02922            -640.00     5680.00
02923            -660.00     5760.00
02924            -640.00     5760.00
02925            -720.00     5680.00
02926            -740.00     5680.00
02927            -720.00     5680.00
02928            -740.00     5760.00
02929            -800.00     5680.00
02930            -800.00     5680.00
02931            -800.00     5680.00
02932            -820.00     5680.00
02933            -820.00     5600.00
02934            -820.00     5680.00
02935            -860.00     5520.00
02936            -860.00     5520.00
02937            -860.00     5520.00
02938            -860.00     5520.00
02939            -880.00     5440.00
02940            -880.00     5360.00
02941            -860.00     5360.00
02942            -840.00     5360.00
02943            -860.00     5280.00
02944            -860.00     5280.00
02945            -860.00     5200.00
02946            -860.00     5200.00
02947            -820.00     5120.00
02948            -800.00     5040.00
02949            -800.00     4960.00
02950            -780.00     4880.00
02951            -780.00     4880.00
02952            -740.00     4800.00
02953            -740.00     4720.00
02954            -720.00     4720.00
02955            -700.00     4640.00
02956            -640.00     4560.00
02957            -640.00     4560.00
02958            -640.00     4400.00
02959            -620.00     4400.00
02960            -580.00     4320.00
02961            -540.00     4240.00
02962            -540.00     4080.00
02963            -500.00     4000.00
02964            -500.00     4000.00
02965            -500.00     3840.00
02966            -460.00     3760.00
02967            -420.00     3760.00
02968            -420.00     3600.00
02969            -420.00     3440.00
02970            -360.00     3440.00
02971            -380.00     3360.00
02972            -380.00     3280.00
02973            -320.00     3200.00
02974            -300.00     3120.00
02975            -320.00     3040.00
02976            -320.00     2960.00
02977            -260.00     2800.00
02978            -240.00     2720.00
02979            -260.00     2640.00
02980            -240.00     2560.00
02981            -220.00     2480.00
02982            -240.00     2400.00
02983            -240.00     2240.00
02984            -180.00     2160.00
02985            -180.00     2080.00
02986            -180.00     1920.00
02987            -180.00     1840.00
02988            -160.00     1760.00
02989            -160.00     1600.00
02990            -160.00     1520.00
02991            -140.00     1440.00
02992            -140.00     1360.00
02993            -120.00     1200.00
02994            -120.00     1120.00
02995            -100.00      960.00
02996            -100.00      880.00
02997            -100.00      720.00
02998            -100.00      720.00
02999            -120.00      560.00
03000             -80.00      480.00
03001             -60.00      400.00
03002             -60.00      240.00
03003             -60.00      160.00
03004             -60.00       80.00
03005             -60.00      -80.00
03006             -20.00     -160.00
03007              40.00     -240.00
03008              80.00     -400.00
03009              60.00     -400.00
03010              20.00     -560.00
03011               0.00     -560.00
03012               0.00     -720.00
03013              20.00     -880.00
03014             240.00     -880.00
03015             760.00    -1120.00
03016             740.00    -1360.00
03017            -160.00    -1360.00
03018           -1540.00    -1440.00
03019           -1300.00    -1280.00
03020             580.00    -1760.00
03021             780.00    -1760.00
03022            -340.00    -1440.00
03023             180.00    -2320.00
03024             640.00    -2160.00
03025            -100.00    -1600.00
03026             -60.00    -2320.00
03027              60.00    -2640.00
03028              60.00    -2000.00
03029             420.00    -2400.00
03030             -20.00    -2960.00
03031            -280.00    -2560.00
03032             240.00    -2640.00
03033             -60.00    -3040.00
03034               0.00    -3040.00
03035             480.00    -2880.00
03036            -100.00    -3040.00
03037            -160.00    -3440.00
03038             440.00    -3360.00
03039             180.00    -3120.00
03040            -160.00    -3760.00
03041             160.00    -3760.00
03042             260.00    -3360.00
03043              60.00    -3760.00
03044             -20.00    -4160.00
03045             180.00    -3760.00
03046             220.00    -3920.00
03047             120.00    -4320.00
03048             180.00    -4240.00
03049             220.00    -4080.00
03050             120.00    -4400.00
03051             160.00    -4560.00
03052             300.00    -4320.00
03053             180.00    -4560.00
03054              60.00    -4720.00
03055             240.00    -4560.00
03056             260.00    -4640.00
03057             140.00    -4880.00
03058             260.00    -4880.00
03059             320.00    -4720.00
03060             180.00    -4960.00
03061             200.00    -5040.00
03062             300.00    -4960.00
03063             260.00    -5120.00
03064             240.00    -5200.00
03065             300.00    -5120.00
03066             300.00    -5200.00
03067             220.00    -5360.00
03068             320.00    -5360.00
03069             400.00    -5280.00
03070             340.00    -5360.00
03071             320.00    -5520.00
03072             380.00    -5360.00
03073             340.00    -5440.00
03074             320.00    -5600.00
03075             400.00    -5440.00
03076             440.00    -5520.00
03077             400.00    -5680.00
03078             460.00    -5680.00
03079             480.00    -5600.00
03080             420.00    -5680.00
03081             460.00    -5680.00
03082             540.00    -5600.00
03083             540.00    -5680.00
03084             500.00    -5680.00
03085             560.00    -5680.00
03086             580.00    -5680.00
03087             560.00    -5680.00
03088             620.00    -5760.00
03089             680.00    -5680.00
03090             660.00    -5680.00
03091             660.00    -5680.00
03092             700.00    -5680.00
03093             720.00    -5680.00
03094             700.00    -5680.00
03095             780.00    -5680.00
03096             800.00    -5600.00
03097             800.00    -5600.00
03098             800.00    -5600.00
03099             860.00    -5440.00
03100             820.00    -5520.00
03101             820.00    -5520.00
03102             860.00    -5440.00
03103             860.00    -5440.00
03104             880.00    -5440.00
03105             880.00    -5360.00
03106             860.00    -5360.00
03107             860.00    -5280.00
03108             860.00    -5280.00
03109             880.00    -5200.00
03110             860.00    -5200.00
03111             860.00    -5200.00
03112             840.00    -5120.00
03113             820.00    -5040.00
03114             800.00    -5040.00
03115             800.00    -4960.00
03116             820.00    -4880.00
03117             800.00    -4880.00
03118             780.00    -4720.00
03119             740.00    -4720.00
03120             720.00    -4720.00
03121             700.00    -4640.00
03122             720.00    -4560.00
03123             700.00    -4400.00
03124             660.00    -4400.00
03125             640.00    -4320.00
03126             620.00    -4240.00
03127             580.00    -4240.00
03128             560.00    -4160.00
03129             560.00    -4080.00
03130             540.00    -4000.00
03131             500.00    -3920.00
03132             480.00    -3760.00
03133             460.00    -3760.00
03134             420.00    -3680.00
03135             440.00    -3600.00
03136             420.00    -3520.00
03137             400.00    -3440.00
03138             380.00    -3280.00
03139             380.00    -3280.00
03140             320.00    -3200.00
03141             320.00    -3040.00
03142             320.00    -2960.00
03143             320.00    -2880.00
03144             280.00    -2800.00
03145             260.00    -2640.00
03146             260.00    -2560.00
03147             240.00    -2480.00
03148             220.00    -2400.00
03149             240.00    -2320.00
03150             220.00    -2160.00
03151             220.00    -2080.00
03152             180.00    -2000.00
03153             180.00    -1920.00
03154             180.00    -1840.00
03155             160.00    -1760.00
03156             160.00    -1600.00
03157             180.00    -1520.00
03158             140.00    -1360.00
03159             140.00    -1200.00
03160             140.00    -1120.00
03161             140.00    -1040.00
03162             140.00     -960.00
03163             120.00     -880.00
03164             100.00     -720.00
03165              80.00     -640.00
03166              80.00     -480.00
03167              80.00     -400.00
03168              80.00     -240.00
03169              80.00     -240.00
03170              80.00     -160.00
03171              60.00        0.00
03172              60.00       80.00
03173              60.00      240.00
03174             100.00      320.00
03175             140.00      400.00
03176             140.00      480.00
03177             100.00      560.00
03178              60.00      720.00
03179              60.00      800.00
03180              60.00      880.00
03181             360.00     1040.00
03182             980.00     1360.00
03183             700.00     1360.00
03184            -780.00     1360.00
03185           -2140.00     1120.00
03186            -720.00     1600.00
03187            1400.00     1920.00
03188             160.00     1760.00
03189            -540.00     1680.00
03190             740.00     1680.00
03191             340.00     2400.00
03192            -780.00     2400.00
03193            -100.00     1760.00
03194             320.00     2480.00
03195              40.00     2960.00
03196             -80.00     2000.00
03197            -300.00     2480.00
03198              20.00     3440.00
03199              60.00     2640.00
03200            -500.00     2560.00
03201             260.00     3440.00
03202             260.00     3120.00
03203            -660.00     3040.00
03204              80.00     3360.00
03205             260.00     3360.00
03206            -460.00     3600.00
03207             -80.00     3360.00
03208              20.00     3680.00
03209            -140.00     4080.00
03210            -140.00     3520.00
03211            -240.00     3920.00
03212             -20.00     4400.00
03213            -100.00     3840.00
03214            -180.00     4080.00
03215             -20.00     4320.00
03216            -220.00     4240.00
03217            -240.00     4400.00
03218            -100.00     4400.00
03219            -160.00     4640.00
03220            -180.00     4480.00
03221            -240.00     4560.00
03222            -160.00     4880.00
03223            -220.00     4640.00
03224            -220.00     4800.00
03225            -100.00     4960.00
03226            -260.00     4880.00
03227            -260.00     5040.00
03228            -220.00     4960.00
03229            -260.00     5200.00
03230            -240.00     5120.00
03231            -240.00     5200.00
03232            -260.00     5360.00
03233            -320.00     5200.00
03234            -300.00     5360.00
03235            -240.00     5520.00
03236            -320.00     5360.00
03237            -340.00     5360.00
03238            -320.00     5520.00
03239            -340.00     5600.00
03240            -400.00     5520.00
03241            -380.00     5520.00
03242            -400.00     5680.00
03243            -420.00     5600.00
03244            -400.00     5680.00
03245            -400.00     5760.00
03246            -460.00     5680.00
03247            -500.00     5680.00
03248            -420.00     5840.00
03249            -460.00     5760.00
03250            -540.00     5680.00
03251            -520.00     5680.00
03252            -540.00     5840.00
03253            -580.00     5840.00
03254            -620.00     5760.00
03255            -560.00     5840.00
03256            -600.00     5760.00
03257            -640.00     5840.00
03258            -660.00     5840.00
03259            -660.00     5760.00
03260            -740.00     5760.00
03261            -740.00     5760.00
03262            -740.00     5840.00
03263            -740.00     5760.00
03264            -800.00     5680.00
03265            -800.00     5680.00
03266            -800.00     5680.00
03267            -840.00     5600.00
03268            -820.00     5680.00
03269            -820.00     5600.00
03270            -860.00     5520.00
03271            -860.00     5520.00
03272            -880.00     5520.00
03273            -880.00     5520.00
03274            -880.00     5360.00
03275            -860.00     5360.00
03276            -840.00     5360.00
03277            -840.00     5280.00
03278            -860.00     5200.00
03279            -860.00     5280.00
03280            -860.00     5200.00
03281            -840.00     5040.00
03282            -800.00     5040.00
03283            -800.00     4960.00
03284            -800.00     4960.00
03285            -780.00     4880.00
03286            -740.00     4880.00
03287            -740.00     4800.00
03288            -720.00     4720.00
03289            -680.00     4640.00
03290            -660.00     4640.00
03291            -640.00     4480.00
03292            -640.00     4400.00
03293            -640.00     4400.00
03294            -600.00     4320.00
03295            -560.00     4240.00
03296            -540.00     4080.00
03297            -520.00     4080.00
03298            -500.00     4000.00
03299            -480.00     4000.00
03300            -480.00     3840.00
03301            -460.00     3760.00
03302            -420.00     3680.00
03303            -420.00     3600.00
03304            -400.00     3520.00
03305            -380.00     3440.00
03306            -340.00     3360.00
03307            -340.00     3280.00
03308            -340.00     3200.00
03309            -320.00     3040.00
03310            -300.00     2960.00
03311            -280.00     2800.00
03312            -300.00     2800.00
03313            -260.00     2640.00
03314            -240.00     2640.00
03315            -240.00     2480.00
03316            -220.00     2400.00
03317            -220.00     2320.00
03318            -220.00     2160.00
03319            -180.00     2080.00
03320            -180.00     2000.00
03321            -180.00     1840.00
03322            -160.00     1760.00
03323            -160.00     1680.00
03324            -140.00     1600.00
03325            -160.00     1520.00
03326            -140.00     1360.00
03327            -140.00     1280.00
03328            -100.00     1120.00
03329            -100.00     1120.00
03330            -100.00      880.00
03331            -100.00      880.00
03332            -100.00      720.00
03333             -80.00      560.00
03334             -80.00      480.00
03335             -80.00      400.00
03336             -80.00      320.00
03337             -60.00      160.00
03338             -60.00       80.00
03339             -40.00      -80.00
03340             -20.00     -160.00
03341               0.00     -240.00
03342              60.00     -240.00
03343              80.00     -480.00
03344              60.00     -480.00
03345              20.00     -640.00
03346               0.00     -720.00
03347               0.00     -800.00
03348              80.00     -880.00
03349             500.00    -1040.00
03350             860.00    -1280.00
03351             380.00    -1360.00
03352            -940.00    -1440.00
03353           -1760.00    -1360.00
03354            -320.00    -1440.00
03355            1080.00    -1920.00
03356               0.00    -1440.00
03357            -160.00    -1840.00
03358             640.00    -2400.00
03359             200.00    -1680.00
03360            -100.00    -1920.00
03361              20.00    -2720.00
03362             -60.00    -2320.00
03363             320.00    -2080.00
03364             260.00    -2800.00
03365            -320.00    -2800.00
03366              60.00    -2480.00
03367             160.00    -2880.00
03368            -160.00    -2960.00
03369             320.00    -3040.00
03370             240.00    -2960.00
03371            -320.00    -3280.00
03372             220.00    -3520.00
03373             400.00    -3120.00
03374             -80.00    -3440.00
03375               0.00    -3840.00
03376             260.00    -3600.00
03377             180.00    -3520.00
03378             -20.00    -4080.00
03379              80.00    -4000.00
03380             220.00    -3760.00
03381             160.00    -4080.00
03382             100.00    -4320.00
03383             220.00    -4000.00
03384             160.00    -4240.00
03385             100.00    -4560.00
03386             240.00    -4320.00
03387             260.00    -4400.00
03388              60.00    -4640.00
03389             140.00    -4640.00
03390             300.00    -4560.00
03391             180.00    -4720.00
03392             160.00    -4880.00
03393             320.00    -4800.00
03394             240.00    -4880.00
03395             160.00    -5040.00
03396             260.00    -4960.00
03397             300.00    -4960.00
03398             240.00    -5200.00
03399             280.00    -5200.00
03400             320.00    -5120.00
03401             240.00    -5280.00
03402             260.00    -5360.00
03403             380.00    -5280.00
03404             340.00    -5360.00
03405             300.00    -5440.00
03406             360.00    -5360.00
03407             380.00    -5360.00
03408             320.00    -5520.00
03409             380.00    -5520.00
03410             460.00    -5520.00
03411             420.00    -5600.00
03412             420.00    -5680.00
03413             480.00    -5600.00
03414             460.00    -5600.00
03415             420.00    -5680.00
03416             500.00    -5680.00
03417             540.00    -5680.00
03418             500.00    -5680.00
03419             540.00    -5680.00
03420             580.00    -5680.00
03421             560.00    -5680.00
03422             580.00    -5840.00
03423             640.00    -5680.00
03424             660.00    -5680.00
03425             640.00    -5840.00
03426             700.00    -5680.00
03427             720.00    -5680.00
03428             700.00    -5680.00
03429             720.00    -5680.00
03430             800.00    -5600.00
03431             800.00    -5680.00
03432             780.00    -5600.00
03433             800.00    -5600.00
03434             820.00    -5520.00
03435             800.00    -5600.00
03436             860.00    -5440.00
03437             880.00    -5440.00
03438             860.00    -5520.00
03439             860.00    -5440.00
03440             860.00    -5360.00
03441             860.00    -5360.00
03442             860.00    -5280.00
03443             860.00    -5280.00
03444             880.00    -5200.00
03445             860.00    -5200.00
03446             860.00    -5200.00
03447             840.00    -5040.00
03448             820.00    -4960.00
03449             820.00    -4960.00
03450             820.00    -4880.00
03451             800.00    -4880.00
03452             780.00    -4880.00
03453             780.00    -4800.00
03454             740.00    -4720.00
03455             720.00    -4640.00
03456             720.00    -4560.00
03457             700.00    -4560.00
03458             660.00    -4480.00
03459             640.00    -4400.00
03460             620.00    -4320.00
03461             580.00    -4240.00
03462             580.00    -4240.00
03463             560.00    -4080.00
03464             560.00    -4000.00
03465             540.00    -4000.00
03466             480.00    -3920.00
03467             460.00    -3840.00
03468             460.00    -3680.00
03469             420.00    -3600.00
03470             420.00    -3520.00
03471             400.00    -3440.00
03472             380.00    -3360.00
03473             380.00    -3280.00
03474             340.00    -3280.00
03475             340.00    -3120.00
03476             320.00    -3040.00
03477             320.00    -2880.00
03478             300.00    -2800.00
03479             280.00    -2720.00
03480             260.00    -2720.00
03481             240.00    -2560.00
03482             240.00    -2400.00
03483             220.00    -2320.00
03484             220.00    -2240.00
03485             220.00    -2160.00
03486             180.00    -2160.00
03487             180.00    -1920.00
03488             160.00    -1840.00
03489             160.00    -1760.00
03490             160.00    -1680.00
03491             160.00    -1520.00
03492             160.00    -1440.00
03493             160.00    -1360.00
03494             140.00    -1200.00
03495             140.00    -1120.00
03496             120.00    -1040.00
03497             140.00     -880.00
03498             120.00     -800.00
03499             100.00     -720.00
03500              80.00     -560.00
03501              80.00     -480.00
03502              80.00     -320.00
03503              60.00     -240.00
03504              80.00     -160.00
03505              80.00      -80.00
03506              60.00       80.00
03507              60.00      160.00
03508              80.00      240.00
03509             120.00      320.00
03510             140.00      400.00
03511             100.00      480.00
03512              80.00      640.00
03513              60.00      720.00
03514              20.00      800.00
03515             160.00     1040.00
03516             740.00     1200.00
03517             980.00     1360.00
03518              80.00     1440.00
03519           -1760.00     1200.00
03520           -1700.00     1360.00
03521             620.00     1760.00
03522            1100.00     1840.00
03523            -540.00     1760.00
03524              20.00     1680.00
03525             960.00     2000.00
03526            -460.00     2640.00
03527            -620.00     2080.00
03528             380.00     1920.00
03529             100.00     2960.00
03530               0.00     2480.00
03531            -160.00     2000.00
03532            -240.00     3120.00
03533             220.00     3120.00
03534            -320.00     2240.00
03535            -260.00     3040.00
03536             560.00     3440.00
03537            -320.00     2880.00
03538            -460.00     3280.00
03539             440.00     3360.00
03540            -160.00     3520.00
03541            -340.00     3520.00
03542             100.00     3360.00
03543            -100.00     4080.00
03544            -140.00     3760.00
03545            -220.00     3440.00
03546            -140.00     4320.00
03547               0.00     4080.00
03548            -220.00     3920.00
03549             -80.00     4320.00
03550            -100.00     4240.00
03551            -260.00     4400.00
03552            -140.00     4400.00
03553            -140.00     4480.00
03554            -160.00     4560.00
03555            -220.00     4400.00
03556            -220.00     4880.00
03557            -160.00     4800.00
03558            -260.00     4640.00
03559            -140.00     4960.00
03560            -140.00     4960.00
03561            -320.00     4960.00
03562            -240.00     5040.00
03563            -240.00     5120.00
03564            -260.00     5200.00
03565            -240.00     5120.00
03566            -240.00     5280.00
03567            -320.00     5280.00
03568            -340.00     5200.00
03569            -260.00     5520.00
03570            -260.00     5520.00
03571            -360.00     5360.00
03572            -320.00     5520.00
03573            -320.00     5600.00
03574            -400.00     5600.00
03575            -400.00     5520.00
03576            -360.00     5680.00
03577            -400.00     5680.00
03578            -420.00     5600.00
03579            -380.00     5680.00
03580            -420.00     5680.00
03581            -500.00     5600.00
03582            -480.00     5680.00
03583            -420.00     5840.00
03584            -500.00     5760.00
03585            -540.00     5680.00
03586            -500.00     5840.00
03587            -560.00     5840.00
03588            -600.00     5760.00
03589            -580.00     5840.00
03590            -580.00     5840.00
03591            -640.00     5840.00
03592            -660.00     5760.00
03593            -640.00     5840.00
03594            -700.00     5840.00
03595            -740.00     5680.00
03596            -720.00     5760.00
03597            -740.00     5760.00
03598            -780.00     5680.00
03599            -800.00     5680.00
03600            -800.00     5680.00
03601            -820.00     5680.00
03602            -820.00     5680.00
03603            -820.00     5680.00
03604            -820.00     5520.00
03605            -860.00     5600.00
03606            -860.00     5520.00
03607            -860.00     5520.00
03608            -880.00     5520.00
03609            -860.00     5360.00
03610            -860.00     5360.00
03611            -820.00     5280.00
03612            -860.00     5280.00
03613            -840.00     5280.00
03614            -840.00     5200.00
03615            -820.00     5200.00
03616            -820.00     5040.00
03617            -800.00     5040.00
03618            -800.00     4960.00
03619            -800.00     4880.00
03620            -740.00     4880.00
03621            -780.00     4800.00
03622            -740.00     4720.00
03623            -720.00     4720.00
03624            -660.00     4640.00
03625            -660.00     4560.00
03626            -640.00     4480.00
03627            -640.00     4400.00
03628            -620.00     4320.00
03629            -580.00     4240.00
03630            -540.00     4240.00
03631            -540.00     4080.00
03632            -540.00     4000.00
03633            -500.00     4000.00
03634            -480.00     3840.00
03635            -480.00     3760.00
03636            -440.00     3760.00
03637            -420.00     3680.00
03638            -400.00     3440.00
03639            -380.00     3440.00
03640            -380.00     3440.00
03641            -380.00     3280.00
03642            -340.00     3200.00
03643            -320.00     3120.00
03644            -300.00     3040.00
03645            -320.00     2880.00
03646            -300.00     2800.00
03647            -280.00     2720.00
03648            -260.00     2640.00
03649            -240.00     2480.00
03650            -220.00     2480.00
03651            -240.00     2320.00
03652            -220.00     2240.00
03653            -220.00     2160.00
03654            -180.00     2080.00
03655            -180.00     1920.00
03656            -160.00     1760.00
03657            -160.00     1680.00
03658            -160.00     1680.00
03659            -140.00     1520.00
03660            -140.00     1440.00
03661            -120.00     1360.00
03662            -140.00     1200.00
03663            -120.00     1120.00
03664            -100.00      880.00
03665            -100.00      880.00
03666            -100.00      800.00
03667            -100.00      720.00
03668            -100.00      560.00
03669             -80.00      480.00
03670             -80.00      400.00
03671             -40.00      240.00
03672             -40.00      160.00
03673             -60.00       80.00
03674             -60.00      -80.00
03675             -20.00     -160.00
03676              40.00     -240.00
03677              60.00     -400.00
03678              60.00     -400.00
03679              20.00     -560.00
03680               0.00     -640.00
03681               0.00     -800.00
03682              20.00     -800.00
03683             260.00     -960.00
03684             780.00    -1120.00
03685             720.00    -1360.00
03686            -240.00    -1440.00
03687           -1600.00    -1440.00
03688           -1200.00    -1280.00
03689             660.00    -1760.00
03690             660.00    -1760.00
03691            -340.00    -1440.00
03692             240.00    -2320.00
03693             620.00    -2080.00
03694            -100.00    -1680.00
03695             -60.00    -2400.00
03696               0.00    -2720.00
03697              60.00    -2000.00
03698             400.00    -2400.00
03699             -80.00    -3040.00
03700            -260.00    -2560.00
03701             240.00    -2640.00
03702             -80.00    -3040.00
03703               0.00    -3040.00
03704             460.00    -2960.00
03705            -140.00    -3040.00
03706            -100.00    -3440.00
03707             440.00    -3360.00
03708             160.00    -3120.00
03709            -140.00    -3680.00
03710             180.00    -3760.00
03711             260.00    -3440.00
03712              40.00    -3760.00
03713             -20.00    -4160.00
03714             180.00    -3760.00
03715             220.00    -3920.00
03716             100.00    -4320.00
03717             180.00    -4240.00
03718             220.00    -4080.00
03719             100.00    -4400.00
03720             160.00    -4480.00
03721             300.00    -4240.00
03722             160.00    -4560.00
03723              60.00    -4640.00
03724             260.00    -4560.00
03725             240.00    -4640.00
03726             140.00    -4880.00
03727             260.00    -4880.00
03728             320.00    -4800.00
03729             180.00    -4960.00
03730             220.00    -5040.00
03731             300.00    -4960.00
03732             260.00    -5040.00
03733             240.00    -5280.00
03734             320.00    -5120.00
03735             300.00    -5200.00
03736             220.00    -5280.00
03737             320.00    -5360.00
03738             400.00    -5280.00
03739             320.00    -5440.00
03740             320.00    -5440.00
03741             380.00    -5360.00
03742             340.00    -5440.00
03743             340.00    -5600.00
03744             420.00    -5520.00
03745             460.00    -5520.00
03746             400.00    -5680.00
03747             460.00    -5680.00
03748             480.00    -5600.00
03749             440.00    -5680.00
03750             480.00    -5680.00
03751             540.00    -5600.00
03752             540.00    -5680.00
03753             500.00    -5680.00
03754             560.00    -5680.00
03755             580.00    -5680.00
03756             560.00    -5840.00
03757             580.00    -5680.00
03758             660.00    -5680.00
03759             660.00    -5680.00
03760             660.00    -5760.00
03761             720.00    -5680.00
03762             720.00    -5600.00
03763             700.00    -5680.00
03764             760.00    -5680.00
03765             800.00    -5600.00
03766             780.00    -5600.00
03767             780.00    -5600.00
03768             820.00    -5600.00
03769             800.00    -5600.00
03770             820.00    -5600.00
03771             860.00    -5440.00
03772             860.00    -5440.00
03773             840.00    -5440.00
03774             860.00    -5360.00
03775             860.00    -5360.00
03776             820.00    -5280.00
03777             860.00    -5280.00
03778             880.00    -5280.00
03779             880.00    -5280.00
03780             860.00    -5200.00
03781             820.00    -5120.00
03782             820.00    -5040.00
03783             800.00    -5040.00
03784             820.00    -4960.00
03785             820.00    -4880.00
03786             780.00    -4880.00
03787             780.00    -4800.00
03788             740.00    -4720.00
03789             720.00    -4640.00
03790             700.00    -4640.00
03791             720.00    -4560.00
03792             700.00    -4560.00
03793             640.00    -4400.00
03794             640.00    -4320.00
03795             620.00    -4240.00
03796             580.00    -4240.00
03797             560.00    -4080.00
03798             560.00    -4000.00
03799             540.00    -3920.00
03800             500.00    -3920.00
03801             500.00    -3760.00
03802             460.00    -3760.00
03803             460.00    -3600.00
03804             420.00    -3600.00
03805             400.00    -3440.00
03806             400.00    -3360.00
03807             380.00    -3360.00
03808             340.00    -3200.00
03809             340.00    -3120.00
03810             320.00    -3040.00
03811             320.00    -2960.00
03812             320.00    -2880.00
03813             300.00    -2800.00
03814             260.00    -2720.00
03815             240.00    -2560.00
03816             220.00    -2480.00
03817             220.00    -2400.00
03818             220.00    -2320.00
03819             220.00    -2160.00
03820             200.00    -2080.00
03821             180.00    -2000.00
03822             180.00    -1840.00
03823             180.00    -1760.00
03824             160.00    -1680.00
03825             160.00    -1600.00
03826             160.00    -1440.00
03827             140.00    -1360.00
03828             100.00    -1200.00
03829             100.00    -1200.00
03830             140.00    -1040.00
03831             100.00     -960.00
03832             100.00     -800.00
03833             100.00     -800.00
03834              80.00     -640.00
03835              80.00     -560.00
03836              80.00     -400.00
03837              80.00     -240.00
03838              60.00     -240.00
03839              80.00      -80.00
03840              60.00      -80.00
03841              60.00       80.00
03842              60.00      240.00
03843             100.00      320.00
03844             140.00      400.00
03845             140.00      480.00
03846             100.00      560.00
03847              60.00      720.00
03848              40.00      720.00
03849              60.00      880.00
03850             400.00     1040.00
03851            1000.00     1360.00
03852             660.00     1440.00
03853            -860.00     1360.00
03854           -2120.00     1120.00
03855            -580.00     1600.00
03856            1420.00     1840.00
03857              80.00     1760.00
03858            -520.00     1760.00
03859             820.00     1680.00
03860             260.00     2400.00
03861            -780.00     2400.00
03862             -20.00     1760.00
03863             320.00     2480.00
03864              60.00     2960.00
03865             -80.00     2000.00
03866            -300.00     2480.00
03867              80.00     3440.00
03868               0.00     2560.00
03869            -500.00     2640.00
03870             300.00     3520.00
03871             220.00     3040.00
03872            -660.00     3040.00
03873             140.00     3360.00
03874             220.00     3440.00
03875            -480.00     3600.00
03876             -60.00     3360.00
03877              20.00     3680.00
03878            -140.00     4080.00
03879            -140.00     3440.00
03880            -220.00     3920.00
03881             -20.00     4320.00
03882            -120.00     3840.00
03883            -180.00     4160.00
03884               0.00     4320.00
03885            -220.00     4240.00
03886            -220.00     4400.00
03887            -100.00     4400.00
03888            -160.00     4640.00
03889            -180.00     4480.00
03890            -240.00     4560.00
03891            -160.00     4880.00
03892            -240.00     4640.00
03893            -240.00     4880.00
03894            -100.00     4960.00
03895            -260.00     4880.00
03896            -300.00     4960.00
03897            -220.00     5040.00
03898            -260.00     5200.00
03899            -240.00     5120.00
03900            -240.00     5200.00
03901            -300.00     5360.00
03902            -340.00     5200.00
03903            -320.00     5360.00
03904            -240.00     5440.00
03905            -320.00     5360.00
03906            -340.00     5440.00
03907            -320.00     5520.00
03908            -380.00     5520.00
03909            -400.00     5520.00
03910            -380.00     5520.00
03911            -380.00     5680.00
03912            -420.00     5600.00
03913            -400.00     5680.00
03914            -400.00     5680.00
03915            -480.00     5680.00
03916            -500.00     5680.00
03917            -420.00     5760.00
03918            -460.00     5840.00
03919            -540.00     5760.00
03920            -520.00     5840.00
03921            -500.00     5840.00
03922            -580.00     5760.00
03923            -600.00     5760.00
03924            -560.00     5840.00
03925            -620.00     5840.00
03926            -660.00     5760.00
03927            -660.00     5840.00
03928            -660.00     5840.00
03929            -740.00     5680.00
03930            -740.00     5680.00
03931            -720.00     5760.00
03932            -740.00     5680.00
03933            -760.00     5680.00
03934            -800.00     5680.00
03935            -800.00     5600.00
03936            -860.00     5600.00
03937            -820.00     5600.00
03938            -800.00     5600.00
03939            -820.00     5520.00
03940            -860.00     5520.00
03941            -860.00     5520.00
03942            -880.00     5520.00
03943            -880.00     5360.00
03944            -860.00     5360.00
03945            -800.00     5360.00
03946            -820.00     5280.00
03947            -860.00     5280.00
03948            -880.00     5200.00
03949            -860.00     5200.00
03950            -820.00     5120.00
03951            -800.00     5040.00
03952            -780.00     4960.00
03953            -800.00     4880.00
03954            -800.00     4880.00
03955            -780.00     4880.00
03956            -740.00     4720.00
03957            -720.00     4720.00
03958            -700.00     4640.00
03959            -660.00     4560.00
03960            -680.00     4480.00
03961            -640.00     4480.00
03962            -640.00     4320.00
03963            -620.00     4240.00
03964            -580.00     4240.00
03965            -540.00     4080.00
03966            -540.00     4080.00
03967            -540.00     4000.00
03968            -480.00     3920.00
03969            -480.00     3920.00
03970            -440.00     3760.00
03971            -420.00     3680.00
03972            -420.00     3600.00
03973            -380.00     3440.00
03974            -380.00     3360.00
03975            -380.00     3280.00
03976            -340.00     3280.00
03977            -320.00     3120.00
03978            -320.00     3120.00
03979            -300.00     2960.00
03980            -300.00     2800.00
03981            -280.00     2800.00
03982            -260.00     2640.00
03983            -240.00     2560.00
03984            -240.00     2480.00
03985            -220.00     2400.00
03986            -180.00     2320.00
03987            -220.00     2160.00
03988            -220.00     2160.00
03989            -220.00     1920.00
03990            -200.00     1840.00
03991            -160.00     1760.00
03992            -160.00     1680.00
03993            -140.00     1600.00
03994            -140.00     1440.00
03995            -160.00     1360.00
03996            -140.00     1280.00
03997            -100.00     1120.00
03998            -100.00     1040.00
03999            -100.00      880.00
04000            -100.00      800.00
04001            -100.00      720.00
04002            -100.00      560.00
04003             -80.00      560.00
04004             -80.00      400.00
04005             -80.00      320.00
04006             -60.00      240.00
04007             -60.00      160.00
04008             -60.00       80.00
04009             -20.00     -160.00
04010              20.00     -160.00
04011              60.00     -240.00
04012              80.00     -400.00
04013              40.00     -480.00
04014               0.00     -560.00
04015               0.00     -720.00
04016               0.00     -800.00
04017             100.00     -800.00
04018             540.00    -1040.00
04019             860.00    -1280.00
04020             320.00    -1360.00
04021           -1020.00    -1440.00
04022           -1760.00    -1200.00
04023            -220.00    -1440.00
04024            1080.00    -1920.00
04025             -80.00    -1440.00
04026            -160.00    -1840.00
04027             660.00    -2400.00
04028             140.00    -1680.00
04029            -100.00    -1920.00
04030              40.00    -2720.00
04031             -60.00    -2320.00
04032             340.00    -2080.00
04033             220.00    -2880.00
04034            -340.00    -2800.00
04035              80.00    -2400.00
04036             120.00    -2880.00
04037            -160.00    -3040.00
04038             380.00    -3040.00
04039             220.00    -2880.00
04040            -320.00    -3280.00
04041             220.00    -3600.00
04042             380.00    -3120.00
04043            -100.00    -3360.00
04044              20.00    -3920.00
04045             300.00    -3440.00
04046             160.00    -3440.00
04047             -60.00    -4080.00
04048              80.00    -3920.00
04049             260.00    -3760.00
04050             180.00    -4080.00
04051             100.00    -4320.00
04052             220.00    -4000.00
04053             140.00    -4240.00
04054              80.00    -4560.00
04055             240.00    -4320.00
04056             300.00    -4400.00
04057              80.00    -4720.00
04058             140.00    -4640.00
04059             300.00    -4560.00
04060             180.00    -4800.00
04061             180.00    -4880.00
04062             320.00    -4800.00
04063             240.00    -4880.00
04064             160.00    -5040.00
04065             240.00    -4960.00
04066             300.00    -5040.00
04067             260.00    -5200.00
04068             300.00    -5200.00
04069             320.00    -5120.00
04070             240.00    -5200.00
04071             260.00    -5360.00
04072             380.00    -5280.00
04073             380.00    -5360.00
04074             320.00    -5520.00
04075             380.00    -5360.00
04076             380.00    -5360.00
04077             340.00    -5520.00
04078             360.00    -5520.00
04079             440.00    -5520.00
04080             400.00    -5600.00
04081             420.00    -5680.00
04082             480.00    -5600.00
04083             460.00    -5600.00
04084             400.00    -5680.00
04085             500.00    -5680.00
04086             540.00    -5600.00
04087             500.00    -5680.00
04088             540.00    -5680.00
04089             580.00    -5680.00
04090             560.00    -5680.00
04091             560.00    -5680.00
04092             640.00    -5680.00
04093             660.00    -5680.00
04094             640.00    -5680.00
04095             700.00    -5680.00
04096             720.00    -5680.00
04097             700.00    -5680.00
04098             720.00    -5680.00
04099             780.00    -5600.00
04100             800.00    -5600.00
04101             780.00    -5680.00
04102             820.00    -5600.00
04103             820.00    -5520.00
04104             820.00    -5440.00
04105             820.00    -5520.00
04106             880.00    -5440.00
04107             860.00    -5440.00
04108             860.00    -5440.00
04109             880.00    -5360.00
04110             860.00    -5280.00
04111             840.00    -5360.00
04112             880.00    -5200.00
04113             880.00    -5200.00
04114             860.00    -5200.00
04115             860.00    -5200.00
04116             860.00    -5040.00
04117             800.00    -5040.00
04118             800.00    -4960.00
04119             820.00    -4880.00
04120             800.00    -4880.00
04121             780.00    -4880.00
04122             780.00    -4720.00
04123             720.00    -4720.00
04124             700.00    -4640.00
04125             700.00    -4560.00
04126             720.00    -4480.00
04127             700.00    -4400.00
04128             640.00    -4400.00
04129             620.00    -4320.00
04130             580.00    -4240.00
04131             560.00    -4240.00
04132             560.00    -4080.00
04133             560.00    -4000.00
04134             540.00    -3920.00
04135             480.00    -3840.00
04136             480.00    -3760.00
04137             440.00    -3680.00
04138             420.00    -3680.00
04139             460.00    -3520.00
04140             400.00    -3440.00
04141             380.00    -3360.00
04142             380.00    -3280.00
04143             340.00    -3120.00
04144             320.00    -3120.00
04145             320.00    -2960.00
04146             300.00    -2880.00
04147             300.00    -2800.00
04148             280.00    -2800.00
04149             260.00    -2640.00
04150             260.00    -2560.00
04151             220.00    -2480.00
04152             220.00    -2400.00
04153             220.00    -2240.00
04154             220.00    -2160.00
04155             220.00    -2000.00
04156             180.00    -1920.00
04157             160.00    -1840.00
04158             160.00    -1760.00
04159             160.00    -1600.00
04160             140.00    -1520.00
04161             160.00    -1440.00
04162             140.00    -1360.00
04163             140.00    -1200.00
04164             100.00    -1120.00
04165             140.00    -1040.00
04166             100.00     -880.00
04167             100.00     -800.00
04168             100.00     -720.00
04169              80.00     -560.00
04170              80.00     -480.00
04171              60.00     -320.00
04172              60.00     -240.00
04173              80.00     -160.00
04174              60.00      -80.00
04175              60.00       80.00
04176              60.00      160.00
04177              80.00      240.00
04178             100.00      400.00
04179             140.00      480.00
04180             140.00      560.00
04181              80.00      640.00
04182              60.00      720.00
04183              40.00      880.00
04184             160.00      960.00
04185             780.00     1200.00
04186             960.00     1360.00
04187               0.00     1440.00
04188           -1820.00     1200.00
04189           -1600.00     1360.00
04190             740.00     1760.00
04191            1020.00     1840.00
04192            -560.00     1760.00
04193             120.00     1680.00
04194             940.00     2080.00
04195            -480.00     2640.00
04196            -560.00     2000.00
04197             380.00     2000.00
04198             100.00     2960.00
04199               0.00     2480.00
04200            -160.00     2000.00
04201            -240.00     3200.00
04202             220.00     3120.00
04203            -380.00     2320.00
04204            -200.00     3280.00
04205             540.00     3360.00
04206            -380.00     2960.00
04207            -420.00     3280.00
04208             460.00     3360.00
04209            -220.00     3600.00
04210            -340.00     3520.00
04211             100.00     3360.00
04212            -100.00     4080.00
04213            -140.00     3760.00
04214            -240.00     3520.00
04215            -120.00     4320.00
04216             -20.00     4080.00
04217            -240.00     3920.00
04218             -60.00     4320.00
04219            -100.00     4240.00
04220            -260.00     4320.00
04221            -140.00     4320.00
04222            -160.00     4560.00
04223            -160.00     4560.00
04224            -220.00     4480.00
04225            -220.00     4880.00
04226            -180.00     4800.00
04227            -260.00     4720.00
04228            -140.00     4960.00
04229            -180.00     4960.00
04230            -300.00     4960.00
04231            -240.00     5040.00
04232            -260.00     5120.00
04233            -260.00     5200.00
04234            -240.00     5040.00
04235            -260.00     5280.00
04236            -300.00     5280.00
04237            -340.00     5280.00
04238            -260.00     5440.00
04239            -260.00     5360.00
04240            -340.00     5360.00
04241            -320.00     5520.00
04242            -320.00     5520.00
04243            -400.00     5520.00
04244            -400.00     5520.00
04245            -360.00     5680.00
04246            -400.00     5680.00
04247            -400.00     5600.00
04248            -380.00     5680.00
04249            -420.00     5760.00
04250            -500.00     5680.00
04251            -460.00     5760.00
04252            -420.00     5840.00
04253            -500.00     5760.00
04254            -540.00     5840.00
04255            -500.00     5760.00
04256            -560.00     5840.00
04257            -580.00     5760.00
04258            -580.00     5760.00
04259            -580.00     5840.00
04260            -640.00     5680.00
04261            -660.00     5760.00
04262            -660.00     5840.00
04263            -720.00     5680.00
04264            -740.00     5680.00
04265            -720.00     5760.00
04266            -740.00     5680.00
04267            -780.00     5680.00
04268            -800.00     5680.00
04269            -800.00     5680.00
04270            -820.00     5680.00
04271            -820.00     5600.00
04272            -820.00     5600.00
04273            -840.00     5600.00
04274            -840.00     5520.00
04275            -860.00     5520.00
04276            -880.00     5520.00
04277            -880.00     5440.00
04278            -880.00     5360.00
04279            -820.00     5360.00
04280            -860.00     5280.00
04281            -860.00     5280.00
04282            -860.00     5200.00
04283            -860.00     5200.00
04284            -860.00     5120.00
04285            -820.00     5040.00
04286            -800.00     5040.00
04287            -800.00     4960.00
04288            -800.00     4880.00
04289            -780.00     4880.00
04290            -780.00     4800.00
04291            -740.00     4720.00
04292            -720.00     4640.00
04293            -700.00     4640.00
04294            -660.00     4560.00
04295            -640.00     4480.00
04296            -640.00     4400.00
04297            -620.00     4320.00
04298            -580.00     4240.00
04299            -560.00     4240.00
04300            -540.00     4080.00
04301            -540.00     4000.00
04302            -500.00     4000.00
04303            -480.00     3920.00
04304            -460.00     3760.00
04305            -440.00     3760.00
04306            -420.00     3600.00
04307            -400.00     3520.00
04308            -380.00     3440.00
04309            -380.00     3360.00
04310            -360.00     3280.00
04311            -340.00     3200.00
04312            -300.00     3120.00
04313            -300.00     3040.00
04314            -300.00     2960.00
04315            -260.00     2800.00
04316            -260.00     2720.00
04317            -260.00     2640.00
04318            -240.00     2560.00
04319            -220.00     2480.00
04320            -220.00     2320.00
04321            -220.00     2160.00
04322            -200.00     2160.00
04323            -200.00     2000.00
04324            -180.00     1920.00
04325            -180.00     1840.00
04326            -160.00     1760.00
04327            -140.00     1680.00
04328            -140.00     1520.00
04329            -140.00     1440.00
04330            -140.00     1280.00
04331            -100.00     1200.00
04332            -100.00     1120.00
04333            -100.00      960.00
04334            -100.00      880.00
04335            -100.00      800.00
04336            -100.00      720.00
04337             -80.00      560.00
04338             -60.00      400.00
04339             -80.00      400.00
04340             -60.00      240.00
04341             -60.00      160.00
04342             -60.00       80.00
04343             -60.00      -80.00
04344             -20.00     -160.00
04345              20.00     -240.00
04346              60.00     -400.00
04347              60.00     -400.00
04348              20.00     -560.00
04349               0.00     -560.00
04350               0.00     -720.00
04351              20.00     -800.00
04352             280.00     -960.00
04353             780.00    -1200.00
04354             680.00    -1440.00
04355            -320.00    -1440.00
04356           -1660.00    -1440.00
04357           -1120.00    -1280.00
04358             740.00    -1760.00
04359             600.00    -1760.00
04360            -340.00    -1520.00
04361             300.00    -2320.00
04362             580.00    -2080.00
04363            -140.00    -1680.00
04364             -60.00    -2480.00
04365              20.00    -2640.00
04366              80.00    -1920.00
04367             400.00    -2480.00
04368            -100.00    -2960.00
04369            -240.00    -2480.00
04370             240.00    -2640.00
04371            -100.00    -3040.00
04372              60.00    -3040.00
04373             480.00    -2960.00
04374            -180.00    -3040.00
04375            -100.00    -3440.00
04376             460.00    -3360.00
04377             140.00    -3120.00
04378            -140.00    -3760.00
04379             200.00    -3760.00
04380             260.00    -3360.00
04381              60.00    -3840.00
04382               0.00    -4080.00
04383             180.00    -3760.00
04384             220.00    -3920.00
04385             100.00    -4320.00
04386             180.00    -4080.00
04387             220.00    -4080.00
04388             100.00    -4560.00
04389             160.00    -4480.00
04390             300.00    -4320.00
04391             160.00    -4640.00
04392              80.00    -4720.00
04393             260.00    -4560.00
04394             260.00    -4720.00
04395             160.00    -4880.00
04396             300.00    -4800.00
04397             320.00    -4800.00
04398             180.00    -4960.00
04399             220.00    -5040.00
04400             300.00    -4960.00
04401             260.00    -5040.00
04402             240.00    -5200.00
04403             320.00    -5040.00
04404             300.00    -5200.00
04405             240.00    -5360.00
04406             340.00    -5360.00
04407             400.00    -5280.00
04408             320.00    -5440.00
04409             320.00    -5440.00
04410             380.00    -5440.00
04411             340.00    -5520.00
04412             340.00    -5600.00
04413             420.00    -5440.00
04414             440.00    -5520.00
04415             400.00    -5680.00
04416             440.00    -5680.00
04417             460.00    -5520.00
04418             400.00    -5680.00
04419             480.00    -5680.00
04420             540.00    -5600.00
04421             500.00    -5680.00
04422             480.00    -5840.00
04423             560.00    -5680.00
04424             580.00    -5600.00
04425             560.00    -5760.00
04426             620.00    -5760.00
04427             660.00    -5600.00
04428             640.00    -5680.00
04429             660.00    -5680.00
04430             700.00    -5680.00
04431             700.00    -5680.00
04432             700.00    -5680.00
04433             760.00    -5680.00
04434             800.00    -5600.00
04435             780.00    -5680.00
04436             800.00    -5600.00
04437             820.00    -5440.00
04438             820.00    -5520.00
04439             820.00    -5520.00
04440             860.00    -5440.00
04441             880.00    -5440.00
04442             860.00    -5440.00
04443             860.00    -5360.00
04444             860.00    -5360.00
04445             860.00    -5360.00
04446             860.00    -5280.00
04447             880.00    -5280.00
04448             880.00    -5200.00
04449             860.00    -5200.00
04450             860.00    -5040.00
04451             860.00    -5040.00
04452             800.00    -5040.00
04453             820.00    -4880.00
04454             820.00    -4880.00
04455             800.00    -4880.00
04456             780.00    -4800.00
04457             740.00    -4720.00
04458             720.00    -4640.00
04459             720.00    -4640.00
04460             720.00    -4560.00
04461             700.00    -4480.00
04462             640.00    -4400.00
04463             640.00    -4320.00
04464             620.00    -4320.00
04465             580.00    -4240.00
04466             560.00    -4160.00
04467             560.00    -4000.00
04468             540.00    -4000.00
04469             500.00    -3920.00
04470             480.00    -3760.00
04471             460.00    -3760.00
04472             460.00    -3680.00
04473             420.00    -3600.00
04474             400.00    -3520.00
04475             380.00    -3440.00
04476             380.00    -3280.00
04477             340.00    -3280.00
04478             320.00    -3120.00
04479             320.00    -3040.00
04480             320.00    -2880.00
04481             300.00    -2800.00
04482             280.00    -2720.00
04483             260.00    -2720.00
04484             240.00    -2640.00
04485             240.00    -2480.00
04486             240.00    -2400.00
04487             220.00    -2320.00
04488             220.00    -2160.00
04489             180.00    -2080.00
04490             180.00    -2000.00
04491             180.00    -1840.00
04492             180.00    -1840.00
04493             160.00    -1680.00
04494             160.00    -1520.00
04495             140.00    -1520.00
04496             140.00    -1360.00
04497             100.00    -1280.00
04498             140.00    -1120.00
04499             100.00    -1040.00
04500             120.00     -960.00
04501             100.00     -880.00
04502             100.00     -720.00
04503             100.00     -560.00
04504              80.00     -560.00
04505              80.00     -320.00
04506              80.00     -240.00
04507              80.00     -160.00
04508              80.00      -80.00
04509              60.00       80.00
04510              60.00      160.00
04511              80.00      240.00
04512             100.00      320.00
04513             140.00      400.00
04514             140.00      480.00
04515             100.00      560.00
04516              60.00      720.00
04517              60.00      800.00
04518              60.00      880.00
04519             440.00     1040.00
04520            1020.00     1280.00
04521             620.00     1440.00
04522            -960.00     1360.00
04523           -2100.00     1200.00
04524            -480.00     1600.00
04525            1440.00     1920.00
04526               0.00     1760.00
04527            -480.00     1680.00
04528             860.00     1680.00
04529             200.00     2480.00
04530            -780.00     2320.00
04531              20.00     1680.00
04532             300.00     2480.00
04533              60.00     2960.00
04534             -80.00     2000.00
04535            -320.00     2560.00
04536              80.00     3440.00
04537             -20.00     2480.00
04538            -480.00     2640.00
04539             340.00     3440.00
04540             180.00     3040.00
04541            -660.00     3120.00
04542             180.00     3440.00
04543             180.00     3440.00
04544            -480.00     3600.00
04545             -20.00     3360.00
04546               0.00     3760.00
04547            -160.00     4080.00
04548            -160.00     3440.00
04549            -240.00     4000.00
04550               0.00     4320.00
04551            -120.00     3760.00
04552            -180.00     4160.00
04553             -20.00     4320.00
04554            -240.00     4320.00
04555            -220.00     4400.00
04556            -140.00     4400.00
04557            -180.00     4720.00
04558            -180.00     4480.00
04559            -240.00     4640.00
04560            -160.00     4880.00
04561            -220.00     4640.00
04562            -220.00     4880.00
04563            -100.00     5040.00
04564            -300.00     4880.00
04565            -300.00     5040.00
04566            -220.00     5040.00
04567            -240.00     5200.00
04568            -240.00     5120.00
04569            -240.00     5200.00
04570            -300.00     5360.00
04571            -320.00     5200.00
04572            -280.00     5360.00
04573            -240.00     5440.00
04574            -320.00     5360.00
04575            -340.00     5440.00
04576            -320.00     5520.00
04577            -380.00     5600.00
04578            -400.00     5520.00
04579            -380.00     5600.00
04580            -340.00     5680.00
04581            -400.00     5680.00
04582            -400.00     5680.00
04583            -400.00     5760.00
04584            -480.00     5680.00
04585            -500.00     5680.00
04586            -420.00     5840.00
04587            -460.00     5840.00
04588            -540.00     5840.00
04589            -500.00     5840.00
04590            -500.00     5840.00
04591            -580.00     5760.00
04592            -580.00     5840.00
04593            -560.00     5840.00
04594            -620.00     5840.00
04595            -660.00     5760.00
04596            -640.00     5840.00
04597            -660.00     5840.00
04598            -740.00     5760.00
04599            -740.00     5680.00
04600            -720.00     5840.00
04601            -740.00     5760.00
04602            -780.00     5680.00
04603            -780.00     5680.00
04604            -820.00     5680.00
04605            -860.00     5680.00
04606            -820.00     5680.00
04607            -820.00     5600.00
04608            -860.00     5600.00
04609            -840.00     5520.00
04610            -880.00     5520.00
04611            -880.00     5520.00
04612            -900.00     5360.00
04613            -860.00     5360.00
04614            -820.00     5360.00
04615            -860.00     5280.00
04616            -860.00     5280.00
04617            -860.00     5200.00
04618            -860.00     5200.00
04619            -840.00     5040.00
04620            -800.00     5040.00
04621            -800.00     4960.00
04622            -800.00     4880.00
04623            -780.00     4880.00
04624            -780.00     4880.00
04625            -740.00     4720.00
04626            -740.00     4720.00
04627            -700.00     4640.00
04628            -660.00     4560.00
04629            -660.00     4560.00
04630            -640.00     4400.00
04631            -640.00     4400.00
04632            -620.00     4320.00
04633            -560.00     4240.00
04634            -540.00     4080.00
04635            -520.00     4080.00
04636            -500.00     4000.00
04637            -500.00     3920.00
04638            -460.00     3920.00
04639            -460.00     3760.00
04640            -420.00     3680.00
04641            -400.00     3600.00
04642            -400.00     3440.00
04643            -380.00     3440.00
04644            -380.00     3280.00
04645            -340.00     3200.00
04646            -320.00     3120.00
04647            -300.00     3040.00
04648            -300.00     2960.00
04649            -300.00     2800.00
04650            -260.00     2720.00
04651            -260.00     2640.00
04652            -240.00     2640.00
04653            -220.00     2480.00
04654            -220.00     2400.00
04655            -220.00     2240.00
04656            -180.00     2160.00
04657            -180.00     2080.00
04658            -180.00     2000.00
04659            -160.00     1840.00
04660            -160.00     1760.00
04661            -160.00     1680.00
04662            -160.00     1520.00
04663            -160.00     1440.00
04664            -140.00     1360.00
04665            -100.00     1280.00
04666            -100.00     1200.00
04667            -100.00     1040.00
04668            -100.00      960.00
04669            -100.00      800.00
04670            -100.00      720.00
04671            -100.00      560.00
04672             -80.00      480.00
04673             -80.00      400.00
04674             -60.00      320.00
04675             -60.00      240.00
04676             -60.00       80.00
04677             -60.00        0.00
04678             -60.00      -80.00
04679               0.00     -240.00
04680              60.00     -240.00
04681              60.00     -400.00
04682              20.00     -480.00
04683               0.00     -560.00
04684               0.00     -720.00
04685               0.00     -800.00
04686             120.00     -880.00
04687             560.00    -1040.00
04688             860.00    -1360.00
04689             280.00    -1360.00
04690           -1060.00    -1440.00
04691           -1720.00    -1280.00
04692            -140.00    -1440.00
04693            1080.00    -1920.00
04694            -140.00    -1440.00
04695            -120.00    -1920.00
04696             700.00    -2400.00
04697             100.00    -1680.00
04698            -140.00    -2000.00
04699              40.00    -2800.00
04700             -60.00    -2240.00
04701             340.00    -2080.00
04702             220.00    -2880.00
04703            -340.00    -2800.00
04704             140.00    -2480.00
04705             140.00    -2960.00
04706            -160.00    -3040.00
04707             380.00    -3040.00
04708             180.00    -2960.00
04709            -320.00    -3360.00
04710             260.00    -3520.00
04711             380.00    -3120.00
04712            -100.00    -3440.00
04713              60.00    -3920.00
04714             300.00    -3440.00
04715             160.00    -3600.00
04716             -20.00    -4160.00
04717             100.00    -3920.00
04718             240.00    -3760.00
04719             160.00    -4160.00
04720             140.00    -4320.00
04721             220.00    -4080.00
04722             160.00    -4240.00
04723             100.00    -4560.00
04724             260.00    -4400.00
04725             240.00    -4400.00
04726              60.00    -4720.00
04727             160.00    -4640.00
04728             320.00    -4560.00
04729             160.00    -4800.00
04730             180.00    -4880.00
04731             320.00    -4800.00
04732             240.00    -4880.00
04733             160.00    -5040.00
04734             300.00    -4960.00
04735             300.00    -5040.00
04736             220.00    -5200.00
04737             280.00    -5200.00
04738             320.00    -5040.00
04739             240.00    -5280.00
04740             260.00    -5360.00
04741             380.00    -5360.00
04742             340.00    -5280.00
04743             300.00    -5520.00
04744             360.00    -5360.00
04745             380.00    -5520.00
04746             320.00    -5520.00
04747             380.00    -5600.00
04748             440.00    -5440.00
04749             400.00    -5600.00
04750             400.00    -5680.00
04751             480.00    -5600.00
04752             460.00    -5600.00
04753             420.00    -5760.00
04754             520.00    -5680.00
04755             540.00    -5680.00
04756             500.00    -5760.00
04757             540.00    -5760.00
04758             560.00    -5680.00
04759             560.00    -5680.00
04760             580.00    -5760.00
04761             640.00    -5680.00
04762             660.00    -5680.00
04763             640.00    -5680.00
04764             700.00    -5680.00
04765             720.00    -5600.00
04766             700.00    -5680.00
04767             740.00    -5680.00
04768             800.00    -5600.00
04769             800.00    -5600.00
04770             780.00    -5600.00
04771             800.00    -5520.00
04772             840.00    -5520.00
04773             800.00    -5520.00
04774             860.00    -5520.00
04775             880.00    -5440.00
04776             880.00    -5440.00
04777             860.00    -5360.00
04778             880.00    -5360.00
04779             860.00    -5280.00
04780             860.00    -5280.00
04781             880.00    -5280.00
04782             900.00    -5280.00
04783             860.00    -5200.00
04784             860.00    -5040.00
04785             840.00    -5040.00
04786             840.00    -5040.00
04787             820.00    -4960.00
04788             820.00    -4880.00
04789             800.00    -4800.00
04790             780.00    -4880.00
04791             780.00    -4720.00
04792             740.00    -4720.00
04793             720.00    -4640.00
04794             720.00    -4560.00
04795             720.00    -4560.00
04796             660.00    -4400.00
04797             640.00    -4400.00
04798             640.00    -4320.00
04799             600.00    -4240.00
04800             580.00    -4160.00
04801             560.00    -4080.00
04802             540.00    -4000.00
04803             520.00    -3920.00
04804             480.00    -3920.00
04805             480.00    -3760.00
04806             440.00    -3680.00
04807             460.00    -3680.00
04808             400.00    -3440.00
04809             380.00    -3440.00
04810             380.00    -3360.00
04811             340.00    -3280.00
04812             340.00    -3200.00
04813             320.00    -3040.00
04814             320.00    -2960.00
04815             300.00    -2880.00
04816             300.00    -2800.00
04817             260.00    -2720.00
04818             240.00    -2640.00
04819             240.00    -2480.00
04820             240.00    -2400.00
04821             220.00    -2320.00
04822             220.00    -2160.00
04823             220.00    -2160.00
04824             180.00    -2000.00
04825             180.00    -2000.00
04826             160.00    -1840.00
04827             160.00    -1760.00
04828             160.00    -1680.00
04829             160.00    -1520.00
04830             140.00    -1440.00
04831             140.00    -1280.00
04832             140.00    -1200.00
04833             120.00    -1120.00
04834             140.00    -1040.00
04835             140.00     -880.00
04836             120.00     -800.00
04837             100.00     -720.00
04838              80.00     -560.00
04839              80.00     -400.00
04840              80.00     -320.00
04841              80.00     -240.00
04842              80.00     -160.00
04843              80.00      -80.00
04844              80.00       80.00
04845              60.00      160.00
04846              80.00      320.00
04847             140.00      400.00
04848             160.00      400.00
04849             140.00      560.00
04850              80.00      720.00
04851              60.00      720.00
04852              80.00      800.00
04853             220.00     1040.00
04854             800.00     1200.00
04855             920.00     1280.00
04856             -20.00     1440.00
04857           -1860.00     1200.00
04858           -1540.00     1360.00
04859             860.00     1840.00
04860             940.00     1920.00
04861            -620.00     1680.00
04862             160.00     1680.00
04863             940.00     2080.00
04864            -500.00     2640.00
04865            -520.00     1840.00
04866             380.00     2000.00
04867             100.00     3040.00
04868             -40.00     2400.00
04869            -180.00     2000.00
04870            -220.00     3280.00
04871             220.00     3040.00
04872            -380.00     2320.00
04873            -160.00     3280.00
04874             520.00     3360.00
04875            -420.00     2960.00
04876            -360.00     3280.00
04877             420.00     3360.00
04878            -240.00     3520.00
04879            -320.00     3600.00
04880              80.00     3440.00
04881            -140.00     4000.00
04882            -140.00     3760.00
04883            -220.00     3600.00
04884            -120.00     4400.00
04885             -60.00     4000.00
04886            -220.00     3920.00
04887             -40.00     4400.00
04888            -120.00     4240.00
04889            -260.00     4320.00
04890            -140.00     4400.00
04891            -160.00     4560.00
04892            -160.00     4560.00
04893            -220.00     4480.00
04894            -180.00     4880.00
04895            -180.00     4800.00
04896            -260.00     4720.00
04897            -120.00     5040.00
04898            -180.00     4960.00
04899            -320.00     4960.00
04900            -240.00     5040.00
04901            -240.00     5200.00
04902            -260.00     5200.00
04903            -240.00     5200.00
04904            -260.00     5360.00
04905            -320.00     5280.00
04906            -320.00     5200.00
04907            -240.00     5520.00
04908            -260.00     5440.00
04909            -340.00     5440.00
04910            -320.00     5520.00
04911            -340.00     5600.00
04912            -400.00     5600.00
04913            -380.00     5520.00
04914            -340.00     5680.00
04915            -400.00     5680.00
04916            -400.00     5600.00
04917            -380.00     5680.00
04918            -440.00     5760.00
04919            -500.00     5680.00
04920            -460.00     5760.00
04921            -420.00     5760.00
04922            -500.00     5840.00
04923            -540.00     5760.00
04924            -500.00     5840.00
04925            -560.00     5840.00
04926            -580.00     5680.00
04927            -560.00     5840.00
04928            -580.00     5840.00
04929            -640.00     5760.00
04930            -640.00     5840.00
04931            -640.00     5840.00
04932            -720.00     5760.00
04933            -740.00     5680.00
04934            -720.00     5760.00
04935            -740.00     5760.00
04936            -780.00     5680.00
04937            -780.00     5680.00
04938            -800.00     5680.00
04939            -820.00     5680.00
04940            -860.00     5600.00
04941            -820.00     5600.00
04942            -880.00     5520.00
04943            -860.00     5520.00
04944            -840.00     5520.00
04945            -860.00     5520.00
04946            -880.00     5360.00
04947            -880.00     5360.00
04948            -860.00     5360.00
04949            -860.00     5280.00
04950            -880.00     5280.00
04951            -860.00     5280.00
04952            -880.00     5200.00
04953            -860.00     5200.00
04954            -820.00     5040.00
04955            -820.00     5120.00
04956            -800.00     4960.00
04957            -800.00     4960.00
04958            -740.00     4880.00
04959            -760.00     4800.00
04960            -740.00     4720.00
04961            -700.00     4640.00
04962            -700.00     4640.00
04963            -660.00     4560.00
04964            -640.00     4400.00
04965            -640.00     4400.00
04966            -620.00     4320.00
04967            -580.00     4240.00
04968            -540.00     4240.00
04969            -540.00     4080.00
04970            -540.00     4000.00
04971            -500.00     3920.00
04972            -480.00     3840.00
04973            -460.00     3760.00
04974            -420.00     3680.00
04975            -400.00     3600.00
04976            -380.00     3520.00
04977            -380.00     3440.00
04978            -360.00     3360.00
04979            -340.00     3280.00
04980            -340.00     3200.00
04981            -300.00     3120.00
04982            -300.00     3040.00
04983            -300.00     2960.00
04984            -260.00     2800.00
04985            -260.00     2720.00
04986            -240.00     2640.00
04987            -220.00     2480.00
04988            -220.00     2400.00
04989            -220.00     2320.00
04990            -200.00     2160.00
04991            -200.00     2160.00
04992            -180.00     2080.00
04993            -180.00     1840.00
04994            -180.00     1760.00
04995            -160.00     1760.00
04996            -140.00     1600.00
04997            -140.00     1520.00
04998            -160.00     1360.00
04999            -140.00     1360.00
05000            -100.00     1200.00
