Unit:(mV)
                     CH1         CH2
Frequency              ? 299.004 kHz
00001               0.00     -720.00
00002               0.00     -720.00
00003              20.00     -800.00
00004             220.00     -960.00
00005             700.00    -1120.00
00006             720.00    -1440.00
00007            -100.00    -1440.00
00008           -1400.00    -1440.00
00009           -1340.00    -1200.00
00010             460.00    -1760.00
00011             860.00    -1840.00
00012            -380.00    -1440.00
00013             140.00    -2160.00
00014             700.00    -2240.00
00015            -100.00    -1680.00
00016               0.00    -2320.00
00017              80.00    -2720.00
00018            -100.00    -2000.00
00019             440.00    -2320.00
00020             140.00    -3040.00
00021            -380.00    -2640.00
00022             260.00    -2560.00
00023             140.00    -3040.00
00024            -100.00    -2960.00
00025             420.00    -2880.00
00026              60.00    -3120.00
00027            -240.00    -3440.00
00028             380.00    -3360.00
00029             320.00    -3280.00
00030            -140.00    -3600.00
00031             140.00    -3760.00
00032             340.00    -3520.00
00033              80.00    -3760.00
00034               0.00    -4000.00
00035             220.00    -3920.00
00036             220.00    -3920.00
00037             160.00    -4240.00
00038             220.00    -4240.00
00039             180.00    -4080.00
00040             160.00    -4400.00
00041             220.00    -4560.00
00042             260.00    -4320.00
00043             240.00    -4560.00
00044             160.00    -4640.00
00045             240.00    -4640.00
00046             260.00    -4640.00
00047             220.00    -4800.00
00048             220.00    -4880.00
00049             300.00    -4880.00
00050             180.00    -4960.00
00051             220.00    -4960.00
00052             340.00    -5040.00
00053             380.00    -5120.00
00054             340.00    -5280.00
00055             340.00    -5200.00
00056             300.00    -5200.00
00057             220.00    -5280.00
00058             280.00    -5360.00
00059             380.00    -5360.00
00060             360.00    -5360.00
00061             380.00    -5440.00
00062             420.00    -5360.00
00063             380.00    -5520.00
00064             380.00    -5600.00
00065             460.00    -5520.00
00066             460.00    -5520.00
00067             420.00    -5600.00
00068             460.00    -5600.00
00069             460.00    -5600.00
00070             420.00    -5680.00
00071             480.00    -5680.00
00072             560.00    -5680.00
00073             560.00    -5680.00
00074             540.00    -5840.00
00075             620.00    -5680.00
00076             620.00    -5680.00
00077             600.00    -5680.00
00078             620.00    -5680.00
00079             640.00    -5680.00
00080             640.00    -5680.00
00081             660.00    -5680.00
00082             740.00    -5680.00
00083             780.00    -5680.00
00084             780.00    -5680.00
00085             800.00    -5600.00
00086             840.00    -5600.00
00087             800.00    -5600.00
00088             800.00    -5600.00
00089             820.00    -5600.00
00090             820.00    -5440.00
00091             860.00    -5520.00
00092             900.00    -5440.00
00093             940.00    -5440.00
00094             900.00    -5440.00
00095             900.00    -5360.00
00096             880.00    -5360.00
00097             880.00    -5280.00
00098             900.00    -5280.00
00099             900.00    -5280.00
00100             880.00    -5200.00
00101             900.00    -5200.00
00102             880.00    -5120.00
00103             880.00    -5040.00
00104             860.00    -4960.00
00105             860.00    -4960.00
00106             860.00    -4960.00
00107             820.00    -4880.00
00108             820.00    -4880.00
00109             800.00    -4720.00
00110             780.00    -4720.00
00111             740.00    -4560.00
00112             740.00    -4560.00
00113             720.00    -4560.00
00114             700.00    -4400.00
00115             660.00    -4400.00
00116             640.00    -4320.00
00117             620.00    -4240.00
00118             620.00    -4080.00
00119             580.00    -4080.00
00120             580.00    -4000.00
00121             540.00    -3920.00
00122             500.00    -3760.00
00123             480.00    -3760.00
00124             460.00    -3680.00
00125             460.00    -3600.00
00126             460.00    -3440.00
00127             420.00    -3440.00
00128             400.00    -3360.00
00129             380.00    -3280.00
00130             340.00    -3120.00
00131             320.00    -3040.00
00132             340.00    -2880.00
00133             320.00    -2880.00
00134             300.00    -2800.00
00135             280.00    -2720.00
00136             260.00    -2640.00
00137             260.00    -2480.00
00138             240.00    -2400.00
00139             240.00    -2320.00
00140             240.00    -2160.00
00141             220.00    -2160.00
00142             220.00    -2000.00
00143             180.00    -1920.00
00144             180.00    -1760.00
00145             180.00    -1760.00
00146             180.00    -1600.00
00147             160.00    -1440.00
00148             160.00    -1360.00
00149             140.00    -1280.00
00150             140.00    -1200.00
00151             120.00    -1040.00
00152             140.00     -960.00
00153             140.00     -880.00
00154             140.00     -720.00
00155             100.00     -640.00
00156             100.00     -560.00
00157             100.00     -320.00
00158              80.00     -240.00
00159              80.00     -240.00
00160              80.00     -160.00
00161              80.00        0.00
00162              80.00       80.00
00163              80.00      240.00
00164             100.00      400.00
00165             160.00      400.00
00166             140.00      480.00
00167             100.00      560.00
00168              60.00      720.00
00169              60.00      800.00
00170              60.00      880.00
00171             320.00     1040.00
00172             960.00     1200.00
00173             700.00     1440.00
00174            -660.00     1440.00
00175           -2020.00     1120.00
00176            -740.00     1600.00
00177            1360.00     1920.00
00178             240.00     1760.00
00179            -660.00     1760.00
00180             620.00     1680.00
00181             400.00     2320.00
00182            -760.00     2480.00
00183             -80.00     1760.00
00184             320.00     2400.00
00185             -20.00     3040.00
00186             -20.00     2080.00
00187            -260.00     2400.00
00188            -100.00     3520.00
00189             160.00     2640.00
00190            -460.00     2480.00
00191              60.00     3520.00
00192             320.00     3040.00
00193            -580.00     2960.00
00194            -100.00     3520.00
00195             300.00     3360.00
00196            -420.00     3440.00
00197            -180.00     3440.00
00198              60.00     3600.00
00199            -160.00     3920.00
00200            -160.00     3520.00
00201            -180.00     3920.00
00202             -80.00     4240.00
00203            -160.00     3840.00
00204            -160.00     4160.00
00205             -80.00     4320.00
00206            -260.00     4240.00
00207            -160.00     4400.00
00208            -120.00     4400.00
00209            -240.00     4560.00
00210            -160.00     4480.00
00211            -240.00     4560.00
00212            -240.00     4880.00
00213            -220.00     4640.00
00214            -220.00     4880.00
00215            -160.00     4960.00
00216            -300.00     4880.00
00217            -260.00     5040.00
00218            -220.00     5040.00
00219            -300.00     5120.00
00220            -260.00     5200.00
00221            -240.00     5280.00
00222            -320.00     5360.00
00223            -340.00     5200.00
00224            -300.00     5360.00
00225            -260.00     5520.00
00226            -380.00     5360.00
00227            -380.00     5440.00
00228            -320.00     5520.00
00229            -380.00     5520.00
00230            -400.00     5520.00
00231            -380.00     5600.00
00232            -400.00     5680.00
00233            -420.00     5600.00
00234            -420.00     5680.00
00235            -420.00     5680.00
00236            -500.00     5680.00
00237            -500.00     5680.00
00238            -420.00     5840.00
00239            -480.00     5760.00
00240            -560.00     5680.00
00241            -540.00     5760.00
00242            -540.00     5840.00
00243            -620.00     5760.00
00244            -580.00     5760.00
00245            -580.00     5840.00
00246            -660.00     5760.00
00247            -700.00     5680.00
00248            -700.00     5840.00
00249            -720.00     5840.00
00250            -760.00     5680.00
00251            -740.00     5680.00
00252            -720.00     5760.00
00253            -740.00     5680.00
00254            -820.00     5680.00
00255            -820.00     5680.00
00256            -880.00     5680.00
00257            -880.00     5600.00
00258            -860.00     5600.00
00259            -860.00     5520.00
00260            -880.00     5520.00
00261            -880.00     5520.00
00262            -880.00     5440.00
00263            -880.00     5520.00
00264            -900.00     5360.00
00265            -900.00     5360.00
00266            -900.00     5360.00
00267            -900.00     5360.00
00268            -880.00     5280.00
00269            -880.00     5200.00
00270            -880.00     5200.00
00271            -860.00     5040.00
00272            -820.00     5040.00
00273            -820.00     4960.00
00274            -800.00     4880.00
00275            -800.00     4880.00
00276            -800.00     4880.00
00277            -780.00     4800.00
00278            -760.00     4800.00
00279            -720.00     4640.00
00280            -700.00     4560.00
00281            -660.00     4480.00
00282            -660.00     4400.00
00283            -640.00     4320.00
00284            -620.00     4240.00
00285            -580.00     4240.00
00286            -580.00     4080.00
00287            -580.00     4000.00
00288            -540.00     3920.00
00289            -500.00     3920.00
00290            -480.00     3840.00
00291            -460.00     3760.00
00292            -460.00     3680.00
00293            -440.00     3600.00
00294            -420.00     3440.00
00295            -400.00     3360.00
00296            -380.00     3280.00
00297            -360.00     3280.00
00298            -340.00     3120.00
00299            -320.00     3040.00
00300            -320.00     2960.00
00301            -300.00     2800.00
00302            -280.00     2720.00
00303            -260.00     2720.00
00304            -260.00     2560.00
00305            -240.00     2480.00
00306            -240.00     2400.00
00307            -240.00     2320.00
00308            -220.00     2240.00
00309            -220.00     2080.00
00310            -200.00     2000.00
00311            -200.00     1840.00
00312            -180.00     1760.00
00313            -180.00     1760.00
00314            -160.00     1520.00
00315            -160.00     1440.00
00316            -160.00     1360.00
00317            -140.00     1200.00
00318            -140.00     1120.00
00319            -100.00     1040.00
00320            -100.00      880.00
00321            -100.00      800.00
00322            -100.00      720.00
00323            -100.00      560.00
00324             -80.00      480.00
00325             -80.00      400.00
00326             -80.00      320.00
00327             -60.00      160.00
00328             -60.00       80.00
00329             -60.00        0.00
00330             -60.00      -80.00
00331               0.00     -240.00
00332              20.00     -320.00
00333              60.00     -400.00
00334              20.00     -480.00
00335               0.00     -640.00
00336               0.00     -720.00
00337               0.00     -880.00
00338              80.00     -880.00
00339             480.00    -1040.00
00340             840.00    -1360.00
00341             380.00    -1440.00
00342            -800.00    -1440.00
00343           -1680.00    -1360.00
00344            -360.00    -1440.00
00345            1100.00    -1920.00
00346              20.00    -1600.00
00347            -260.00    -1760.00
00348             580.00    -2480.00
00349             220.00    -1760.00
00350            -100.00    -1840.00
00351             140.00    -2720.00
00352             -60.00    -2320.00
00353             260.00    -2000.00
00354             400.00    -2800.00
00355            -300.00    -2800.00
00356             -20.00    -2400.00
00357             300.00    -2880.00
00358            -120.00    -3040.00
00359             200.00    -2880.00
00360             340.00    -3040.00
00361            -240.00    -3280.00
00362             100.00    -3440.00
00363             480.00    -3280.00
00364              20.00    -3440.00
00365             -60.00    -3760.00
00366             300.00    -3600.00
00367             240.00    -3600.00
00368               0.00    -3920.00
00369             140.00    -4000.00
00370             240.00    -3840.00
00371             180.00    -4000.00
00372             180.00    -4240.00
00373             220.00    -4080.00
00374             160.00    -4240.00
00375             180.00    -4560.00
00376             240.00    -4400.00
00377             220.00    -4400.00
00378             140.00    -4640.00
00379             160.00    -4720.00
00380             280.00    -4640.00
00381             240.00    -4800.00
00382             220.00    -4880.00
00383             300.00    -4880.00
00384             260.00    -4880.00
00385             220.00    -4960.00
00386             280.00    -5040.00
00387             300.00    -5040.00
00388             280.00    -5200.00
00389             300.00    -5200.00
00390             320.00    -5200.00
00391             260.00    -5280.00
00392             300.00    -5360.00
00393             400.00    -5360.00
00394             380.00    -5360.00
00395             360.00    -5440.00
00396             380.00    -5440.00
00397             380.00    -5360.00
00398             360.00    -5600.00
00399             400.00    -5520.00
00400             460.00    -5520.00
00401             440.00    -5600.00
00402             460.00    -5680.00
00403             500.00    -5600.00
00404             480.00    -5600.00
00405             460.00    -5680.00
00406             540.00    -5680.00
00407             560.00    -5600.00
00408             540.00    -5680.00
00409             560.00    -5680.00
00410             600.00    -5680.00
00411             600.00    -5680.00
00412             600.00    -5760.00
00413             640.00    -5680.00
00414             700.00    -5680.00
00415             700.00    -5680.00
00416             720.00    -5760.00
00417             740.00    -5680.00
00418             740.00    -5680.00
00419             780.00    -5680.00
00420             820.00    -5680.00
00421             820.00    -5600.00
00422             820.00    -5600.00
00423             860.00    -5600.00
00424             840.00    -5600.00
00425             860.00    -5520.00
00426             880.00    -5440.00
00427             880.00    -5440.00
00428             880.00    -5440.00
00429             900.00    -5360.00
00430             900.00    -5360.00
00431             880.00    -5360.00
00432             900.00    -5280.00
00433             900.00    -5280.00
00434             900.00    -5280.00
00435             900.00    -5200.00
00436             900.00    -5200.00
00437             860.00    -5040.00
00438             820.00    -5040.00
00439             860.00    -4960.00
00440             860.00    -4880.00
00441             860.00    -4880.00
00442             820.00    -4880.00
00443             800.00    -4720.00
00444             780.00    -4720.00
00445             780.00    -4640.00
00446             760.00    -4560.00
00447             740.00    -4480.00
00448             700.00    -4400.00
00449             660.00    -4400.00
00450             620.00    -4320.00
00451             600.00    -4240.00
00452             620.00    -4240.00
00453             640.00    -4160.00
00454             620.00    -4000.00
00455             540.00    -4000.00
00456             520.00    -3840.00
00457             480.00    -3760.00
00458             480.00    -3760.00
00459             460.00    -3680.00
00460             440.00    -3600.00
00461             420.00    -3440.00
00462             400.00    -3360.00
00463             400.00    -3280.00
00464             380.00    -3200.00
00465             340.00    -3120.00
00466             320.00    -2960.00
00467             320.00    -2880.00
00468             300.00    -2800.00
00469             300.00    -2720.00
00470             300.00    -2640.00
00471             260.00    -2560.00
00472             240.00    -2480.00
00473             260.00    -2400.00
00474             260.00    -2240.00
00475             240.00    -2160.00
00476             220.00    -2000.00
00477             220.00    -2000.00
00478             180.00    -1840.00
00479             180.00    -1760.00
00480             180.00    -1680.00
00481             180.00    -1520.00
00482             160.00    -1440.00
00483             160.00    -1360.00
00484             140.00    -1200.00
00485             140.00    -1120.00
00486             140.00    -1040.00
00487             140.00     -960.00
00488             140.00     -800.00
00489             140.00     -720.00
00490             100.00     -560.00
00491              80.00     -480.00
00492             100.00     -320.00
00493              80.00     -240.00
00494              80.00     -160.00
00495             100.00      -80.00
00496              80.00       80.00
00497              80.00      240.00
00498              80.00      320.00
00499             140.00      400.00
00500             140.00      480.00
00501             100.00      560.00
00502              80.00      640.00
00503              60.00      800.00
00504              60.00      880.00
00505             140.00      960.00
00506             720.00     1120.00
00507             940.00     1360.00
00508              60.00     1440.00
00509           -1680.00     1200.00
00510           -1620.00     1360.00
00511             580.00     1840.00
00512            1140.00     1840.00
00513            -580.00     1680.00
00514             -60.00     1680.00
00515             940.00     2000.00
00516            -460.00     2640.00
00517            -560.00     2080.00
00518             400.00     1920.00
00519              20.00     2960.00
00520             -20.00     2560.00
00521            -120.00     1920.00
00522            -380.00     3200.00
00523             180.00     3280.00
00524            -180.00     2240.00
00525            -340.00     3120.00
00526             460.00     3440.00
00527            -220.00     2800.00
00528            -540.00     3280.00
00529             340.00     3440.00
00530            -100.00     3440.00
00531            -400.00     3600.00
00532              60.00     3440.00
00533            -100.00     3920.00
00534            -180.00     3760.00
00535            -180.00     3600.00
00536            -140.00     4240.00
00537             -80.00     4000.00
00538            -180.00     3920.00
00539             -80.00     4320.00
00540            -180.00     4240.00
00541            -260.00     4400.00
00542            -140.00     4400.00
00543            -240.00     4480.00
00544            -160.00     4560.00
00545            -180.00     4560.00
00546            -260.00     4800.00
00547            -220.00     4800.00
00548            -220.00     4720.00
00549            -160.00     5040.00
00550            -200.00     4880.00
00551            -320.00     4960.00
00552            -260.00     5040.00
00553            -260.00     5040.00
00554            -260.00     5200.00
00555            -240.00     5200.00
00556            -300.00     5360.00
00557            -340.00     5200.00
00558            -320.00     5280.00
00559            -260.00     5520.00
00560            -320.00     5440.00
00561            -380.00     5360.00
00562            -320.00     5520.00
00563            -340.00     5520.00
00564            -420.00     5520.00
00565            -400.00     5520.00
00566            -400.00     5680.00
00567            -460.00     5600.00
00568            -420.00     5600.00
00569            -380.00     5680.00
00570            -460.00     5680.00
00571            -500.00     5680.00
00572            -480.00     5680.00
00573            -480.00     5840.00
00574            -580.00     5760.00
00575            -580.00     5760.00
00576            -540.00     5760.00
00577            -540.00     5840.00
00578            -620.00     5760.00
00579            -620.00     5840.00
00580            -640.00     5840.00
00581            -700.00     5680.00
00582            -660.00     5840.00
00583            -700.00     5840.00
00584            -740.00     5680.00
00585            -780.00     5680.00
00586            -740.00     5760.00
00587            -740.00     5760.00
00588            -780.00     5680.00
00589            -800.00     5600.00
00590            -820.00     5680.00
00591            -880.00     5600.00
00592            -880.00     5600.00
00593            -860.00     5600.00
00594            -900.00     5520.00
00595            -880.00     5520.00
00596            -880.00     5520.00
00597            -900.00     5520.00
00598            -880.00     5440.00
00599            -880.00     5360.00
00600            -860.00     5360.00
00601            -900.00     5280.00
00602            -900.00     5360.00
00603            -880.00     5280.00
00604            -880.00     5200.00
00605            -880.00     5120.00
00606            -860.00     5040.00
00607            -820.00     4960.00
00608            -820.00     4960.00
00609            -800.00     4880.00
00610            -800.00     4880.00
00611            -780.00     4880.00
00612            -740.00     4720.00
00613            -740.00     4640.00
00614            -720.00     4640.00
00615            -680.00     4560.00
00616            -660.00     4480.00
00617            -660.00     4400.00
00618            -640.00     4320.00
00619            -580.00     4240.00
00620            -580.00     4160.00
00621            -560.00     4080.00
00622            -540.00     4000.00
00623            -500.00     4000.00
00624            -520.00     3840.00
00625            -480.00     3760.00
00626            -460.00     3680.00
00627            -460.00     3680.00
00628            -420.00     3600.00
00629            -380.00     3440.00
00630            -380.00     3360.00
00631            -380.00     3280.00
00632            -340.00     3120.00
00633            -340.00     3040.00
00634            -320.00     3040.00
00635            -320.00     2880.00
00636            -320.00     2800.00
00637            -300.00     2720.00
00638            -260.00     2640.00
00639            -260.00     2480.00
00640            -240.00     2400.00
00641            -240.00     2320.00
00642            -220.00     2240.00
00643            -220.00     2160.00
00644            -220.00     2000.00
00645            -200.00     1920.00
00646            -180.00     1840.00
00647            -180.00     1760.00
00648            -160.00     1680.00
00649            -160.00     1520.00
00650            -160.00     1440.00
00651            -140.00     1360.00
00652            -100.00     1200.00
00653            -100.00     1120.00
00654            -100.00      880.00
00655            -120.00      880.00
00656            -120.00      800.00
00657            -100.00      720.00
00658            -100.00      560.00
00659             -80.00      400.00
00660             -80.00      320.00
00661             -60.00      160.00
00662             -60.00      160.00
00663             -60.00       80.00
00664             -20.00      -80.00
00665             -20.00     -240.00
00666              20.00     -240.00
00667              60.00     -320.00
00668              20.00     -480.00
00669              20.00     -560.00
00670               0.00     -720.00
00671               0.00     -720.00
00672              20.00     -880.00
00673             260.00     -960.00
00674             760.00    -1200.00
00675             660.00    -1440.00
00676            -220.00    -1440.00
00677           -1520.00    -1440.00
00678           -1140.00    -1280.00
00679             700.00    -1680.00
00680             720.00    -1840.00
00681            -400.00    -1440.00
00682             200.00    -2320.00
00683             620.00    -2160.00
00684            -140.00    -1600.00
00685              20.00    -2400.00
00686              80.00    -2640.00
00687             -20.00    -2000.00
00688             480.00    -2480.00
00689              60.00    -3040.00
00690            -340.00    -2560.00
00691             300.00    -2640.00
00692              60.00    -3120.00
00693             -80.00    -2960.00
00694             460.00    -2880.00
00695               0.00    -3120.00
00696            -160.00    -3440.00
00697             420.00    -3360.00
00698             260.00    -3280.00
00699            -160.00    -3680.00
00700             160.00    -3760.00
00701             340.00    -3520.00
00702              60.00    -3760.00
00703              20.00    -4000.00
00704             220.00    -3920.00
00705             180.00    -3920.00
00706             160.00    -4240.00
00707             220.00    -4240.00
00708             160.00    -4080.00
00709             180.00    -4400.00
00710             220.00    -4480.00
00711             240.00    -4400.00
00712             220.00    -4560.00
00713             140.00    -4640.00
00714             240.00    -4560.00
00715             300.00    -4720.00
00716             220.00    -4880.00
00717             240.00    -4880.00
00718             300.00    -4800.00
00719             220.00    -4960.00
00720             260.00    -5040.00
00721             320.00    -4960.00
00722             300.00    -5120.00
00723             280.00    -5200.00
00724             340.00    -5200.00
00725             300.00    -5200.00
00726             240.00    -5280.00
00727             360.00    -5280.00
00728             400.00    -5280.00
00729             340.00    -5360.00
00730             340.00    -5440.00
00731             400.00    -5360.00
00732             380.00    -5440.00
00733             400.00    -5520.00
00734             420.00    -5440.00
00735             420.00    -5600.00
00736             420.00    -5600.00
00737             480.00    -5680.00
00738             500.00    -5600.00
00739             500.00    -5680.00
00740             500.00    -5680.00
00741             540.00    -5600.00
00742             540.00    -5680.00
00743             540.00    -5760.00
00744             620.00    -5680.00
00745             620.00    -5680.00
00746             600.00    -5840.00
00747             640.00    -5680.00
00748             700.00    -5680.00
00749             660.00    -5760.00
00750             720.00    -5760.00
00751             740.00    -5680.00
00752             720.00    -5680.00
00753             720.00    -5680.00
00754             800.00    -5680.00
00755             820.00    -5600.00
00756             800.00    -5600.00
00757             820.00    -5600.00
00758             820.00    -5520.00
00759             860.00    -5520.00
00760             860.00    -5440.00
00761             900.00    -5520.00
00762             880.00    -5440.00
00763             900.00    -5440.00
00764             900.00    -5440.00
00765             900.00    -5360.00
00766             880.00    -5360.00
00767             900.00    -5280.00
00768             940.00    -5280.00
00769             900.00    -5280.00
00770             880.00    -5200.00
00771             880.00    -5040.00
00772             860.00    -5040.00
00773             840.00    -5040.00
00774             860.00    -4960.00
00775             860.00    -4880.00
00776             820.00    -4880.00
00777             800.00    -4800.00
00778             800.00    -4720.00
00779             760.00    -4720.00
00780             740.00    -4640.00
00781             740.00    -4560.00
00782             720.00    -4560.00
00783             680.00    -4400.00
00784             660.00    -4320.00
00785             640.00    -4240.00
00786             620.00    -4240.00
00787             580.00    -4080.00
00788             580.00    -4080.00
00789             540.00    -4000.00
00790             540.00    -3920.00
00791             500.00    -3840.00
00792             480.00    -3760.00
00793             480.00    -3600.00
00794             460.00    -3600.00
00795             440.00    -3440.00
00796             400.00    -3440.00
00797             400.00    -3360.00
00798             380.00    -3120.00
00799             340.00    -3120.00
00800             340.00    -3040.00
00801             340.00    -2960.00
00802             320.00    -2880.00
00803             300.00    -2800.00
00804             300.00    -2640.00
00805             300.00    -2560.00
00806             240.00    -2480.00
00807             260.00    -2400.00
00808             260.00    -2240.00
00809             240.00    -2160.00
00810             220.00    -2080.00
00811             220.00    -2000.00
00812             220.00    -1920.00
00813             180.00    -1760.00
00814             180.00    -1680.00
00815             200.00    -1600.00
00816             180.00    -1520.00
00817             160.00    -1360.00
00818             140.00    -1280.00
00819             140.00    -1200.00
00820             140.00    -1040.00
00821             160.00     -960.00
00822             140.00     -800.00
00823             100.00     -720.00
00824              80.00     -640.00
00825             100.00     -560.00
00826             100.00     -400.00
00827             100.00     -320.00
00828             100.00     -160.00
00829              80.00      -80.00
00830              60.00        0.00
00831              60.00      160.00
00832              80.00      240.00
00833             140.00      320.00
00834             140.00      400.00
00835             140.00      480.00
00836              80.00      560.00
00837              80.00      720.00
00838              60.00      800.00
00839              80.00      880.00
00840             400.00     1040.00
00841             940.00     1360.00
00842             580.00     1360.00
00843            -880.00     1360.00
00844           -2020.00     1120.00
00845            -480.00     1680.00
00846            1420.00     1920.00
00847               0.00     1760.00
00848            -580.00     1760.00
00849             780.00     1680.00
00850             220.00     2400.00
00851            -780.00     2400.00
00852              60.00     1680.00
00853             280.00     2480.00
00854             -20.00     2960.00
00855               0.00     2000.00
00856            -320.00     2480.00
00857             -60.00     3440.00
00858              80.00     2480.00
00859            -480.00     2640.00
00860             160.00     3600.00
00861             240.00     2960.00
00862            -620.00     3040.00
00863              60.00     3520.00
00864             240.00     3280.00
00865            -440.00     3520.00
00866            -100.00     3440.00
00867              20.00     3680.00
00868            -160.00     4000.00
00869            -160.00     3440.00
00870            -180.00     4000.00
00871             -80.00     4240.00
00872            -140.00     3840.00
00873            -140.00     4160.00
00874             -80.00     4240.00
00875            -260.00     4240.00
00876            -160.00     4480.00
00877            -140.00     4400.00
00878            -240.00     4560.00
00879            -180.00     4560.00
00880            -240.00     4640.00
00881            -240.00     4880.00
00882            -220.00     4640.00
00883            -180.00     4880.00
00884            -160.00     5040.00
00885            -300.00     4880.00
00886            -300.00     5040.00
00887            -240.00     5040.00
00888            -300.00     5200.00
00889            -260.00     5120.00
00890            -240.00     5280.00
00891            -320.00     5360.00
00892            -380.00     5200.00
00893            -300.00     5360.00
00894            -260.00     5520.00
00895            -380.00     5360.00
00896            -340.00     5440.00
00897            -320.00     5600.00
00898            -400.00     5520.00
00899            -420.00     5520.00
00900            -380.00     5600.00
00901            -420.00     5600.00
00902            -440.00     5600.00
00903            -400.00     5600.00
00904            -420.00     5760.00
00905            -500.00     5680.00
00906            -500.00     5680.00
00907            -460.00     5760.00
00908            -540.00     5760.00
00909            -580.00     5760.00
00910            -560.00     5760.00
00911            -560.00     5840.00
00912            -620.00     5840.00
00913            -580.00     5760.00
00914            -620.00     5840.00
00915            -660.00     5760.00
00916            -680.00     5760.00
00917            -660.00     5760.00
00918            -700.00     5680.00
00919            -780.00     5680.00
00920            -760.00     5680.00
00921            -740.00     5680.00
00922            -800.00     5760.00
00923            -820.00     5680.00
00924            -820.00     5680.00
00925            -820.00     5680.00
00926            -880.00     5600.00
00927            -860.00     5600.00
00928            -860.00     5600.00
00929            -880.00     5520.00
00930            -880.00     5520.00
00931            -880.00     5520.00
00932            -920.00     5360.00
00933            -900.00     5440.00
00934            -880.00     5360.00
00935            -880.00     5360.00
00936            -880.00     5360.00
00937            -860.00     5280.00
00938            -880.00     5200.00
00939            -900.00     5200.00
00940            -860.00     5040.00
00941            -820.00     5040.00
00942            -820.00     4960.00
00943            -800.00     4880.00
00944            -800.00     4880.00
00945            -800.00     4800.00
00946            -780.00     4800.00
00947            -740.00     4720.00
00948            -720.00     4640.00
00949            -700.00     4560.00
00950            -660.00     4480.00
00951            -660.00     4400.00
00952            -640.00     4320.00
00953            -640.00     4240.00
00954            -580.00     4240.00
00955            -560.00     4160.00
00956            -560.00     4080.00
00957            -520.00     4000.00
00958            -500.00     3920.00
00959            -480.00     3760.00
00960            -480.00     3760.00
00961            -440.00     3680.00
00962            -440.00     3600.00
00963            -400.00     3440.00
00964            -400.00     3360.00
00965            -380.00     3280.00
00966            -380.00     3120.00
00967            -340.00     3120.00
00968            -320.00     3040.00
00969            -320.00     2960.00
00970            -300.00     2800.00
00971            -280.00     2720.00
00972            -280.00     2640.00
00973            -260.00     2560.00
00974            -260.00     2480.00
00975            -260.00     2320.00
00976            -240.00     2320.00
00977            -220.00     2160.00
00978            -220.00     2080.00
00979            -200.00     1920.00
00980            -220.00     1840.00
00981            -160.00     1760.00
00982            -160.00     1680.00
00983            -160.00     1520.00
00984            -160.00     1440.00
00985            -160.00     1360.00
00986            -140.00     1280.00
00987            -120.00     1200.00
00988            -100.00     1040.00
00989            -100.00      880.00
00990            -100.00      800.00
00991            -100.00      720.00
00992             -80.00      560.00
00993            -100.00      480.00
00994             -80.00      400.00
00995             -80.00      240.00
00996             -60.00      160.00
00997             -40.00       80.00
00998             -60.00      -80.00
00999             -40.00     -160.00
01000               0.00     -240.00
01001              60.00     -320.00
01002              60.00     -400.00
01003              20.00     -560.00
01004              20.00     -640.00
01005              20.00     -720.00
01006              20.00     -800.00
01007             100.00     -960.00
01008             540.00    -1040.00
01009             820.00    -1360.00
01010             260.00    -1440.00
01011            -960.00    -1440.00
01012           -1620.00    -1360.00
01013            -140.00    -1520.00
01014            1120.00    -1840.00
01015            -120.00    -1520.00
01016            -160.00    -1920.00
01017             640.00    -2400.00
01018             140.00    -1680.00
01019             -80.00    -2000.00
01020             140.00    -2800.00
01021            -100.00    -2320.00
01022             320.00    -2080.00
01023             320.00    -2960.00
01024            -340.00    -2800.00
01025              60.00    -2400.00
01026             240.00    -2880.00
01027            -140.00    -3040.00
01028             260.00    -2880.00
01029             260.00    -3040.00
01030            -260.00    -3280.00
01031             160.00    -3440.00
01032             420.00    -3280.00
01033             -60.00    -3440.00
01034             -20.00    -3760.00
01035             320.00    -3600.00
01036             180.00    -3680.00
01037             -20.00    -4000.00
01038             140.00    -3920.00
01039             240.00    -3920.00
01040             160.00    -4080.00
01041             160.00    -4240.00
01042             220.00    -4160.00
01043             160.00    -4240.00
01044             180.00    -4480.00
01045             240.00    -4400.00
01046             240.00    -4400.00
01047             160.00    -4640.00
01048             160.00    -4640.00
01049             300.00    -4560.00
01050             240.00    -4800.00
01051             220.00    -4880.00
01052             300.00    -4880.00
01053             260.00    -4960.00
01054             220.00    -5040.00
01055             300.00    -4960.00
01056             320.00    -5040.00
01057             260.00    -5200.00
01058             320.00    -5200.00
01059             340.00    -5200.00
01060             300.00    -5280.00
01061             320.00    -5360.00
01062             400.00    -5360.00
01063             340.00    -5360.00
01064             320.00    -5440.00
01065             380.00    -5440.00
01066             380.00    -5440.00
01067             380.00    -5520.00
01068             420.00    -5520.00
01069             460.00    -5440.00
01070             420.00    -5600.00
01071             460.00    -5680.00
01072             480.00    -5600.00
01073             480.00    -5600.00
01074             500.00    -5680.00
01075             540.00    -5680.00
01076             560.00    -5680.00
01077             540.00    -5680.00
01078             560.00    -5760.00
01079             620.00    -5680.00
01080             620.00    -5680.00
01081             620.00    -5680.00
01082             660.00    -5680.00
01083             700.00    -5680.00
01084             660.00    -5680.00
01085             720.00    -5680.00
01086             740.00    -5680.00
01087             740.00    -5680.00
01088             780.00    -5680.00
01089             820.00    -5600.00
01090             800.00    -5600.00
01091             800.00    -5600.00
01092             820.00    -5440.00
01093             860.00    -5600.00
01094             860.00    -5440.00
01095             880.00    -5520.00
01096             880.00    -5440.00
01097             880.00    -5440.00
01098             880.00    -5440.00
01099             880.00    -5360.00
01100             880.00    -5360.00
01101             880.00    -5360.00
01102             900.00    -5280.00
01103             940.00    -5200.00
01104             880.00    -5200.00
01105             880.00    -5200.00
01106             860.00    -5040.00
01107             860.00    -5040.00
01108             860.00    -5040.00
01109             860.00    -4880.00
01110             820.00    -4880.00
01111             800.00    -4800.00
01112             780.00    -4720.00
01113             780.00    -4720.00
01114             760.00    -4640.00
01115             740.00    -4560.00
01116             740.00    -4560.00
01117             700.00    -4480.00
01118             660.00    -4400.00
01119             640.00    -4320.00
01120             620.00    -4240.00
01121             620.00    -4240.00
01122             580.00    -4080.00
01123             580.00    -4080.00
01124             540.00    -3920.00
01125             520.00    -3920.00
01126             500.00    -3760.00
01127             480.00    -3680.00
01128             480.00    -3600.00
01129             460.00    -3520.00
01130             420.00    -3440.00
01131             400.00    -3360.00
01132             380.00    -3280.00
01133             380.00    -3200.00
01134             340.00    -3040.00
01135             340.00    -2960.00
01136             340.00    -2880.00
01137             320.00    -2800.00
01138             300.00    -2720.00
01139             300.00    -2640.00
01140             260.00    -2480.00
01141             260.00    -2400.00
01142             240.00    -2320.00
01143             240.00    -2240.00
01144             220.00    -2160.00
01145             220.00    -2000.00
01146             200.00    -1920.00
01147             180.00    -1760.00
01148             180.00    -1680.00
01149             180.00    -1680.00
01150             160.00    -1520.00
01151             160.00    -1440.00
01152             140.00    -1280.00
01153             140.00    -1200.00
01154             140.00    -1120.00
01155             140.00    -1040.00
01156             140.00     -880.00
01157             100.00     -800.00
01158             100.00     -720.00
01159              80.00     -560.00
01160              80.00     -480.00
01161             100.00     -320.00
01162              80.00     -240.00
01163              80.00     -160.00
01164              80.00      -80.00
01165              60.00       80.00
01166              60.00      240.00
01167              80.00      240.00
01168             140.00      400.00
01169             140.00      480.00
01170             100.00      560.00
01171              80.00      720.00
01172              60.00      800.00
01173              60.00      800.00
01174             180.00      960.00
01175             780.00     1200.00
01176             880.00     1360.00
01177            -100.00     1440.00
01178           -1820.00     1200.00
01179           -1440.00     1440.00
01180             860.00     1840.00
01181             940.00     1840.00
01182            -660.00     1760.00
01183             120.00     1680.00
01184             820.00     2080.00
01185            -580.00     2640.00
01186            -440.00     1920.00
01187             420.00     2000.00
01188               0.00     3040.00
01189               0.00     2400.00
01190            -140.00     2000.00
01191            -320.00     3280.00
01192             220.00     3040.00
01193            -260.00     2240.00
01194            -260.00     3280.00
01195             480.00     3280.00
01196            -340.00     2800.00
01197            -420.00     3440.00
01198             380.00     3360.00
01199            -220.00     3440.00
01200            -340.00     3600.00
01201              80.00     3520.00
01202            -100.00     3920.00
01203            -160.00     3760.00
01204            -180.00     3680.00
01205            -140.00     4240.00
01206            -100.00     4000.00
01207            -180.00     4000.00
01208             -80.00     4320.00
01209            -220.00     4160.00
01210            -240.00     4400.00
01211            -100.00     4400.00
01212            -240.00     4560.00
01213            -160.00     4560.00
01214            -220.00     4560.00
01215            -260.00     4880.00
01216            -220.00     4720.00
01217            -220.00     4800.00
01218            -160.00     5040.00
01219            -240.00     4880.00
01220            -320.00     4960.00
01221            -240.00     5040.00
01222            -260.00     5040.00
01223            -260.00     5200.00
01224            -240.00     5200.00
01225            -300.00     5360.00
01226            -380.00     5280.00
01227            -340.00     5280.00
01228            -260.00     5520.00
01229            -320.00     5360.00
01230            -380.00     5440.00
01231            -320.00     5520.00
01232            -380.00     5600.00
01233            -420.00     5520.00
01234            -400.00     5520.00
01235            -400.00     5680.00
01236            -420.00     5600.00
01237            -420.00     5600.00
01238            -400.00     5760.00
01239            -480.00     5680.00
01240            -540.00     5680.00
01241            -480.00     5680.00
01242            -460.00     5840.00
01243            -540.00     5760.00
01244            -560.00     5760.00
01245            -540.00     5840.00
01246            -600.00     5840.00
01247            -620.00     5840.00
01248            -580.00     5840.00
01249            -640.00     5840.00
01250            -680.00     5760.00
01251            -660.00     5760.00
01252            -660.00     5840.00
01253            -740.00     5760.00
01254            -780.00     5680.00
01255            -740.00     5760.00
01256            -780.00     5680.00
01257            -800.00     5680.00
01258            -800.00     5680.00
01259            -820.00     5680.00
01260            -860.00     5600.00
01261            -860.00     5680.00
01262            -860.00     5600.00
01263            -880.00     5520.00
01264            -880.00     5520.00
01265            -860.00     5520.00
01266            -880.00     5520.00
01267            -900.00     5360.00
01268            -900.00     5360.00
01269            -880.00     5360.00
01270            -880.00     5360.00
01271            -880.00     5280.00
01272            -880.00     5200.00
01273            -900.00     5200.00
01274            -880.00     5040.00
01275            -820.00     5040.00
01276            -820.00     5040.00
01277            -820.00     4880.00
01278            -800.00     4880.00
01279            -800.00     4880.00
01280            -780.00     4800.00
01281            -780.00     4720.00
01282            -740.00     4640.00
01283            -720.00     4640.00
01284            -660.00     4560.00
01285            -660.00     4400.00
01286            -660.00     4400.00
01287            -640.00     4240.00
01288            -580.00     4240.00
01289            -580.00     4240.00
01290            -560.00     4080.00
01291            -560.00     4000.00
01292            -540.00     3920.00
01293            -500.00     3920.00
01294            -480.00     3760.00
01295            -480.00     3680.00
01296            -460.00     3600.00
01297            -400.00     3520.00
01298            -380.00     3440.00
01299            -380.00     3280.00
01300            -380.00     3280.00
01301            -380.00     3120.00
01302            -340.00     3040.00
01303            -320.00     2960.00
01304            -300.00     2880.00
01305            -300.00     2800.00
01306            -300.00     2640.00
01307            -260.00     2640.00
01308            -260.00     2480.00
01309            -240.00     2400.00
01310            -240.00     2320.00
01311            -240.00     2240.00
01312            -220.00     2160.00
01313            -220.00     2000.00
01314            -200.00     1840.00
01315            -180.00     1760.00
01316            -160.00     1680.00
01317            -140.00     1600.00
01318            -140.00     1520.00
01319            -160.00     1360.00
01320            -100.00     1280.00
01321            -120.00     1200.00
01322            -100.00     1120.00
01323            -120.00      960.00
01324            -140.00      880.00
01325            -140.00      800.00
01326            -100.00      640.00
01327            -100.00      560.00
01328             -80.00      400.00
01329             -60.00      320.00
01330             -60.00      240.00
01331             -40.00      160.00
01332             -20.00       80.00
01333             -40.00      -80.00
01334               0.00     -240.00
01335              40.00     -240.00
01336              60.00     -320.00
01337              20.00     -480.00
01338               0.00     -560.00
01339               0.00     -720.00
01340               0.00     -720.00
01341              60.00     -800.00
01342             320.00     -960.00
01343             800.00    -1200.00
01344             620.00    -1360.00
01345            -380.00    -1360.00
01346           -1600.00    -1440.00
01347            -980.00    -1280.00
01348             820.00    -1840.00
01349             540.00    -1760.00
01350            -380.00    -1520.00
01351             320.00    -2320.00
01352             560.00    -2000.00
01353            -160.00    -1680.00
01354              60.00    -2480.00
01355              60.00    -2640.00
01356              20.00    -2000.00
01357             460.00    -2480.00
01358             -80.00    -3040.00
01359            -300.00    -2480.00
01360             300.00    -2720.00
01361               0.00    -3040.00
01362               0.00    -2880.00
01363             460.00    -2960.00
01364             -80.00    -3120.00
01365            -140.00    -3360.00
01366             440.00    -3280.00
01367             180.00    -3360.00
01368            -160.00    -3680.00
01369             220.00    -3680.00
01370             320.00    -3520.00
01371              20.00    -3760.00
01372              60.00    -4000.00
01373             220.00    -3920.00
01374             180.00    -4000.00
01375             160.00    -4240.00
01376             220.00    -4240.00
01377             160.00    -4080.00
01378             160.00    -4400.00
01379             220.00    -4400.00
01380             240.00    -4320.00
01381             180.00    -4640.00
01382             140.00    -4640.00
01383             240.00    -4560.00
01384             280.00    -4720.00
01385             220.00    -4880.00
01386             280.00    -4880.00
01387             320.00    -4880.00
01388             240.00    -4960.00
01389             260.00    -5040.00
01390             320.00    -4960.00
01391             300.00    -5200.00
01392             300.00    -5200.00
01393             320.00    -5200.00
01394             300.00    -5280.00
01395             300.00    -5280.00
01396             400.00    -5280.00
01397             420.00    -5360.00
01398             380.00    -5440.00
01399             380.00    -5440.00
01400             380.00    -5440.00
01401             340.00    -5520.00
01402             380.00    -5600.00
01403             460.00    -5440.00
01404             480.00    -5520.00
01405             440.00    -5600.00
01406             480.00    -5600.00
01407             480.00    -5600.00
01408             500.00    -5680.00
01409             540.00    -5680.00
01410             580.00    -5680.00
01411             560.00    -5600.00
01412             560.00    -5680.00
01413             580.00    -5680.00
01414             580.00    -5680.00
01415             560.00    -5680.00
01416             620.00    -5680.00
01417             700.00    -5680.00
01418             720.00    -5680.00
01419             740.00    -5680.00
01420             800.00    -5680.00
01421             780.00    -5680.00
01422             740.00    -5680.00
01423             780.00    -5680.00
01424             780.00    -5600.00
01425             780.00    -5680.00
01426             800.00    -5520.00
01427             860.00    -5440.00
01428             880.00    -5600.00
01429             900.00    -5440.00
01430             940.00    -5440.00
01431             900.00    -5440.00
01432             880.00    -5440.00
01433             880.00    -5360.00
01434             880.00    -5360.00
01435             860.00    -5280.00
01436             880.00    -5280.00
01437             900.00    -5280.00
01438             900.00    -5200.00
01439             880.00    -5200.00
01440             880.00    -5040.00
01441             860.00    -5040.00
01442             860.00    -5040.00
01443             860.00    -4960.00
01444             860.00    -4880.00
01445             820.00    -4880.00
01446             780.00    -4720.00
01447             740.00    -4720.00
01448             740.00    -4640.00
01449             760.00    -4560.00
01450             780.00    -4560.00
01451             780.00    -4400.00
01452             720.00    -4400.00
01453             660.00    -4320.00
01454             620.00    -4240.00
01455             580.00    -4160.00
01456             540.00    -4080.00
01457             560.00    -4000.00
01458             540.00    -4000.00
01459             540.00    -3920.00
01460             540.00    -3760.00
01461             520.00    -3760.00
01462             500.00    -3680.00
01463             460.00    -3600.00
01464             460.00    -3440.00
01465             400.00    -3440.00
01466             380.00    -3360.00
01467             380.00    -3280.00
01468             380.00    -3120.00
01469             360.00    -3040.00
01470             340.00    -2880.00
01471             320.00    -2800.00
01472             300.00    -2720.00
01473             280.00    -2640.00
01474             260.00    -2640.00
01475             260.00    -2480.00
01476             260.00    -2320.00
01477             240.00    -2240.00
01478             220.00    -2160.00
01479             220.00    -2080.00
01480             220.00    -2000.00
01481             220.00    -1840.00
01482             180.00    -1760.00
01483             160.00    -1680.00
01484             200.00    -1520.00
01485             180.00    -1440.00
01486             160.00    -1360.00
01487             140.00    -1200.00
01488             100.00    -1120.00
01489             100.00    -1040.00
01490             120.00     -960.00
01491             120.00     -800.00
01492             140.00     -800.00
01493             120.00     -640.00
01494             100.00     -480.00
01495              80.00     -320.00
01496              60.00     -240.00
01497              60.00     -160.00
01498              60.00      -80.00
01499              60.00        0.00
01500             100.00      160.00
01501             100.00      240.00
01502             140.00      320.00
01503             100.00      400.00
01504              80.00      480.00
01505              60.00      560.00
01506              80.00      720.00
01507              60.00      800.00
01508             100.00      880.00
01509             480.00     1120.00
01510             960.00     1280.00
01511             420.00     1360.00
01512           -1120.00     1360.00
01513           -1980.00     1200.00
01514            -180.00     1680.00
01515            1440.00     2000.00
01516            -160.00     1760.00
01517            -460.00     1760.00
01518             900.00     1680.00
01519               0.00     2480.00
01520            -780.00     2320.00
01521             160.00     1680.00
01522             220.00     2640.00
01523               0.00     2960.00
01524               0.00     1840.00
01525            -340.00     2720.00
01526              40.00     3440.00
01527              20.00     2400.00
01528            -480.00     2720.00
01529             280.00     3600.00
01530             160.00     2960.00
01531            -640.00     3120.00
01532             140.00     3520.00
01533             160.00     3360.00
01534            -460.00     3600.00
01535             -60.00     3440.00
01536               0.00     3680.00
01537            -180.00     3920.00
01538            -160.00     3520.00
01539            -180.00     4080.00
01540             -80.00     4240.00
01541            -180.00     3840.00
01542            -140.00     4240.00
01543            -100.00     4320.00
01544            -260.00     4240.00
01545            -140.00     4400.00
01546            -160.00     4400.00
01547            -220.00     4560.00
01548            -160.00     4560.00
01549            -260.00     4720.00
01550            -220.00     4880.00
01551            -220.00     4640.00
01552            -180.00     4880.00
01553            -180.00     4960.00
01554            -320.00     4880.00
01555            -300.00     5040.00
01556            -240.00     5040.00
01557            -300.00     5200.00
01558            -260.00     5200.00
01559            -260.00     5200.00
01560            -340.00     5280.00
01561            -380.00     5200.00
01562            -300.00     5360.00
01563            -300.00     5440.00
01564            -380.00     5360.00
01565            -340.00     5520.00
01566            -320.00     5520.00
01567            -420.00     5520.00
01568            -420.00     5520.00
01569            -380.00     5600.00
01570            -420.00     5680.00
01571            -420.00     5600.00
01572            -400.00     5680.00
01573            -420.00     5680.00
01574            -540.00     5680.00
01575            -520.00     5680.00
01576            -460.00     5840.00
01577            -500.00     5840.00
01578            -560.00     5680.00
01579            -500.00     5760.00
01580            -540.00     5840.00
01581            -620.00     5840.00
01582            -600.00     5760.00
01583            -620.00     5840.00
01584            -660.00     5840.00
01585            -700.00     5760.00
01586            -660.00     5840.00
01587            -720.00     5760.00
01588            -740.00     5680.00
01589            -740.00     5680.00
01590            -760.00     5760.00
01591            -780.00     5680.00
01592            -800.00     5680.00
01593            -820.00     5680.00
01594            -820.00     5600.00
01595            -860.00     5680.00
01596            -840.00     5600.00
01597            -880.00     5600.00
01598            -900.00     5520.00
01599            -880.00     5520.00
01600            -880.00     5520.00
01601            -900.00     5440.00
01602            -880.00     5360.00
01603            -880.00     5360.00
01604            -880.00     5280.00
01605            -880.00     5360.00
01606            -880.00     5280.00
01607            -900.00     5200.00
01608            -900.00     5200.00
01609            -860.00     5120.00
01610            -820.00     5040.00
01611            -820.00     4960.00
01612            -800.00     4880.00
01613            -800.00     4960.00
01614            -780.00     4880.00
01615            -780.00     4720.00
01616            -720.00     4640.00
01617            -740.00     4640.00
01618            -740.00     4560.00
01619            -720.00     4480.00
01620            -700.00     4400.00
01621            -640.00     4400.00
01622            -580.00     4240.00
01623            -560.00     4240.00
01624            -580.00     4080.00
01625            -580.00     4000.00
01626            -580.00     4000.00
01627            -520.00     3920.00
01628            -480.00     3840.00
01629            -440.00     3760.00
01630            -460.00     3680.00
01631            -440.00     3600.00
01632            -420.00     3440.00
01633            -400.00     3360.00
01634            -400.00     3280.00
01635            -380.00     3120.00
01636            -340.00     3120.00
01637            -320.00     3040.00
01638            -320.00     2960.00
01639            -300.00     2800.00
01640            -320.00     2720.00
01641            -300.00     2640.00
01642            -260.00     2640.00
01643            -240.00     2480.00
01644            -240.00     2320.00
01645            -200.00     2240.00
01646            -220.00     2160.00
01647            -220.00     2080.00
01648            -220.00     2000.00
01649            -220.00     1840.00
01650            -160.00     1680.00
01651            -160.00     1600.00
01652            -160.00     1520.00
01653            -160.00     1440.00
01654            -160.00     1360.00
01655            -140.00     1200.00
01656            -120.00     1120.00
01657            -100.00     1040.00
01658            -100.00      880.00
01659            -100.00      720.00
01660            -100.00      720.00
01661            -100.00      560.00
01662            -100.00      480.00
01663             -80.00      400.00
01664             -80.00      240.00
01665             -60.00      160.00
01666             -20.00       80.00
01667             -20.00        0.00
01668             -20.00     -160.00
01669              20.00     -240.00
01670              60.00     -320.00
01671              60.00     -400.00
01672              20.00     -560.00
01673              20.00     -640.00
01674               0.00     -720.00
01675              20.00     -800.00
01676             160.00     -880.00
01677             620.00    -1040.00
01678             800.00    -1360.00
01679             140.00    -1360.00
01680           -1120.00    -1440.00
01681           -1540.00    -1200.00
01682              80.00    -1520.00
01683            1060.00    -1920.00
01684            -240.00    -1440.00
01685            -100.00    -2000.00
01686             660.00    -2400.00
01687               0.00    -1680.00
01688             -80.00    -2080.00
01689             140.00    -2800.00
01690            -100.00    -2160.00
01691             380.00    -2160.00
01692             260.00    -2960.00
01693            -400.00    -2640.00
01694             140.00    -2480.00
01695             220.00    -3040.00
01696            -160.00    -2960.00
01697             320.00    -2960.00
01698             200.00    -3120.00
01699            -260.00    -3280.00
01700             260.00    -3360.00
01701             400.00    -3280.00
01702            -100.00    -3600.00
01703              20.00    -3760.00
01704             320.00    -3600.00
01705             160.00    -3680.00
01706               0.00    -4000.00
01707             180.00    -3920.00
01708             240.00    -3840.00
01709             160.00    -4160.00
01710             180.00    -4240.00
01711             160.00    -4080.00
01712             140.00    -4240.00
01713             220.00    -4560.00
01714             300.00    -4400.00
01715             220.00    -4400.00
01716              80.00    -4720.00
01717             180.00    -4640.00
01718             340.00    -4640.00
01719             260.00    -4880.00
01720             240.00    -4880.00
01721             280.00    -4880.00
01722             220.00    -4880.00
01723             180.00    -4960.00
01724             300.00    -4960.00
01725             320.00    -5040.00
01726             300.00    -5200.00
01727             320.00    -5040.00
01728             320.00    -5120.00
01729             320.00    -5280.00
01730             340.00    -5360.00
01731             400.00    -5280.00
01732             320.00    -5360.00
01733             340.00    -5360.00
01734             380.00    -5360.00
01735             380.00    -5520.00
01736             400.00    -5520.00
01737             460.00    -5520.00
01738             480.00    -5440.00
01739             440.00    -5680.00
01740             460.00    -5680.00
01741             480.00    -5600.00
01742             480.00    -5600.00
01743             540.00    -5680.00
01744             600.00    -5680.00
01745             580.00    -5680.00
01746             480.00    -5760.00
01747             520.00    -5680.00
01748             560.00    -5680.00
01749             580.00    -5680.00
01750             640.00    -5680.00
01751             700.00    -5680.00
01752             700.00    -5600.00
01753             660.00    -5760.00
01754             700.00    -5680.00
01755             740.00    -5680.00
01756             720.00    -5680.00
01757             800.00    -5680.00
01758             840.00    -5600.00
01759             820.00    -5600.00
01760             780.00    -5600.00
01761             800.00    -5440.00
01762             820.00    -5520.00
01763             860.00    -5440.00
01764             900.00    -5440.00
01765             900.00    -5440.00
01766             900.00    -5360.00
01767             860.00    -5440.00
01768             860.00    -5360.00
01769             860.00    -5280.00
01770             880.00    -5280.00
01771             960.00    -5200.00
01772             940.00    -5200.00
01773             880.00    -5200.00
01774             860.00    -5120.00
01775             860.00    -5040.00
01776             840.00    -5040.00
01777             880.00    -5040.00
01778             880.00    -4880.00
01779             860.00    -4880.00
01780             800.00    -4800.00
01781             780.00    -4720.00
01782             740.00    -4640.00
01783             740.00    -4640.00
01784             740.00    -4560.00
01785             740.00    -4480.00
01786             720.00    -4400.00
01787             680.00    -4400.00
01788             640.00    -4320.00
01789             600.00    -4160.00
01790             580.00    -4160.00
01791             580.00    -4080.00
01792             580.00    -4000.00
01793             560.00    -3920.00
01794             540.00    -3920.00
01795             500.00    -3760.00
01796             460.00    -3680.00
01797             460.00    -3600.00
01798             420.00    -3440.00
01799             420.00    -3440.00
01800             400.00    -3280.00
01801             380.00    -3280.00
01802             360.00    -3120.00
01803             340.00    -3040.00
01804             320.00    -2960.00
01805             320.00    -2880.00
01806             320.00    -2800.00
01807             300.00    -2720.00
01808             260.00    -2640.00
01809             260.00    -2480.00
01810             260.00    -2400.00
01811             240.00    -2320.00
01812             220.00    -2160.00
01813             200.00    -2080.00
01814             220.00    -2080.00
01815             200.00    -1840.00
01816             220.00    -1760.00
01817             200.00    -1680.00
01818             180.00    -1600.00
01819             160.00    -1520.00
01820             140.00    -1360.00
01821             140.00    -1360.00
01822             140.00    -1200.00
01823             140.00    -1120.00
01824             140.00    -1040.00
01825             140.00     -880.00
01826             100.00     -800.00
01827              80.00     -640.00
01828              80.00     -560.00
01829             100.00     -400.00
01830             100.00     -240.00
01831             100.00     -240.00
01832              80.00      -80.00
01833              60.00        0.00
01834              60.00       80.00
01835              60.00      160.00
01836             100.00      320.00
01837             160.00      400.00
01838             140.00      480.00
01839             120.00      560.00
01840              60.00      720.00
01841              60.00      800.00
01842              60.00      880.00
01843             240.00     1040.00
01844             860.00     1280.00
01845             820.00     1360.00
01846            -260.00     1440.00
01847           -1900.00     1200.00
01848           -1200.00     1440.00
01849            1060.00     1840.00
01850             700.00     1760.00
01851            -700.00     1760.00
01852             320.00     1680.00
01853             720.00     2160.00
01854            -660.00     2640.00
01855            -300.00     1840.00
01856             420.00     2160.00
01857             -20.00     3120.00
01858              20.00     2320.00
01859            -180.00     2080.00
01860            -260.00     3360.00
01861             220.00     2880.00
01862            -340.00     2320.00
01863            -160.00     3440.00
01864             480.00     3200.00
01865            -420.00     2800.00
01866            -320.00     3440.00
01867             340.00     3360.00
01868            -300.00     3440.00
01869            -260.00     3520.00
01870              80.00     3520.00
01871            -120.00     4000.00
01872            -180.00     3680.00
01873            -180.00     3760.00
01874            -100.00     4320.00
01875            -100.00     3920.00
01876            -180.00     4000.00
01877             -60.00     4400.00
01878            -240.00     4240.00
01879            -220.00     4400.00
01880            -100.00     4400.00
01881            -240.00     4560.00
01882            -160.00     4560.00
01883            -240.00     4560.00
01884            -260.00     4880.00
01885            -240.00     4640.00
01886            -220.00     4800.00
01887            -160.00     5040.00
01888            -260.00     4880.00
01889            -320.00     4960.00
01890            -240.00     5040.00
01891            -260.00     5040.00
01892            -260.00     5200.00
01893            -240.00     5200.00
01894            -300.00     5360.00
01895            -400.00     5200.00
01896            -340.00     5360.00
01897            -260.00     5520.00
01898            -340.00     5360.00
01899            -380.00     5360.00
01900            -320.00     5520.00
01901            -400.00     5520.00
01902            -420.00     5600.00
01903            -380.00     5520.00
01904            -400.00     5680.00
01905            -420.00     5600.00
01906            -400.00     5680.00
01907            -400.00     5680.00
01908            -500.00     5680.00
01909            -500.00     5680.00
01910            -460.00     5840.00
01911            -480.00     5840.00
01912            -560.00     5760.00
01913            -560.00     5760.00
01914            -540.00     5760.00
01915            -600.00     5840.00
01916            -600.00     5760.00
01917            -580.00     5840.00
01918            -640.00     5840.00
01919            -700.00     5760.00
01920            -660.00     5760.00
01921            -680.00     5840.00
01922            -740.00     5680.00
01923            -780.00     5760.00
01924            -740.00     5760.00
01925            -760.00     5760.00
01926            -800.00     5680.00
01927            -800.00     5680.00
01928            -800.00     5680.00
01929            -820.00     5600.00
01930            -860.00     5680.00
01931            -860.00     5600.00
01932            -880.00     5520.00
01933            -880.00     5520.00
01934            -860.00     5520.00
01935            -880.00     5520.00
01936            -900.00     5360.00
01937            -880.00     5360.00
01938            -880.00     5360.00
01939            -880.00     5280.00
01940            -900.00     5280.00
01941            -880.00     5200.00
01942            -900.00     5200.00
01943            -880.00     5120.00
01944            -820.00     5040.00
01945            -820.00     4960.00
01946            -820.00     4880.00
01947            -800.00     4880.00
01948            -800.00     4880.00
01949            -800.00     4800.00
01950            -780.00     4720.00
01951            -740.00     4640.00
01952            -720.00     4560.00
01953            -720.00     4560.00
01954            -680.00     4400.00
01955            -660.00     4400.00
01956            -640.00     4240.00
01957            -580.00     4240.00
01958            -560.00     4240.00
01959            -560.00     4080.00
01960            -560.00     4000.00
01961            -500.00     3920.00
01962            -500.00     3840.00
01963            -480.00     3760.00
01964            -460.00     3680.00
01965            -460.00     3600.00
01966            -420.00     3440.00
01967            -400.00     3440.00
01968            -400.00     3360.00
01969            -380.00     3120.00
01970            -340.00     3120.00
01971            -320.00     3120.00
01972            -320.00     2960.00
01973            -320.00     2880.00
01974            -300.00     2800.00
01975            -300.00     2640.00
01976            -260.00     2560.00
01977            -240.00     2480.00
01978            -220.00     2400.00
01979            -240.00     2320.00
01980            -220.00     2160.00
01981            -220.00     2080.00
01982            -220.00     2000.00
01983            -200.00     1920.00
01984            -180.00     1760.00
01985            -160.00     1680.00
01986            -160.00     1600.00
01987            -160.00     1440.00
01988            -140.00     1360.00
01989            -120.00     1280.00
01990            -140.00     1120.00
01991            -100.00     1040.00
01992            -100.00      960.00
01993            -100.00      880.00
01994            -120.00      800.00
01995             -80.00      720.00
01996             -80.00      560.00
01997             -80.00      400.00
01998             -80.00      400.00
01999             -60.00      240.00
02000             -60.00      160.00
02001             -60.00        0.00
02002             -60.00      -80.00
02003               0.00     -240.00
02004              60.00     -320.00
02005              60.00     -400.00
02006              20.00     -480.00
02007               0.00     -560.00
02008              20.00     -720.00
02009               0.00     -720.00
02010              60.00     -880.00
02011             380.00    -1040.00
02012             800.00    -1200.00
02013             540.00    -1440.00
02014            -540.00    -1440.00
02015           -1660.00    -1360.00
02016            -780.00    -1360.00
02017             960.00    -1840.00
02018             340.00    -1680.00
02019            -380.00    -1600.00
02020             420.00    -2400.00
02021             420.00    -2000.00
02022            -160.00    -1680.00
02023              80.00    -2560.00
02024               0.00    -2480.00
02025             100.00    -2000.00
02026             460.00    -2640.00
02027            -160.00    -2960.00
02028            -220.00    -2480.00
02029             300.00    -2800.00
02030             -60.00    -3040.00
02031              60.00    -2960.00
02032             420.00    -3040.00
02033            -140.00    -3280.00
02034             -20.00    -3360.00
02035             480.00    -3280.00
02036             140.00    -3360.00
02037            -120.00    -3760.00
02038             240.00    -3600.00
02039             320.00    -3600.00
02040               0.00    -3840.00
02041              80.00    -4000.00
02042             260.00    -3920.00
02043             180.00    -3920.00
02044             180.00    -4240.00
02045             220.00    -4160.00
02046             140.00    -4080.00
02047             160.00    -4480.00
02048             220.00    -4400.00
02049             260.00    -4320.00
02050             180.00    -4560.00
02051             160.00    -4720.00
02052             260.00    -4560.00
02053             260.00    -4720.00
02054             220.00    -4880.00
02055             280.00    -4880.00
02056             300.00    -4880.00
02057             220.00    -5040.00
02058             260.00    -4960.00
02059             320.00    -5040.00
02060             300.00    -5200.00
02061             320.00    -5200.00
02062             320.00    -5120.00
02063             260.00    -5200.00
02064             260.00    -5360.00
02065             380.00    -5360.00
02066             420.00    -5360.00
02067             380.00    -5440.00
02068             380.00    -5360.00
02069             380.00    -5360.00
02070             360.00    -5520.00
02071             380.00    -5520.00
02072             460.00    -5440.00
02073             460.00    -5520.00
02074             460.00    -5600.00
02075             480.00    -5600.00
02076             480.00    -5600.00
02077             460.00    -5600.00
02078             540.00    -5680.00
02079             560.00    -5600.00
02080             540.00    -5680.00
02081             540.00    -5760.00
02082             620.00    -5680.00
02083             600.00    -5680.00
02084             580.00    -5760.00
02085             640.00    -5680.00
02086             700.00    -5680.00
02087             660.00    -5760.00
02088             700.00    -5680.00
02089             720.00    -5680.00
02090             740.00    -5600.00
02091             760.00    -5680.00
02092             800.00    -5680.00
02093             800.00    -5680.00
02094             800.00    -5600.00
02095             820.00    -5600.00
02096             840.00    -5520.00
02097             860.00    -5440.00
02098             860.00    -5520.00
02099             880.00    -5440.00
02100             900.00    -5440.00
02101             900.00    -5440.00
02102             900.00    -5360.00
02103             880.00    -5360.00
02104             880.00    -5280.00
02105             880.00    -5280.00
02106             900.00    -5200.00
02107             900.00    -5200.00
02108             880.00    -5120.00
02109             860.00    -5040.00
02110             860.00    -4960.00
02111             860.00    -4960.00
02112             880.00    -4960.00
02113             860.00    -4880.00
02114             820.00    -4880.00
02115             800.00    -4720.00
02116             780.00    -4720.00
02117             760.00    -4640.00
02118             740.00    -4560.00
02119             720.00    -4560.00
02120             720.00    -4480.00
02121             700.00    -4400.00
02122             660.00    -4320.00
02123             640.00    -4240.00
02124             620.00    -4240.00
02125             600.00    -4080.00
02126             580.00    -4000.00
02127             560.00    -3920.00
02128             540.00    -3920.00
02129             540.00    -3760.00
02130             480.00    -3680.00
02131             460.00    -3680.00
02132             420.00    -3600.00
02133             460.00    -3440.00
02134             420.00    -3440.00
02135             400.00    -3280.00
02136             380.00    -3280.00
02137             320.00    -3120.00
02138             320.00    -2960.00
02139             320.00    -2880.00
02140             320.00    -2800.00
02141             300.00    -2720.00
02142             300.00    -2640.00
02143             260.00    -2560.00
02144             260.00    -2480.00
02145             240.00    -2400.00
02146             240.00    -2240.00
02147             220.00    -2160.00
02148             220.00    -2080.00
02149             200.00    -2000.00
02150             220.00    -1920.00
02151             180.00    -1680.00
02152             160.00    -1680.00
02153             160.00    -1520.00
02154             140.00    -1440.00
02155             140.00    -1360.00
02156             140.00    -1200.00
02157             140.00    -1120.00
02158             140.00    -1040.00
02159             160.00     -880.00
02160             140.00     -800.00
02161             100.00     -720.00
02162             100.00     -560.00
02163              80.00     -560.00
02164              80.00     -320.00
02165              80.00     -240.00
02166              80.00     -160.00
02167              80.00      -80.00
02168              60.00       80.00
02169              60.00      160.00
02170              80.00      240.00
02171             140.00      400.00
02172             160.00      480.00
02173             140.00      480.00
02174             100.00      560.00
02175              80.00      720.00
02176              60.00      800.00
02177              80.00      880.00
02178             560.00     1120.00
02179             980.00     1360.00
02180             340.00     1440.00
02181           -1280.00     1280.00
02182           -1860.00     1200.00
02183             100.00     1760.00
02184            1360.00     1840.00
02185            -380.00     1760.00
02186            -340.00     1760.00
02187             960.00     1840.00
02188            -180.00     2480.00
02189            -700.00     2320.00
02190             300.00     1760.00
02191             140.00     2800.00
02192             -20.00     2800.00
02193             -20.00     1840.00
02194            -380.00     2880.00
02195             140.00     3360.00
02196             -60.00     2320.00
02197            -460.00     2960.00
02198             340.00     3600.00
02199              20.00     2880.00
02200            -620.00     3280.00
02201             260.00     3440.00
02202              80.00     3280.00
02203            -460.00     3600.00
02204             -20.00     3440.00
02205             -60.00     3760.00
02206            -180.00     3920.00
02207            -160.00     3520.00
02208            -160.00     4160.00
02209             -80.00     4080.00
02210            -180.00     3840.00
02211            -100.00     4240.00
02212            -140.00     4320.00
02213            -300.00     4320.00
02214            -140.00     4400.00
02215            -180.00     4480.00
02216            -220.00     4640.00
02217            -160.00     4480.00
02218            -260.00     4720.00
02219            -220.00     4800.00
02220            -240.00     4640.00
02221            -180.00     4960.00
02222            -180.00     4880.00
02223            -340.00     4880.00
02224            -260.00     5040.00
02225            -260.00     5120.00
02226            -300.00     5200.00
02227            -240.00     5120.00
02228            -260.00     5280.00
02229            -340.00     5280.00
02230            -340.00     5200.00
02231            -260.00     5440.00
02232            -300.00     5520.00
02233            -380.00     5360.00
02234            -320.00     5520.00
02235            -320.00     5600.00
02236            -420.00     5600.00
02237            -420.00     5520.00
02238            -380.00     5600.00
02239            -420.00     5680.00
02240            -440.00     5600.00
02241            -380.00     5680.00
02242            -420.00     5680.00
02243            -540.00     5680.00
02244            -480.00     5680.00
02245            -460.00     5840.00
02246            -540.00     5760.00
02247            -560.00     5680.00
02248            -540.00     5840.00
02249            -580.00     5840.00
02250            -600.00     5680.00
02251            -580.00     5840.00
02252            -600.00     5840.00
02253            -660.00     5680.00
02254            -660.00     5840.00
02255            -640.00     5840.00
02256            -720.00     5760.00
02257            -780.00     5680.00
02258            -740.00     5680.00
02259            -780.00     5760.00
02260            -800.00     5680.00
02261            -780.00     5680.00
02262            -780.00     5680.00
02263            -820.00     5600.00
02264            -840.00     5600.00
02265            -860.00     5600.00
02266            -880.00     5600.00
02267            -880.00     5520.00
02268            -880.00     5520.00
02269            -900.00     5520.00
02270            -920.00     5440.00
02271            -900.00     5360.00
02272            -880.00     5360.00
02273            -880.00     5360.00
02274            -880.00     5200.00
02275            -880.00     5280.00
02276            -900.00     5200.00
02277            -880.00     5120.00
02278            -860.00     5040.00
02279            -820.00     5040.00
02280            -820.00     4960.00
02281            -820.00     4960.00
02282            -780.00     4880.00
02283            -800.00     4880.00
02284            -780.00     4720.00
02285            -740.00     4640.00
02286            -720.00     4640.00
02287            -720.00     4560.00
02288            -660.00     4560.00
02289            -660.00     4400.00
02290            -660.00     4320.00
02291            -620.00     4240.00
02292            -580.00     4160.00
02293            -560.00     4080.00
02294            -560.00     4000.00
02295            -540.00     3920.00
02296            -500.00     3840.00
02297            -480.00     3840.00
02298            -460.00     3680.00
02299            -440.00     3600.00
02300            -420.00     3520.00
02301            -400.00     3440.00
02302            -400.00     3360.00
02303            -400.00     3280.00
02304            -380.00     3120.00
02305            -320.00     3120.00
02306            -320.00     3040.00
02307            -320.00     2880.00
02308            -280.00     2800.00
02309            -280.00     2720.00
02310            -260.00     2640.00
02311            -240.00     2560.00
02312            -220.00     2400.00
02313            -240.00     2320.00
02314            -220.00     2240.00
02315            -200.00     2160.00
02316            -220.00     2000.00
02317            -220.00     2000.00
02318            -220.00     1840.00
02319            -160.00     1760.00
02320            -160.00     1600.00
02321            -160.00     1520.00
02322            -140.00     1440.00
02323            -140.00     1360.00
02324            -100.00     1200.00
02325            -100.00     1120.00
02326            -100.00     1040.00
02327            -100.00      880.00
02328            -100.00      800.00
02329            -100.00      720.00
02330            -100.00      560.00
02331            -100.00      480.00
02332             -80.00      400.00
02333             -60.00      320.00
02334             -40.00      160.00
02335             -60.00       80.00
02336             -60.00       80.00
02337             -20.00     -160.00
02338               0.00     -240.00
02339              60.00     -320.00
02340              60.00     -400.00
02341              20.00     -560.00
02342               0.00     -720.00
02343              20.00     -720.00
02344              20.00     -800.00
02345             180.00     -880.00
02346             660.00    -1040.00
02347             780.00    -1360.00
02348              20.00    -1440.00
02349           -1280.00    -1520.00
02350           -1460.00    -1280.00
02351             300.00    -1600.00
02352             960.00    -1840.00
02353            -320.00    -1440.00
02354               0.00    -2080.00
02355             700.00    -2320.00
02356             -80.00    -1600.00
02357             -20.00    -2160.00
02358             140.00    -2720.00
02359            -100.00    -2080.00
02360             420.00    -2240.00
02361             220.00    -3040.00
02362            -400.00    -2640.00
02363             220.00    -2560.00
02364             160.00    -3040.00
02365            -140.00    -2960.00
02366             400.00    -2960.00
02367             140.00    -3120.00
02368            -260.00    -3360.00
02369             320.00    -3360.00
02370             340.00    -3280.00
02371            -100.00    -3600.00
02372              80.00    -3760.00
02373             340.00    -3520.00
02374             140.00    -3680.00
02375               0.00    -4000.00
02376             220.00    -3920.00
02377             220.00    -3920.00
02378             160.00    -4160.00
02379             220.00    -4240.00
02380             180.00    -4080.00
02381             180.00    -4320.00
02382             220.00    -4560.00
02383             260.00    -4320.00
02384             220.00    -4480.00
02385             160.00    -4720.00
02386             220.00    -4640.00
02387             300.00    -4640.00
02388             220.00    -4800.00
02389             240.00    -4880.00
02390             320.00    -4800.00
02391             260.00    -4960.00
02392             220.00    -5040.00
02393             300.00    -4960.00
02394             300.00    -5040.00
02395             260.00    -5200.00
02396             320.00    -5200.00
02397             320.00    -5200.00
02398             300.00    -5280.00
02399             340.00    -5360.00
02400             400.00    -5360.00
02401             340.00    -5360.00
02402             360.00    -5440.00
02403             380.00    -5360.00
02404             380.00    -5440.00
02405             360.00    -5520.00
02406             420.00    -5520.00
02407             460.00    -5520.00
02408             460.00    -5600.00
02409             480.00    -5600.00
02410             500.00    -5600.00
02411             460.00    -5680.00
02412             480.00    -5680.00
02413             540.00    -5680.00
02414             560.00    -5680.00
02415             540.00    -5680.00
02416             580.00    -5680.00
02417             620.00    -5680.00
02418             580.00    -5680.00
02419             620.00    -5680.00
02420             680.00    -5600.00
02421             680.00    -5680.00
02422             700.00    -5760.00
02423             720.00    -5680.00
02424             720.00    -5600.00
02425             740.00    -5680.00
02426             780.00    -5600.00
02427             820.00    -5600.00
02428             820.00    -5600.00
02429             820.00    -5600.00
02430             860.00    -5520.00
02431             860.00    -5520.00
02432             840.00    -5440.00
02433             880.00    -5440.00
02434             900.00    -5440.00
02435             900.00    -5360.00
02436             900.00    -5440.00
02437             900.00    -5360.00
02438             900.00    -5360.00
02439             880.00    -5280.00
02440             920.00    -5280.00
02441             900.00    -5200.00
02442             900.00    -5200.00
02443             880.00    -5040.00
02444             860.00    -5040.00
02445             860.00    -4960.00
02446             860.00    -4960.00
02447             860.00    -4880.00
02448             860.00    -4880.00
02449             800.00    -4720.00
02450             800.00    -4720.00
02451             800.00    -4720.00
02452             760.00    -4640.00
02453             740.00    -4560.00
02454             720.00    -4560.00
02455             700.00    -4400.00
02456             680.00    -4320.00
02457             640.00    -4320.00
02458             620.00    -4160.00
02459             620.00    -4080.00
02460             620.00    -4000.00
02461             580.00    -3920.00
02462             540.00    -3920.00
02463             500.00    -3840.00
02464             480.00    -3680.00
02465             480.00    -3680.00
02466             460.00    -3600.00
02467             460.00    -3520.00
02468             400.00    -3440.00
02469             380.00    -3360.00
02470             380.00    -3200.00
02471             360.00    -3120.00
02472             340.00    -3040.00
02473             340.00    -2880.00
02474             320.00    -2880.00
02475             300.00    -2800.00
02476             300.00    -2640.00
02477             260.00    -2640.00
02478             300.00    -2480.00
02479             240.00    -2400.00
02480             240.00    -2400.00
02481             220.00    -2160.00
02482             220.00    -2160.00
02483             220.00    -2000.00
02484             180.00    -1840.00
02485             160.00    -1760.00
02486             180.00    -1680.00
02487             180.00    -1680.00
02488             160.00    -1440.00
02489             160.00    -1360.00
02490             160.00    -1200.00
02491             140.00    -1120.00
02492             140.00    -1040.00
02493             140.00    -1040.00
02494             140.00     -880.00
02495             100.00     -720.00
02496             100.00     -720.00
02497             100.00     -560.00
02498              80.00     -400.00
02499              80.00     -320.00
02500              80.00     -160.00
02501              80.00      -80.00
02502              80.00        0.00
02503              80.00       80.00
02504              60.00      240.00
02505             100.00      240.00
02506             140.00      400.00
02507             160.00      480.00
02508             140.00      560.00
02509              80.00      720.00
02510              20.00      800.00
02511              60.00      880.00
02512             300.00     1040.00
02513             900.00     1200.00
02514             740.00     1360.00
02515            -480.00     1360.00
02516           -1980.00     1200.00
02517            -960.00     1520.00
02518            1240.00     1840.00
02519             460.00     1760.00
02520            -660.00     1760.00
02521             520.00     1680.00
02522             560.00     2240.00
02523            -720.00     2480.00
02524            -180.00     1760.00
02525             340.00     2240.00
02526             -60.00     3040.00
02527              20.00     2160.00
02528            -200.00     2240.00
02529            -160.00     3440.00
02530             180.00     2800.00
02531            -420.00     2400.00
02532             -80.00     3440.00
02533             380.00     3120.00
02534            -520.00     2880.00
02535            -180.00     3520.00
02536             340.00     3280.00
02537            -340.00     3440.00
02538            -220.00     3600.00
02539              80.00     3520.00
02540            -160.00     3920.00
02541            -180.00     3600.00
02542            -220.00     3840.00
02543            -100.00     4240.00
02544            -120.00     3840.00
02545            -160.00     4080.00
02546             -60.00     4320.00
02547            -240.00     4240.00
02548            -200.00     4400.00
02549            -160.00     4400.00
02550            -240.00     4560.00
02551            -140.00     4560.00
02552            -220.00     4560.00
02553            -240.00     4880.00
02554            -240.00     4640.00
02555            -240.00     4800.00
02556            -160.00     4960.00
02557            -260.00     4880.00
02558            -320.00     5040.00
02559            -260.00     5120.00
02560            -300.00     5120.00
02561            -260.00     5200.00
02562            -220.00     5200.00
02563            -260.00     5280.00
02564            -380.00     5200.00
02565            -320.00     5280.00
02566            -260.00     5520.00
02567            -320.00     5360.00
02568            -340.00     5440.00
02569            -320.00     5520.00
02570            -380.00     5520.00
02571            -420.00     5600.00
02572            -380.00     5520.00
02573            -380.00     5680.00
02574            -420.00     5600.00
02575            -400.00     5600.00
02576            -420.00     5680.00
02577            -500.00     5680.00
02578            -500.00     5680.00
02579            -460.00     5760.00
02580            -480.00     5760.00
02581            -560.00     5680.00
02582            -560.00     5840.00
02583            -560.00     5840.00
02584            -620.00     5760.00
02585            -620.00     5680.00
02586            -580.00     5840.00
02587            -620.00     5760.00
02588            -660.00     5680.00
02589            -660.00     5840.00
02590            -700.00     5760.00
02591            -740.00     5680.00
02592            -760.00     5680.00
02593            -740.00     5760.00
02594            -780.00     5680.00
02595            -800.00     5680.00
02596            -800.00     5680.00
02597            -820.00     5680.00
02598            -860.00     5600.00
02599            -860.00     5680.00
02600            -860.00     5600.00
02601            -880.00     5520.00
02602            -880.00     5520.00
02603            -880.00     5520.00
02604            -900.00     5440.00
02605            -900.00     5360.00
02606            -900.00     5360.00
02607            -880.00     5360.00
02608            -880.00     5280.00
02609            -880.00     5280.00
02610            -880.00     5200.00
02611            -880.00     5200.00
02612            -860.00     5120.00
02613            -860.00     5040.00
02614            -860.00     4960.00
02615            -820.00     4880.00
02616            -800.00     4880.00
02617            -800.00     4880.00
02618            -780.00     4720.00
02619            -740.00     4720.00
02620            -740.00     4640.00
02621            -720.00     4560.00
02622            -680.00     4480.00
02623            -660.00     4400.00
02624            -660.00     4320.00
02625            -640.00     4240.00
02626            -580.00     4240.00
02627            -580.00     4080.00
02628            -560.00     4080.00
02629            -540.00     4000.00
02630            -500.00     3920.00
02631            -480.00     3760.00
02632            -460.00     3680.00
02633            -420.00     3680.00
02634            -440.00     3600.00
02635            -420.00     3440.00
02636            -400.00     3360.00
02637            -380.00     3280.00
02638            -360.00     3280.00
02639            -340.00     3120.00
02640            -320.00     3120.00
02641            -320.00     2960.00
02642            -300.00     2800.00
02643            -300.00     2800.00
02644            -280.00     2640.00
02645            -260.00     2640.00
02646            -240.00     2480.00
02647            -240.00     2400.00
02648            -220.00     2320.00
02649            -220.00     2160.00
02650            -200.00     2080.00
02651            -220.00     2000.00
02652            -180.00     1920.00
02653            -160.00     1760.00
02654            -160.00     1680.00
02655            -160.00     1600.00
02656            -140.00     1520.00
02657            -140.00     1360.00
02658            -100.00     1280.00
02659            -120.00     1120.00
02660            -100.00     1120.00
02661            -120.00      880.00
02662            -120.00      800.00
02663            -100.00      720.00
02664            -100.00      560.00
02665            -100.00      480.00
02666             -80.00      400.00
02667             -80.00      320.00
02668             -60.00      160.00
02669             -60.00       80.00
02670             -60.00      -80.00
02671             -60.00      -80.00
02672               0.00     -240.00
02673              60.00     -320.00
02674              60.00     -400.00
02675              20.00     -480.00
02676              20.00     -640.00
02677              20.00     -720.00
02678              20.00     -800.00
02679              80.00     -880.00
02680             420.00    -1040.00
02681             820.00    -1360.00
02682             460.00    -1440.00
02683            -700.00    -1440.00
02684           -1680.00    -1360.00
02685            -560.00    -1360.00
02686            1040.00    -1840.00
02687             160.00    -1680.00
02688            -320.00    -1680.00
02689             520.00    -2480.00
02690             320.00    -1840.00
02691            -140.00    -1760.00
02692             100.00    -2640.00
02693             -20.00    -2480.00
02694             180.00    -2000.00
02695             420.00    -2720.00
02696            -240.00    -2960.00
02697            -100.00    -2400.00
02698             300.00    -2800.00
02699            -100.00    -3040.00
02700             140.00    -2880.00
02701             400.00    -3040.00
02702            -180.00    -3280.00
02703              40.00    -3360.00
02704             480.00    -3280.00
02705              80.00    -3360.00
02706             -80.00    -3760.00
02707             300.00    -3600.00
02708             260.00    -3600.00
02709               0.00    -3920.00
02710             100.00    -4000.00
02711             260.00    -3840.00
02712             180.00    -4000.00
02713             180.00    -4320.00
02714             220.00    -4080.00
02715             160.00    -4240.00
02716             180.00    -4560.00
02717             240.00    -4400.00
02718             260.00    -4400.00
02719             180.00    -4640.00
02720             160.00    -4640.00
02721             300.00    -4560.00
02722             240.00    -4800.00
02723             220.00    -4800.00
02724             300.00    -4880.00
02725             300.00    -4880.00
02726             200.00    -4960.00
02727             240.00    -4960.00
02728             320.00    -5040.00
02729             300.00    -5200.00
02730             320.00    -5200.00
02731             340.00    -5200.00
02732             260.00    -5200.00
02733             260.00    -5360.00
02734             380.00    -5360.00
02735             400.00    -5280.00
02736             380.00    -5440.00
02737             380.00    -5360.00
02738             380.00    -5360.00
02739             360.00    -5520.00
02740             400.00    -5520.00
02741             460.00    -5520.00
02742             460.00    -5600.00
02743             420.00    -5680.00
02744             480.00    -5600.00
02745             480.00    -5600.00
02746             480.00    -5760.00
02747             540.00    -5680.00
02748             540.00    -5680.00
02749             540.00    -5680.00
02750             560.00    -5760.00
02751             620.00    -5680.00
02752             600.00    -5680.00
02753             620.00    -5680.00
02754             640.00    -5680.00
02755             700.00    -5680.00
02756             700.00    -5760.00
02757             720.00    -5680.00
02758             740.00    -5680.00
02759             740.00    -5600.00
02760             740.00    -5680.00
02761             800.00    -5600.00
02762             820.00    -5600.00
02763             820.00    -5600.00
02764             860.00    -5600.00
02765             860.00    -5600.00
02766             860.00    -5440.00
02767             880.00    -5600.00
02768             900.00    -5440.00
02769             900.00    -5440.00
02770             880.00    -5360.00
02771             900.00    -5360.00
02772             900.00    -5360.00
02773             880.00    -5280.00
02774             900.00    -5280.00
02775             920.00    -5200.00
02776             900.00    -5200.00
02777             880.00    -5120.00
02778             880.00    -5040.00
02779             860.00    -5040.00
02780             860.00    -4960.00
02781             860.00    -4960.00
02782             840.00    -4880.00
02783             800.00    -4880.00
02784             800.00    -4720.00
02785             780.00    -4640.00
02786             760.00    -4640.00
02787             740.00    -4560.00
02788             740.00    -4480.00
02789             720.00    -4480.00
02790             660.00    -4400.00
02791             660.00    -4320.00
02792             620.00    -4240.00
02793             600.00    -4160.00
02794             580.00    -4080.00
02795             580.00    -4000.00
02796             540.00    -4000.00
02797             520.00    -3920.00
02798             500.00    -3760.00
02799             480.00    -3760.00
02800             480.00    -3600.00
02801             460.00    -3520.00
02802             420.00    -3440.00
02803             400.00    -3360.00
02804             380.00    -3280.00
02805             340.00    -3280.00
02806             320.00    -3120.00
02807             320.00    -2960.00
02808             320.00    -2880.00
02809             320.00    -2800.00
02810             300.00    -2720.00
02811             300.00    -2640.00
02812             260.00    -2560.00
02813             240.00    -2480.00
02814             240.00    -2400.00
02815             220.00    -2240.00
02816             240.00    -2160.00
02817             220.00    -2000.00
02818             220.00    -2000.00
02819             180.00    -1840.00
02820             180.00    -1680.00
02821             180.00    -1680.00
02822             180.00    -1520.00
02823             160.00    -1440.00
02824             140.00    -1360.00
02825             140.00    -1200.00
02826             140.00    -1120.00
02827             140.00    -1040.00
02828             140.00     -880.00
02829             140.00     -800.00
02830             120.00     -720.00
02831             100.00     -560.00
02832             100.00     -480.00
02833              80.00     -400.00
02834              80.00     -240.00
02835             100.00     -160.00
02836              80.00      -80.00
02837              60.00       80.00
02838              80.00      160.00
02839              80.00      240.00
02840             140.00      320.00
02841             160.00      480.00
02842             140.00      560.00
02843              80.00      560.00
02844              60.00      720.00
02845              60.00      800.00
02846             140.00      960.00
02847             640.00     1120.00
02848             960.00     1360.00
02849             200.00     1440.00
02850           -1500.00     1360.00
02851           -1740.00     1200.00
02852             380.00     1760.00
02853            1260.00     1840.00
02854            -500.00     1680.00
02855            -180.00     1680.00
02856             960.00     1840.00
02857            -320.00     2560.00
02858            -640.00     2160.00
02859             340.00     1760.00
02860              60.00     2880.00
02861               0.00     2640.00
02862             -40.00     1840.00
02863            -340.00     3040.00
02864             180.00     3280.00
02865            -140.00     2240.00
02866            -420.00     3040.00
02867             400.00     3520.00
02868            -140.00     2800.00
02869            -580.00     3280.00
02870             320.00     3440.00
02871             -20.00     3360.00
02872            -420.00     3600.00
02873              40.00     3440.00
02874             -60.00     3920.00
02875            -180.00     3840.00
02876            -180.00     3600.00
02877            -160.00     4240.00
02878             -80.00     4000.00
02879            -220.00     3920.00
02880            -100.00     4240.00
02881            -160.00     4240.00
02882            -260.00     4320.00
02883            -120.00     4400.00
02884            -180.00     4400.00
02885            -200.00     4560.00
02886            -160.00     4480.00
02887            -260.00     4880.00
02888            -220.00     4720.00
02889            -240.00     4640.00
02890            -180.00     5040.00
02891            -220.00     4880.00
02892            -320.00     4960.00
02893            -240.00     5120.00
02894            -240.00     5040.00
02895            -260.00     5200.00
02896            -240.00     5200.00
02897            -260.00     5360.00
02898            -380.00     5280.00
02899            -340.00     5200.00
02900            -260.00     5360.00
02901            -300.00     5360.00
02902            -380.00     5360.00
02903            -320.00     5520.00
02904            -340.00     5520.00
02905            -420.00     5520.00
02906            -400.00     5520.00
02907            -380.00     5680.00
02908            -420.00     5600.00
02909            -420.00     5600.00
02910            -400.00     5760.00
02911            -460.00     5680.00
02912            -520.00     5680.00
02913            -480.00     5680.00
02914            -460.00     5760.00
02915            -540.00     5760.00
02916            -560.00     5760.00
02917            -540.00     5760.00
02918            -580.00     5760.00
02919            -640.00     5760.00
02920            -620.00     5840.00
02921            -620.00     5760.00
02922            -660.00     5760.00
02923            -660.00     5760.00
02924            -660.00     5840.00
02925            -740.00     5760.00
02926            -780.00     5760.00
02927            -740.00     5760.00
02928            -780.00     5760.00
02929            -800.00     5680.00
02930            -800.00     5680.00
02931            -800.00     5680.00
02932            -860.00     5600.00
02933            -860.00     5680.00
02934            -860.00     5680.00
02935            -880.00     5520.00
02936            -880.00     5520.00
02937            -880.00     5520.00
02938            -900.00     5520.00
02939            -900.00     5440.00
02940            -900.00     5360.00
02941            -900.00     5360.00
02942            -880.00     5280.00
02943            -900.00     5280.00
02944            -900.00     5200.00
02945            -880.00     5200.00
02946            -880.00     5040.00
02947            -860.00     5040.00
02948            -820.00     5040.00
02949            -820.00     4960.00
02950            -800.00     4880.00
02951            -800.00     4880.00
02952            -800.00     4720.00
02953            -760.00     4720.00
02954            -740.00     4640.00
02955            -720.00     4560.00
02956            -680.00     4560.00
02957            -660.00     4400.00
02958            -660.00     4400.00
02959            -660.00     4320.00
02960            -620.00     4240.00
02961            -560.00     4160.00
02962            -560.00     4080.00
02963            -540.00     4000.00
02964            -500.00     3920.00
02965            -500.00     3920.00
02966            -480.00     3760.00
02967            -460.00     3760.00
02968            -440.00     3680.00
02969            -400.00     3600.00
02970            -400.00     3440.00
02971            -380.00     3360.00
02972            -380.00     3280.00
02973            -380.00     3200.00
02974            -320.00     3040.00
02975            -320.00     3040.00
02976            -320.00     2960.00
02977            -300.00     2800.00
02978            -300.00     2640.00
02979            -260.00     2640.00
02980            -260.00     2480.00
02981            -220.00     2480.00
02982            -220.00     2320.00
02983            -220.00     2240.00
02984            -220.00     2160.00
02985            -220.00     2000.00
02986            -240.00     1920.00
02987            -180.00     1840.00
02988            -160.00     1680.00
02989            -160.00     1600.00
02990            -160.00     1440.00
02991            -160.00     1440.00
02992            -160.00     1360.00
02993            -140.00     1200.00
02994            -140.00     1120.00
02995            -100.00      960.00
02996            -100.00      880.00
02997            -100.00      720.00
02998            -100.00      720.00
02999            -100.00      560.00
03000            -100.00      400.00
03001             -80.00      400.00
03002             -80.00      240.00
03003             -60.00      160.00
03004             -60.00       80.00
03005             -60.00        0.00
03006             -20.00     -160.00
03007              20.00     -240.00
03008              60.00     -320.00
03009              60.00     -480.00
03010              20.00     -560.00
03011               0.00     -640.00
03012               0.00     -800.00
03013              20.00     -800.00
03014             220.00     -960.00
03015             700.00    -1120.00
03016             740.00    -1360.00
03017            -100.00    -1440.00
03018           -1400.00    -1440.00
03019           -1300.00    -1280.00
03020             500.00    -1680.00
03021             840.00    -1840.00
03022            -400.00    -1440.00
03023             120.00    -2160.00
03024             660.00    -2240.00
03025            -100.00    -1600.00
03026               0.00    -2320.00
03027             100.00    -2720.00
03028             -80.00    -2000.00
03029             480.00    -2320.00
03030             100.00    -3040.00
03031            -380.00    -2560.00
03032             260.00    -2640.00
03033             100.00    -3040.00
03034            -100.00    -2880.00
03035             420.00    -2960.00
03036              80.00    -3120.00
03037            -220.00    -3360.00
03038             380.00    -3360.00
03039             320.00    -3280.00
03040            -140.00    -3600.00
03041             140.00    -3680.00
03042             320.00    -3600.00
03043             100.00    -3760.00
03044              20.00    -3920.00
03045             220.00    -3920.00
03046             220.00    -3920.00
03047             180.00    -4240.00
03048             220.00    -4240.00
03049             180.00    -4160.00
03050             160.00    -4400.00
03051             220.00    -4480.00
03052             240.00    -4320.00
03053             220.00    -4560.00
03054             140.00    -4720.00
03055             220.00    -4640.00
03056             300.00    -4640.00
03057             220.00    -4800.00
03058             240.00    -4880.00
03059             300.00    -4880.00
03060             220.00    -4960.00
03061             220.00    -5040.00
03062             300.00    -5040.00
03063             300.00    -5120.00
03064             300.00    -5200.00
03065             320.00    -5120.00
03066             300.00    -5200.00
03067             260.00    -5280.00
03068             340.00    -5360.00
03069             400.00    -5360.00
03070             360.00    -5360.00
03071             380.00    -5520.00
03072             400.00    -5440.00
03073             360.00    -5520.00
03074             400.00    -5440.00
03075             440.00    -5440.00
03076             460.00    -5520.00
03077             420.00    -5600.00
03078             480.00    -5600.00
03079             480.00    -5600.00
03080             460.00    -5680.00
03081             500.00    -5680.00
03082             560.00    -5680.00
03083             560.00    -5600.00
03084             540.00    -5760.00
03085             580.00    -5680.00
03086             580.00    -5680.00
03087             580.00    -5680.00
03088             640.00    -5760.00
03089             700.00    -5680.00
03090             700.00    -5680.00
03091             700.00    -5680.00
03092             740.00    -5680.00
03093             720.00    -5680.00
03094             740.00    -5680.00
03095             780.00    -5600.00
03096             840.00    -5520.00
03097             820.00    -5600.00
03098             860.00    -5600.00
03099             860.00    -5600.00
03100             860.00    -5520.00
03101             860.00    -5520.00
03102             900.00    -5440.00
03103             900.00    -5440.00
03104             900.00    -5440.00
03105             900.00    -5360.00
03106             900.00    -5280.00
03107             880.00    -5360.00
03108             900.00    -5280.00
03109             940.00    -5280.00
03110             900.00    -5200.00
03111             900.00    -5120.00
03112             860.00    -5040.00
03113             860.00    -5040.00
03114             840.00    -4960.00
03115             860.00    -4960.00
03116             860.00    -4880.00
03117             820.00    -4880.00
03118             800.00    -4800.00
03119             800.00    -4720.00
03120             780.00    -4640.00
03121             740.00    -4560.00
03122             720.00    -4560.00
03123             740.00    -4480.00
03124             700.00    -4480.00
03125             660.00    -4320.00
03126             640.00    -4240.00
03127             620.00    -4240.00
03128             600.00    -4080.00
03129             580.00    -4000.00
03130             540.00    -4000.00
03131             540.00    -3920.00
03132             500.00    -3760.00
03133             480.00    -3760.00
03134             480.00    -3680.00
03135             460.00    -3600.00
03136             440.00    -3440.00
03137             420.00    -3440.00
03138             380.00    -3280.00
03139             380.00    -3200.00
03140             340.00    -3120.00
03141             340.00    -3040.00
03142             340.00    -2880.00
03143             320.00    -2800.00
03144             320.00    -2720.00
03145             300.00    -2640.00
03146             280.00    -2560.00
03147             260.00    -2480.00
03148             260.00    -2400.00
03149             240.00    -2320.00
03150             240.00    -2160.00
03151             220.00    -2080.00
03152             220.00    -2000.00
03153             180.00    -1840.00
03154             180.00    -1840.00
03155             180.00    -1680.00
03156             180.00    -1520.00
03157             180.00    -1440.00
03158             160.00    -1360.00
03159             160.00    -1280.00
03160             140.00    -1120.00
03161             140.00    -1040.00
03162             140.00    -1040.00
03163             140.00     -880.00
03164             140.00     -720.00
03165             100.00     -640.00
03166              80.00     -560.00
03167              80.00     -480.00
03168              80.00     -320.00
03169              80.00     -160.00
03170              80.00      -80.00
03171              80.00      -80.00
03172              80.00       80.00
03173              80.00      240.00
03174             140.00      320.00
03175             140.00      400.00
03176             160.00      480.00
03177             100.00      560.00
03178              60.00      720.00
03179              60.00      800.00
03180              60.00      880.00
03181             340.00     1040.00
03182             960.00     1280.00
03183             700.00     1360.00
03184            -700.00     1360.00
03185           -2020.00     1120.00
03186            -720.00     1600.00
03187            1340.00     1840.00
03188             220.00     1760.00
03189            -640.00     1760.00
03190             660.00     1600.00
03191             380.00     2320.00
03192            -780.00     2480.00
03193             -80.00     1760.00
03194             320.00     2400.00
03195             -20.00     3040.00
03196               0.00     2080.00
03197            -300.00     2320.00
03198            -100.00     3520.00
03199             140.00     2560.00
03200            -460.00     2480.00
03201              80.00     3520.00
03202             340.00     3040.00
03203            -580.00     2960.00
03204             -80.00     3600.00
03205             300.00     3360.00
03206            -400.00     3520.00
03207            -180.00     3520.00
03208              20.00     3600.00
03209            -180.00     3920.00
03210            -180.00     3600.00
03211            -200.00     3920.00
03212             -80.00     4240.00
03213            -140.00     3920.00
03214            -160.00     4160.00
03215             -80.00     4320.00
03216            -260.00     4240.00
03217            -180.00     4400.00
03218            -140.00     4400.00
03219            -220.00     4640.00
03220            -160.00     4560.00
03221            -220.00     4640.00
03222            -240.00     4880.00
03223            -220.00     4640.00
03224            -220.00     4880.00
03225            -160.00     5040.00
03226            -260.00     4880.00
03227            -300.00     4960.00
03228            -220.00     5040.00
03229            -260.00     5200.00
03230            -260.00     5200.00
03231            -260.00     5200.00
03232            -320.00     5360.00
03233            -380.00     5200.00
03234            -300.00     5360.00
03235            -260.00     5440.00
03236            -340.00     5360.00
03237            -340.00     5440.00
03238            -320.00     5520.00
03239            -400.00     5520.00
03240            -420.00     5520.00
03241            -380.00     5520.00
03242            -400.00     5680.00
03243            -460.00     5600.00
03244            -400.00     5600.00
03245            -420.00     5680.00
03246            -500.00     5680.00
03247            -500.00     5600.00
03248            -460.00     5840.00
03249            -500.00     5840.00
03250            -580.00     5680.00
03251            -540.00     5680.00
03252            -560.00     5840.00
03253            -620.00     5760.00
03254            -620.00     5840.00
03255            -620.00     5840.00
03256            -640.00     5760.00
03257            -660.00     5680.00
03258            -660.00     5840.00
03259            -720.00     5840.00
03260            -780.00     5760.00
03261            -740.00     5840.00
03262            -740.00     5680.00
03263            -780.00     5680.00
03264            -800.00     5680.00
03265            -820.00     5680.00
03266            -840.00     5600.00
03267            -860.00     5600.00
03268            -860.00     5680.00
03269            -860.00     5520.00
03270            -900.00     5600.00
03271            -880.00     5520.00
03272            -880.00     5520.00
03273            -900.00     5440.00
03274            -900.00     5360.00
03275            -880.00     5360.00
03276            -880.00     5360.00
03277            -900.00     5280.00
03278            -880.00     5280.00
03279            -880.00     5200.00
03280            -880.00     5200.00
03281            -860.00     5040.00
03282            -820.00     5040.00
03283            -820.00     5040.00
03284            -800.00     4880.00
03285            -800.00     4880.00
03286            -800.00     4880.00
03287            -780.00     4720.00
03288            -740.00     4640.00
03289            -720.00     4640.00
03290            -700.00     4560.00
03291            -660.00     4480.00
03292            -660.00     4400.00
03293            -660.00     4320.00
03294            -620.00     4240.00
03295            -620.00     4240.00
03296            -580.00     4160.00
03297            -560.00     4000.00
03298            -540.00     3920.00
03299            -500.00     3920.00
03300            -500.00     3840.00
03301            -460.00     3680.00
03302            -440.00     3680.00
03303            -420.00     3600.00
03304            -400.00     3440.00
03305            -400.00     3440.00
03306            -380.00     3360.00
03307            -380.00     3280.00
03308            -340.00     3120.00
03309            -320.00     3040.00
03310            -320.00     2960.00
03311            -300.00     2800.00
03312            -300.00     2800.00
03313            -300.00     2640.00
03314            -260.00     2560.00
03315            -240.00     2480.00
03316            -240.00     2400.00
03317            -240.00     2320.00
03318            -220.00     2160.00
03319            -220.00     2080.00
03320            -200.00     1920.00
03321            -200.00     1840.00
03322            -180.00     1760.00
03323            -160.00     1680.00
03324            -180.00     1600.00
03325            -160.00     1440.00
03326            -160.00     1360.00
03327            -140.00     1200.00
03328            -100.00     1120.00
03329            -100.00     1040.00
03330            -100.00      880.00
03331            -100.00      800.00
03332            -100.00      720.00
03333            -100.00      640.00
03334            -100.00      560.00
03335            -100.00      400.00
03336            -100.00      240.00
03337             -80.00      160.00
03338             -60.00       80.00
03339             -20.00      -80.00
03340             -20.00     -160.00
03341              20.00     -240.00
03342              60.00     -320.00
03343              60.00     -400.00
03344              20.00     -480.00
03345               0.00     -640.00
03346               0.00     -720.00
03347               0.00     -800.00
03348              80.00     -880.00
03349             500.00    -1040.00
03350             860.00    -1360.00
03351             380.00    -1440.00
03352            -820.00    -1520.00
03353           -1660.00    -1280.00
03354            -320.00    -1440.00
03355            1100.00    -1840.00
03356               0.00    -1520.00
03357            -240.00    -1760.00
03358             620.00    -2480.00
03359             220.00    -1760.00
03360            -100.00    -1840.00
03361             140.00    -2720.00
03362             -80.00    -2320.00
03363             240.00    -2000.00
03364             380.00    -2800.00
03365            -300.00    -2800.00
03366             -20.00    -2480.00
03367             300.00    -2960.00
03368            -100.00    -3120.00
03369             220.00    -2960.00
03370             340.00    -3040.00
03371            -240.00    -3280.00
03372             120.00    -3440.00
03373             480.00    -3280.00
03374               0.00    -3440.00
03375             -60.00    -3760.00
03376             300.00    -3600.00
03377             240.00    -3600.00
03378               0.00    -3920.00
03379             140.00    -3920.00
03380             240.00    -3840.00
03381             160.00    -4000.00
03382             180.00    -4240.00
03383             220.00    -4160.00
03384             160.00    -4240.00
03385             180.00    -4480.00
03386             240.00    -4400.00
03387             240.00    -4400.00
03388             140.00    -4640.00
03389             160.00    -4560.00
03390             260.00    -4560.00
03391             240.00    -4720.00
03392             220.00    -4880.00
03393             300.00    -4800.00
03394             280.00    -4880.00
03395             220.00    -4960.00
03396             260.00    -5040.00
03397             320.00    -5040.00
03398             300.00    -5200.00
03399             320.00    -5200.00
03400             320.00    -5120.00
03401             280.00    -5200.00
03402             300.00    -5280.00
03403             380.00    -5280.00
03404             380.00    -5280.00
03405             360.00    -5440.00
03406             400.00    -5360.00
03407             380.00    -5440.00
03408             380.00    -5520.00
03409             400.00    -5520.00
03410             460.00    -5440.00
03411             460.00    -5600.00
03412             460.00    -5600.00
03413             480.00    -5600.00
03414             480.00    -5600.00
03415             480.00    -5680.00
03416             540.00    -5680.00
03417             540.00    -5680.00
03418             540.00    -5680.00
03419             580.00    -5680.00
03420             620.00    -5680.00
03421             600.00    -5680.00
03422             620.00    -5760.00
03423             660.00    -5680.00
03424             700.00    -5680.00
03425             680.00    -5760.00
03426             740.00    -5680.00
03427             740.00    -5600.00
03428             740.00    -5680.00
03429             780.00    -5680.00
03430             800.00    -5600.00
03431             800.00    -5600.00
03432             820.00    -5600.00
03433             860.00    -5600.00
03434             860.00    -5520.00
03435             840.00    -5440.00
03436             860.00    -5440.00
03437             880.00    -5440.00
03438             880.00    -5440.00
03439             900.00    -5360.00
03440             900.00    -5360.00
03441             900.00    -5280.00
03442             880.00    -5280.00
03443             900.00    -5280.00
03444             900.00    -5200.00
03445             880.00    -5200.00
03446             880.00    -5120.00
03447             860.00    -5040.00
03448             860.00    -5040.00
03449             860.00    -4960.00
03450             860.00    -4960.00
03451             860.00    -4880.00
03452             800.00    -4800.00
03453             780.00    -4720.00
03454             740.00    -4720.00
03455             760.00    -4640.00
03456             760.00    -4560.00
03457             740.00    -4480.00
03458             700.00    -4480.00
03459             660.00    -4400.00
03460             640.00    -4320.00
03461             620.00    -4240.00
03462             620.00    -4160.00
03463             600.00    -4080.00
03464             580.00    -4000.00
03465             540.00    -3920.00
03466             500.00    -3920.00
03467             500.00    -3760.00
03468             480.00    -3680.00
03469             480.00    -3680.00
03470             460.00    -3600.00
03471             420.00    -3440.00
03472             400.00    -3440.00
03473             380.00    -3280.00
03474             340.00    -3120.00
03475             340.00    -3040.00
03476             340.00    -2960.00
03477             340.00    -2880.00
03478             320.00    -2800.00
03479             300.00    -2720.00
03480             280.00    -2640.00
03481             260.00    -2560.00
03482             260.00    -2480.00
03483             260.00    -2320.00
03484             260.00    -2240.00
03485             220.00    -2160.00
03486             220.00    -2000.00
03487             200.00    -2000.00
03488             180.00    -1840.00
03489             160.00    -1760.00
03490             200.00    -1680.00
03491             180.00    -1440.00
03492             160.00    -1440.00
03493             140.00    -1280.00
03494             140.00    -1200.00
03495             140.00    -1120.00
03496             140.00    -1040.00
03497             140.00     -880.00
03498             140.00     -800.00
03499             140.00     -720.00
03500              80.00     -560.00
03501              80.00     -480.00
03502              80.00     -320.00
03503             100.00     -240.00
03504             100.00      -80.00
03505             100.00      -80.00
03506              60.00       80.00
03507              20.00      160.00
03508              60.00      320.00
03509             140.00      400.00
03510             160.00      480.00
03511             160.00      560.00
03512              80.00      640.00
03513              20.00      800.00
03514               0.00      880.00
03515             140.00     1040.00
03516             720.00     1200.00
03517             960.00     1360.00
03518              80.00     1360.00
03519           -1680.00     1200.00
03520           -1620.00     1360.00
03521             640.00     1760.00
03522            1080.00     1840.00
03523            -620.00     1760.00
03524             -20.00     1680.00
03525             940.00     2000.00
03526            -460.00     2640.00
03527            -560.00     2000.00
03528             400.00     1920.00
03529               0.00     2960.00
03530             -20.00     2560.00
03531            -100.00     2000.00
03532            -320.00     3120.00
03533             220.00     3120.00
03534            -200.00     2160.00
03535            -340.00     3200.00
03536             420.00     3360.00
03537            -240.00     2800.00
03538            -500.00     3360.00
03539             380.00     3440.00
03540            -140.00     3360.00
03541            -400.00     3600.00
03542              60.00     3440.00
03543            -100.00     3920.00
03544            -160.00     3760.00
03545            -160.00     3600.00
03546            -120.00     4240.00
03547             -80.00     4000.00
03548            -180.00     3920.00
03549             -80.00     4320.00
03550            -180.00     4240.00
03551            -260.00     4400.00
03552            -100.00     4400.00
03553            -220.00     4480.00
03554            -160.00     4640.00
03555            -160.00     4560.00
03556            -260.00     4880.00
03557            -220.00     4720.00
03558            -240.00     4720.00
03559            -160.00     4960.00
03560            -220.00     4880.00
03561            -320.00     4960.00
03562            -260.00     5040.00
03563            -260.00     5040.00
03564            -260.00     5200.00
03565            -240.00     5200.00
03566            -260.00     5360.00
03567            -340.00     5280.00
03568            -340.00     5280.00
03569            -260.00     5440.00
03570            -320.00     5360.00
03571            -360.00     5360.00
03572            -320.00     5520.00
03573            -340.00     5520.00
03574            -460.00     5520.00
03575            -380.00     5520.00
03576            -380.00     5600.00
03577            -420.00     5600.00
03578            -420.00     5600.00
03579            -420.00     5760.00
03580            -480.00     5760.00
03581            -520.00     5600.00
03582            -460.00     5680.00
03583            -440.00     5840.00
03584            -540.00     5680.00
03585            -580.00     5760.00
03586            -560.00     5840.00
03587            -620.00     5840.00
03588            -620.00     5680.00
03589            -620.00     5760.00
03590            -640.00     5840.00
03591            -660.00     5760.00
03592            -660.00     5840.00
03593            -660.00     5840.00
03594            -740.00     5680.00
03595            -800.00     5760.00
03596            -780.00     5760.00
03597            -740.00     5680.00
03598            -780.00     5680.00
03599            -800.00     5680.00
03600            -860.00     5680.00
03601            -900.00     5600.00
03602            -880.00     5600.00
03603            -840.00     5600.00
03604            -820.00     5520.00
03605            -860.00     5520.00
03606            -880.00     5520.00
03607            -900.00     5440.00
03608            -900.00     5520.00
03609            -880.00     5360.00
03610            -840.00     5360.00
03611            -860.00     5360.00
03612            -880.00     5280.00
03613            -900.00     5280.00
03614            -900.00     5200.00
03615            -880.00     5200.00
03616            -840.00     5040.00
03617            -820.00     5040.00
03618            -820.00     4960.00
03619            -800.00     4880.00
03620            -780.00     4880.00
03621            -740.00     4800.00
03622            -780.00     4720.00
03623            -740.00     4640.00
03624            -720.00     4560.00
03625            -700.00     4560.00
03626            -660.00     4480.00
03627            -660.00     4400.00
03628            -660.00     4320.00
03629            -620.00     4240.00
03630            -580.00     4160.00
03631            -560.00     4080.00
03632            -540.00     4000.00
03633            -500.00     3920.00
03634            -500.00     3920.00
03635            -500.00     3760.00
03636            -480.00     3760.00
03637            -460.00     3600.00
03638            -420.00     3520.00
03639            -400.00     3360.00
03640            -360.00     3440.00
03641            -380.00     3280.00
03642            -400.00     3120.00
03643            -380.00     3120.00
03644            -340.00     2960.00
03645            -320.00     2880.00
03646            -260.00     2720.00
03647            -260.00     2720.00
03648            -320.00     2640.00
03649            -300.00     2560.00
03650            -240.00     2480.00
03651            -180.00     2320.00
03652            -180.00     2160.00
03653            -220.00     2160.00
03654            -240.00     2080.00
03655            -240.00     1840.00
03656            -220.00     1840.00
03657            -160.00     1680.00
03658            -140.00     1520.00
03659            -160.00     1520.00
03660            -160.00     1360.00
03661            -160.00     1360.00
03662            -100.00     1200.00
03663            -100.00     1120.00
03664            -100.00      960.00
03665            -120.00      880.00
03666            -140.00      800.00
03667            -100.00      720.00
03668             -80.00      560.00
03669             -60.00      400.00
03670             -60.00      400.00
03671             -80.00      240.00
03672             -60.00      160.00
03673             -80.00       80.00
03674             -80.00      -80.00
03675               0.00     -160.00
03676              60.00     -240.00
03677             100.00     -400.00
03678              60.00     -400.00
03679               0.00     -560.00
03680               0.00     -640.00
03681               0.00     -720.00
03682              20.00     -880.00
03683             280.00     -880.00
03684             780.00    -1120.00
03685             700.00    -1360.00
03686            -240.00    -1440.00
03687           -1520.00    -1440.00
03688           -1140.00    -1200.00
03689             680.00    -1760.00
03690             720.00    -1760.00
03691            -380.00    -1520.00
03692             240.00    -2320.00
03693             620.00    -2160.00
03694            -180.00    -1600.00
03695               0.00    -2400.00
03696              80.00    -2640.00
03697               0.00    -2000.00
03698             500.00    -2480.00
03699              20.00    -3040.00
03700            -360.00    -2480.00
03701             240.00    -2640.00
03702              60.00    -3120.00
03703             -60.00    -2880.00
03704             480.00    -2960.00
03705               0.00    -3120.00
03706            -180.00    -3360.00
03707             400.00    -3360.00
03708             220.00    -3280.00
03709            -160.00    -3600.00
03710             180.00    -3680.00
03711             320.00    -3520.00
03712              80.00    -3760.00
03713              20.00    -4000.00
03714             220.00    -3920.00
03715             180.00    -3920.00
03716             160.00    -4240.00
03717             220.00    -4240.00
03718             180.00    -4160.00
03719             180.00    -4320.00
03720             220.00    -4480.00
03721             240.00    -4320.00
03722             180.00    -4560.00
03723             140.00    -4640.00
03724             240.00    -4560.00
03725             300.00    -4640.00
03726             240.00    -4880.00
03727             260.00    -4800.00
03728             300.00    -4800.00
03729             220.00    -4960.00
03730             220.00    -5040.00
03731             300.00    -4960.00
03732             300.00    -5040.00
03733             300.00    -5200.00
03734             340.00    -5200.00
03735             320.00    -5200.00
03736             300.00    -5280.00
03737             340.00    -5360.00
03738             380.00    -5280.00
03739             340.00    -5360.00
03740             380.00    -5520.00
03741             400.00    -5360.00
03742             400.00    -5440.00
03743             380.00    -5520.00
03744             420.00    -5440.00
03745             460.00    -5600.00
03746             460.00    -5600.00
03747             480.00    -5600.00
03748             480.00    -5600.00
03749             460.00    -5680.00
03750             500.00    -5680.00
03751             560.00    -5600.00
03752             540.00    -5600.00
03753             540.00    -5680.00
03754             580.00    -5680.00
03755             600.00    -5680.00
03756             620.00    -5680.00
03757             640.00    -5680.00
03758             700.00    -5680.00
03759             700.00    -5680.00
03760             700.00    -5680.00
03761             740.00    -5680.00
03762             720.00    -5600.00
03763             720.00    -5600.00
03764             780.00    -5600.00
03765             800.00    -5600.00
03766             820.00    -5600.00
03767             820.00    -5440.00
03768             860.00    -5600.00
03769             860.00    -5520.00
03770             860.00    -5520.00
03771             880.00    -5440.00
03772             860.00    -5440.00
03773             880.00    -5440.00
03774             880.00    -5360.00
03775             900.00    -5360.00
03776             900.00    -5280.00
03777             900.00    -5280.00
03778             940.00    -5200.00
03779             900.00    -5200.00
03780             880.00    -5200.00
03781             860.00    -5120.00
03782             860.00    -5040.00
03783             840.00    -4960.00
03784             860.00    -4960.00
03785             860.00    -4960.00
03786             820.00    -4880.00
03787             800.00    -4720.00
03788             780.00    -4720.00
03789             780.00    -4640.00
03790             740.00    -4560.00
03791             720.00    -4560.00
03792             720.00    -4480.00
03793             700.00    -4400.00
03794             660.00    -4320.00
03795             640.00    -4240.00
03796             620.00    -4160.00
03797             580.00    -4080.00
03798             580.00    -4000.00
03799             540.00    -3920.00
03800             540.00    -3840.00
03801             500.00    -3840.00
03802             480.00    -3760.00
03803             460.00    -3680.00
03804             460.00    -3600.00
03805             460.00    -3440.00
03806             420.00    -3360.00
03807             380.00    -3280.00
03808             380.00    -3120.00
03809             340.00    -3040.00
03810             340.00    -3040.00
03811             340.00    -2880.00
03812             320.00    -2800.00
03813             320.00    -2720.00
03814             300.00    -2720.00
03815             300.00    -2560.00
03816             260.00    -2480.00
03817             240.00    -2400.00
03818             240.00    -2240.00
03819             240.00    -2160.00
03820             220.00    -2080.00
03821             220.00    -2000.00
03822             220.00    -1840.00
03823             180.00    -1760.00
03824             180.00    -1680.00
03825             180.00    -1520.00
03826             160.00    -1440.00
03827             160.00    -1360.00
03828             140.00    -1200.00
03829             140.00    -1120.00
03830             140.00    -1040.00
03831             140.00     -960.00
03832             140.00     -800.00
03833             120.00     -720.00
03834             100.00     -640.00
03835              80.00     -480.00
03836              80.00     -480.00
03837              80.00     -240.00
03838              60.00     -160.00
03839              80.00      -80.00
03840              80.00        0.00
03841              60.00       80.00
03842              60.00      240.00
03843             100.00      400.00
03844             160.00      400.00
03845             140.00      480.00
03846              80.00      560.00
03847              80.00      720.00
03848              40.00      800.00
03849              80.00      880.00
03850             400.00     1040.00
03851             960.00     1280.00
03852             560.00     1440.00
03853            -900.00     1360.00
03854           -2020.00     1120.00
03855            -460.00     1680.00
03856            1420.00     1920.00
03857               0.00     1760.00
03858            -580.00     1760.00
03859             780.00     1680.00
03860             220.00     2400.00
03861            -780.00     2400.00
03862              60.00     1680.00
03863             280.00     2480.00
03864             -20.00     2960.00
03865             -20.00     1920.00
03866            -300.00     2480.00
03867             -20.00     3520.00
03868             100.00     2480.00
03869            -480.00     2640.00
03870             180.00     3600.00
03871             220.00     2960.00
03872            -640.00     3040.00
03873              40.00     3520.00
03874             220.00     3360.00
03875            -460.00     3520.00
03876            -100.00     3440.00
03877              20.00     3680.00
03878            -160.00     3920.00
03879            -160.00     3600.00
03880            -180.00     4000.00
03881             -80.00     4240.00
03882            -160.00     3840.00
03883            -140.00     4240.00
03884             -80.00     4320.00
03885            -260.00     4240.00
03886            -160.00     4400.00
03887            -160.00     4400.00
03888            -240.00     4640.00
03889            -160.00     4480.00
03890            -240.00     4640.00
03891            -240.00     4880.00
03892            -220.00     4640.00
03893            -220.00     4880.00
03894            -160.00     4960.00
03895            -300.00     4880.00
03896            -260.00     5040.00
03897            -240.00     5040.00
03898            -300.00     5120.00
03899            -260.00     5120.00
03900            -240.00     5280.00
03901            -340.00     5360.00
03902            -360.00     5200.00
03903            -300.00     5360.00
03904            -260.00     5440.00
03905            -380.00     5360.00
03906            -340.00     5440.00
03907            -340.00     5520.00
03908            -400.00     5520.00
03909            -420.00     5520.00
03910            -380.00     5600.00
03911            -420.00     5680.00
03912            -460.00     5600.00
03913            -400.00     5680.00
03914            -420.00     5680.00
03915            -500.00     5680.00
03916            -520.00     5680.00
03917            -440.00     5840.00
03918            -500.00     5840.00
03919            -560.00     5680.00
03920            -560.00     5840.00
03921            -560.00     5840.00
03922            -600.00     5840.00
03923            -620.00     5760.00
03924            -620.00     5840.00
03925            -660.00     5760.00
03926            -700.00     5680.00
03927            -640.00     5840.00
03928            -700.00     5680.00
03929            -740.00     5680.00
03930            -740.00     5760.00
03931            -740.00     5760.00
03932            -800.00     5680.00
03933            -800.00     5680.00
03934            -800.00     5680.00
03935            -840.00     5600.00
03936            -880.00     5600.00
03937            -860.00     5680.00
03938            -860.00     5520.00
03939            -860.00     5520.00
03940            -860.00     5520.00
03941            -900.00     5520.00
03942            -900.00     5440.00
03943            -900.00     5440.00
03944            -880.00     5360.00
03945            -860.00     5360.00
03946            -880.00     5360.00
03947            -880.00     5280.00
03948            -880.00     5200.00
03949            -880.00     5120.00
03950            -860.00     5040.00
03951            -840.00     5040.00
03952            -820.00     5040.00
03953            -800.00     4960.00
03954            -780.00     4880.00
03955            -780.00     4880.00
03956            -780.00     4720.00
03957            -740.00     4720.00
03958            -740.00     4640.00
03959            -700.00     4560.00
03960            -660.00     4400.00
03961            -660.00     4400.00
03962            -640.00     4320.00
03963            -620.00     4240.00
03964            -580.00     4240.00
03965            -580.00     4160.00
03966            -560.00     4080.00
03967            -560.00     3920.00
03968            -500.00     3920.00
03969            -480.00     3840.00
03970            -480.00     3760.00
03971            -460.00     3600.00
03972            -460.00     3600.00
03973            -420.00     3440.00
03974            -400.00     3360.00
03975            -380.00     3280.00
03976            -360.00     3120.00
03977            -340.00     3120.00
03978            -300.00     3040.00
03979            -320.00     2960.00
03980            -320.00     2800.00
03981            -320.00     2720.00
03982            -280.00     2640.00
03983            -260.00     2560.00
03984            -240.00     2400.00
03985            -240.00     2320.00
03986            -240.00     2240.00
03987            -220.00     2160.00
03988            -220.00     2080.00
03989            -220.00     2000.00
03990            -220.00     1840.00
03991            -180.00     1760.00
03992            -160.00     1680.00
03993            -160.00     1520.00
03994            -140.00     1440.00
03995            -140.00     1360.00
03996            -140.00     1200.00
03997            -120.00     1120.00
03998            -100.00     1040.00
03999            -120.00      880.00
04000            -100.00      800.00
04001            -100.00      720.00
04002             -80.00      560.00
04003             -80.00      480.00
04004             -80.00      400.00
04005             -80.00      320.00
04006             -60.00      240.00
04007             -60.00       80.00
04008             -20.00      -80.00
04009             -20.00     -160.00
04010              20.00     -240.00
04011              60.00     -320.00
04012              60.00     -400.00
04013              20.00     -480.00
04014              20.00     -720.00
04015              20.00     -720.00
04016               0.00     -800.00
04017             140.00     -880.00
04018             540.00    -1040.00
04019             820.00    -1280.00
04020             260.00    -1360.00
04021            -960.00    -1440.00
04022           -1620.00    -1360.00
04023            -140.00    -1440.00
04024            1120.00    -1920.00
04025            -120.00    -1520.00
04026            -160.00    -1840.00
04027             640.00    -2400.00
04028             100.00    -1680.00
04029            -100.00    -2000.00
04030             120.00    -2800.00
04031            -100.00    -2320.00
04032             320.00    -2080.00
04033             340.00    -2960.00
04034            -340.00    -2720.00
04035              60.00    -2480.00
04036             240.00    -2960.00
04037            -160.00    -3040.00
04038             280.00    -2880.00
04039             300.00    -3040.00
04040            -240.00    -3280.00
04041             180.00    -3440.00
04042             420.00    -3280.00
04043             -80.00    -3440.00
04044             -20.00    -3760.00
04045             320.00    -3600.00
04046             200.00    -3600.00
04047               0.00    -4000.00
04048             160.00    -3920.00
04049             240.00    -3920.00
04050             160.00    -4080.00
04051             160.00    -4240.00
04052             220.00    -4080.00
04053             160.00    -4240.00
04054             180.00    -4400.00
04055             240.00    -4400.00
04056             220.00    -4400.00
04057             160.00    -4640.00
04058             180.00    -4640.00
04059             300.00    -4560.00
04060             240.00    -4800.00
04061             220.00    -4880.00
04062             300.00    -4800.00
04063             260.00    -4960.00
04064             220.00    -4960.00
04065             300.00    -4960.00
04066             320.00    -5040.00
04067             300.00    -5200.00
04068             320.00    -5120.00
04069             320.00    -5200.00
04070             300.00    -5280.00
04071             320.00    -5280.00
04072             400.00    -5280.00
04073             380.00    -5360.00
04074             340.00    -5440.00
04075             380.00    -5360.00
04076             360.00    -5440.00
04077             380.00    -5520.00
04078             420.00    -5440.00
04079             460.00    -5520.00
04080             460.00    -5600.00
04081             460.00    -5600.00
04082             480.00    -5600.00
04083             480.00    -5680.00
04084             500.00    -5680.00
04085             560.00    -5680.00
04086             580.00    -5600.00
04087             560.00    -5680.00
04088             580.00    -5680.00
04089             620.00    -5680.00
04090             580.00    -5680.00
04091             560.00    -5680.00
04092             620.00    -5680.00
04093             700.00    -5680.00
04094             720.00    -5760.00
04095             740.00    -5680.00
04096             740.00    -5680.00
04097             720.00    -5600.00
04098             780.00    -5680.00
04099             800.00    -5600.00
04100             820.00    -5600.00
04101             800.00    -5600.00
04102             820.00    -5600.00
04103             820.00    -5600.00
04104             860.00    -5440.00
04105             880.00    -5440.00
04106             900.00    -5440.00
04107             900.00    -5440.00
04108             880.00    -5440.00
04109             880.00    -5360.00
04110             880.00    -5360.00
04111             860.00    -5280.00
04112             880.00    -5280.00
04113             900.00    -5200.00
04114             900.00    -5200.00
04115             880.00    -5040.00
04116             880.00    -5040.00
04117             880.00    -4960.00
04118             860.00    -5040.00
04119             860.00    -4880.00
04120             820.00    -4880.00
04121             800.00    -4800.00
04122             780.00    -4800.00
04123             780.00    -4640.00
04124             760.00    -4640.00
04125             740.00    -4560.00
04126             740.00    -4400.00
04127             700.00    -4400.00
04128             700.00    -4320.00
04129             640.00    -4240.00
04130             620.00    -4240.00
04131             620.00    -4080.00
04132             600.00    -4080.00
04133             560.00    -4080.00
04134             540.00    -3920.00
04135             520.00    -3840.00
04136             500.00    -3760.00
04137             480.00    -3760.00
04138             480.00    -3600.00
04139             460.00    -3600.00
04140             420.00    -3440.00
04141             400.00    -3280.00
04142             380.00    -3280.00
04143             340.00    -3120.00
04144             340.00    -3040.00
04145             360.00    -2880.00
04146             340.00    -2880.00
04147             340.00    -2800.00
04148             300.00    -2720.00
04149             260.00    -2640.00
04150             240.00    -2480.00
04151             240.00    -2400.00
04152             240.00    -2320.00
04153             240.00    -2160.00
04154             240.00    -2160.00
04155             220.00    -2000.00
04156             220.00    -1920.00
04157             180.00    -1840.00
04158             180.00    -1680.00
04159             160.00    -1600.00
04160             160.00    -1520.00
04161             160.00    -1440.00
04162             140.00    -1360.00
04163             120.00    -1200.00
04164             140.00    -1120.00
04165             140.00     -960.00
04166             160.00     -880.00
04167             140.00     -800.00
04168             100.00     -720.00
04169              80.00     -560.00
04170              80.00     -480.00
04171              80.00     -320.00
04172              80.00     -240.00
04173              80.00     -160.00
04174              60.00      -80.00
04175              80.00       80.00
04176              60.00      160.00
04177             100.00      320.00
04178             140.00      400.00
04179             140.00      480.00
04180             120.00      560.00
04181              80.00      720.00
04182              60.00      720.00
04183              20.00      880.00
04184             180.00      960.00
04185             780.00     1200.00
04186             900.00     1360.00
04187            -100.00     1440.00
04188           -1780.00     1200.00
04189           -1420.00     1440.00
04190             860.00     1840.00
04191             920.00     1840.00
04192            -660.00     1760.00
04193             140.00     1680.00
04194             860.00     2080.00
04195            -580.00     2640.00
04196            -460.00     1920.00
04197             460.00     2000.00
04198               0.00     3040.00
04199               0.00     2400.00
04200            -140.00     2080.00
04201            -320.00     3280.00
04202             220.00     3040.00
04203            -300.00     2240.00
04204            -260.00     3280.00
04205             460.00     3280.00
04206            -320.00     2880.00
04207            -420.00     3440.00
04208             400.00     3360.00
04209            -180.00     3440.00
04210            -340.00     3600.00
04211              80.00     3440.00
04212            -100.00     3920.00
04213            -180.00     3760.00
04214            -180.00     3680.00
04215            -140.00     4320.00
04216            -100.00     3920.00
04217            -180.00     4000.00
04218             -80.00     4320.00
04219            -200.00     4240.00
04220            -240.00     4400.00
04221            -100.00     4400.00
04222            -220.00     4560.00
04223            -160.00     4560.00
04224            -180.00     4480.00
04225            -260.00     4880.00
04226            -240.00     4720.00
04227            -240.00     4800.00
04228            -160.00     5040.00
04229            -220.00     4880.00
04230            -320.00     4960.00
04231            -240.00     5040.00
04232            -260.00     5040.00
04233            -300.00     5200.00
04234            -260.00     5200.00
04235            -300.00     5360.00
04236            -380.00     5200.00
04237            -340.00     5280.00
04238            -260.00     5520.00
04239            -320.00     5360.00
04240            -380.00     5360.00
04241            -320.00     5520.00
04242            -380.00     5520.00
04243            -420.00     5520.00
04244            -380.00     5520.00
04245            -400.00     5680.00
04246            -420.00     5600.00
04247            -420.00     5600.00
04248            -420.00     5760.00
04249            -480.00     5680.00
04250            -540.00     5680.00
04251            -480.00     5760.00
04252            -480.00     5840.00
04253            -540.00     5760.00
04254            -540.00     5680.00
04255            -560.00     5840.00
04256            -580.00     5840.00
04257            -620.00     5760.00
04258            -580.00     5840.00
04259            -640.00     5840.00
04260            -660.00     5760.00
04261            -660.00     5840.00
04262            -680.00     5840.00
04263            -740.00     5680.00
04264            -780.00     5680.00
04265            -740.00     5760.00
04266            -740.00     5760.00
04267            -780.00     5680.00
04268            -800.00     5680.00
04269            -820.00     5680.00
04270            -860.00     5600.00
04271            -860.00     5680.00
04272            -860.00     5600.00
04273            -880.00     5520.00
04274            -880.00     5520.00
04275            -880.00     5520.00
04276            -900.00     5440.00
04277            -900.00     5440.00
04278            -900.00     5360.00
04279            -880.00     5360.00
04280            -860.00     5280.00
04281            -880.00     5280.00
04282            -880.00     5200.00
04283            -880.00     5120.00
04284            -880.00     5120.00
04285            -840.00     5120.00
04286            -820.00     4960.00
04287            -820.00     4880.00
04288            -800.00     4880.00
04289            -780.00     4880.00
04290            -800.00     4720.00
04291            -740.00     4720.00
04292            -740.00     4640.00
04293            -720.00     4560.00
04294            -720.00     4560.00
04295            -680.00     4480.00
04296            -660.00     4320.00
04297            -640.00     4240.00
04298            -580.00     4240.00
04299            -560.00     4160.00
04300            -560.00     4080.00
04301            -540.00     4000.00
04302            -500.00     3920.00
04303            -500.00     3920.00
04304            -500.00     3760.00
04305            -460.00     3680.00
04306            -460.00     3600.00
04307            -420.00     3520.00
04308            -400.00     3440.00
04309            -400.00     3360.00
04310            -400.00     3280.00
04311            -340.00     3120.00
04312            -340.00     3120.00
04313            -320.00     3040.00
04314            -320.00     2800.00
04315            -320.00     2800.00
04316            -280.00     2720.00
04317            -260.00     2640.00
04318            -260.00     2480.00
04319            -240.00     2400.00
04320            -240.00     2400.00
04321            -220.00     2160.00
04322            -220.00     2160.00
04323            -180.00     2000.00
04324            -220.00     1840.00
04325            -180.00     1760.00
04326            -160.00     1680.00
04327            -160.00     1520.00
04328            -160.00     1520.00
04329            -140.00     1360.00
04330            -140.00     1360.00
04331            -100.00     1200.00
04332            -100.00     1040.00
04333            -100.00      960.00
04334            -100.00      880.00
04335            -100.00      720.00
04336             -80.00      640.00
04337            -100.00      560.00
04338             -80.00      400.00
04339             -80.00      400.00
04340             -60.00      240.00
04341             -40.00       80.00
04342             -20.00       80.00
04343             -60.00      -80.00
04344               0.00     -160.00
04345              40.00     -240.00
04346              60.00     -400.00
04347              40.00     -400.00
04348              20.00     -560.00
04349              20.00     -720.00
04350               0.00     -800.00
04351              60.00     -880.00
04352             300.00     -960.00
04353             800.00    -1200.00
04354             620.00    -1440.00
04355            -360.00    -1360.00
04356           -1600.00    -1440.00
04357            -960.00    -1200.00
04358             820.00    -1760.00
04359             540.00    -1760.00
04360            -400.00    -1600.00
04361             300.00    -2400.00
04362             540.00    -2080.00
04363            -160.00    -1680.00
04364              60.00    -2480.00
04365              60.00    -2640.00
04366              20.00    -2000.00
04367             480.00    -2640.00
04368             -80.00    -3040.00
04369            -320.00    -2400.00
04370             320.00    -2640.00
04371               0.00    -3120.00
04372             -20.00    -2960.00
04373             420.00    -2960.00
04374             -80.00    -3280.00
04375            -100.00    -3440.00
04376             440.00    -3280.00
04377             180.00    -3280.00
04378            -140.00    -3680.00
04379             200.00    -3680.00
04380             320.00    -3600.00
04381              20.00    -3840.00
04382              60.00    -4000.00
04383             220.00    -3920.00
04384             180.00    -4000.00
04385             160.00    -4240.00
04386             220.00    -4240.00
04387             180.00    -4160.00
04388             160.00    -4400.00
04389             220.00    -4400.00
04390             220.00    -4320.00
04391             180.00    -4560.00
04392             160.00    -4720.00
04393             240.00    -4560.00
04394             240.00    -4640.00
04395             220.00    -4880.00
04396             280.00    -4800.00
04397             300.00    -4880.00
04398             240.00    -4960.00
04399             260.00    -4960.00
04400             320.00    -4960.00
04401             260.00    -5040.00
04402             300.00    -5200.00
04403             340.00    -5040.00
04404             320.00    -5280.00
04405             260.00    -5280.00
04406             340.00    -5280.00
04407             380.00    -5280.00
04408             320.00    -5440.00
04409             380.00    -5440.00
04410             400.00    -5360.00
04411             400.00    -5520.00
04412             420.00    -5520.00
04413             460.00    -5440.00
04414             420.00    -5520.00
04415             400.00    -5600.00
04416             480.00    -5600.00
04417             500.00    -5520.00
04418             480.00    -5600.00
04419             520.00    -5680.00
04420             540.00    -5600.00
04421             500.00    -5680.00
04422             540.00    -5760.00
04423             600.00    -5680.00
04424             620.00    -5760.00
04425             620.00    -5680.00
04426             660.00    -5760.00
04427             680.00    -5680.00
04428             640.00    -5760.00
04429             660.00    -5680.00
04430             720.00    -5680.00
04431             740.00    -5600.00
04432             760.00    -5680.00
04433             820.00    -5680.00
04434             820.00    -5680.00
04435             800.00    -5600.00
04436             820.00    -5600.00
04437             860.00    -5520.00
04438             820.00    -5440.00
04439             860.00    -5520.00
04440             880.00    -5440.00
04441             900.00    -5440.00
04442             900.00    -5360.00
04443             900.00    -5360.00
04444             880.00    -5360.00
04445             860.00    -5360.00
04446             880.00    -5280.00
04447             920.00    -5280.00
04448             940.00    -5200.00
04449             900.00    -5120.00
04450             860.00    -5040.00
04451             860.00    -4960.00
04452             860.00    -4960.00
04453             860.00    -4960.00
04454             860.00    -4880.00
04455             820.00    -4880.00
04456             800.00    -4800.00
04457             800.00    -4720.00
04458             780.00    -4640.00
04459             720.00    -4640.00
04460             740.00    -4480.00
04461             720.00    -4480.00
04462             700.00    -4400.00
04463             700.00    -4320.00
04464             640.00    -4240.00
04465             620.00    -4240.00
04466             580.00    -4160.00
04467             580.00    -4000.00
04468             560.00    -3920.00
04469             540.00    -3840.00
04470             500.00    -3760.00
04471             480.00    -3680.00
04472             480.00    -3680.00
04473             460.00    -3520.00
04474             420.00    -3440.00
04475             400.00    -3440.00
04476             400.00    -3360.00
04477             380.00    -3200.00
04478             340.00    -3120.00
04479             340.00    -3040.00
04480             340.00    -2880.00
04481             320.00    -2800.00
04482             300.00    -2720.00
04483             300.00    -2640.00
04484             300.00    -2560.00
04485             260.00    -2480.00
04486             260.00    -2400.00
04487             240.00    -2320.00
04488             220.00    -2160.00
04489             220.00    -2080.00
04490             180.00    -2000.00
04491             180.00    -1840.00
04492             200.00    -1760.00
04493             180.00    -1680.00
04494             180.00    -1520.00
04495             160.00    -1440.00
04496             140.00    -1360.00
04497             140.00    -1200.00
04498             140.00    -1120.00
04499             160.00    -1120.00
04500             140.00     -880.00
04501             140.00     -880.00
04502             100.00     -720.00
04503              80.00     -720.00
04504              80.00     -480.00
04505             100.00     -400.00
04506             100.00     -240.00
04507             100.00     -160.00
04508              80.00      -80.00
04509              60.00       80.00
04510              60.00      160.00
04511              80.00      240.00
04512             120.00      320.00
04513             140.00      400.00
04514             140.00      480.00
04515             100.00      640.00
04516              60.00      720.00
04517              40.00      800.00
04518              80.00      880.00
04519             480.00     1120.00
04520             980.00     1360.00
04521             460.00     1360.00
04522           -1100.00     1360.00
04523           -1980.00     1200.00
04524            -220.00     1680.00
04525            1440.00     1840.00
04526            -160.00     1760.00
04527            -480.00     1760.00
04528             880.00     1680.00
04529              20.00     2480.00
04530            -740.00     2320.00
04531             180.00     1760.00
04532             220.00     2640.00
04533               0.00     2960.00
04534             -20.00     2000.00
04535            -340.00     2720.00
04536              60.00     3440.00
04537              20.00     2400.00
04538            -480.00     2720.00
04539             260.00     3600.00
04540             140.00     2880.00
04541            -640.00     3120.00
04542             160.00     3440.00
04543             160.00     3360.00
04544            -460.00     3600.00
04545             -60.00     3440.00
04546               0.00     3760.00
04547            -160.00     3920.00
04548            -160.00     3520.00
04549            -180.00     4080.00
04550             -60.00     4240.00
04551            -160.00     3920.00
04552            -140.00     4240.00
04553            -100.00     4240.00
04554            -260.00     4240.00
04555            -140.00     4400.00
04556            -160.00     4400.00
04557            -240.00     4560.00
04558            -160.00     4480.00
04559            -260.00     4720.00
04560            -240.00     4880.00
04561            -240.00     4560.00
04562            -220.00     4880.00
04563            -160.00     4960.00
04564            -320.00     4880.00
04565            -280.00     5040.00
04566            -240.00     5040.00
04567            -300.00     5200.00
04568            -240.00     5200.00
04569            -260.00     5200.00
04570            -340.00     5280.00
04571            -380.00     5280.00
04572            -300.00     5360.00
04573            -280.00     5440.00
04574            -380.00     5360.00
04575            -340.00     5520.00
04576            -340.00     5520.00
04577            -420.00     5600.00
04578            -400.00     5520.00
04579            -380.00     5600.00
04580            -420.00     5680.00
04581            -420.00     5600.00
04582            -420.00     5680.00
04583            -460.00     5680.00
04584            -520.00     5680.00
04585            -500.00     5680.00
04586            -460.00     5760.00
04587            -500.00     5840.00
04588            -560.00     5680.00
04589            -540.00     5840.00
04590            -560.00     5840.00
04591            -620.00     5760.00
04592            -620.00     5760.00
04593            -620.00     5840.00
04594            -640.00     5760.00
04595            -660.00     5760.00
04596            -660.00     5840.00
04597            -720.00     5760.00
04598            -780.00     5680.00
04599            -740.00     5680.00
04600            -740.00     5680.00
04601            -800.00     5680.00
04602            -800.00     5680.00
04603            -800.00     5680.00
04604            -840.00     5600.00
04605            -860.00     5600.00
04606            -860.00     5680.00
04607            -880.00     5520.00
04608            -880.00     5520.00
04609            -880.00     5520.00
04610            -880.00     5520.00
04611            -900.00     5440.00
04612            -900.00     5360.00
04613            -880.00     5360.00
04614            -900.00     5360.00
04615            -880.00     5280.00
04616            -880.00     5280.00
04617            -880.00     5200.00
04618            -900.00     5120.00
04619            -860.00     5040.00
04620            -860.00     5040.00
04621            -820.00     4960.00
04622            -800.00     4880.00
04623            -800.00     4880.00
04624            -800.00     4800.00
04625            -800.00     4720.00
04626            -780.00     4800.00
04627            -740.00     4640.00
04628            -700.00     4560.00
04629            -660.00     4480.00
04630            -660.00     4400.00
04631            -660.00     4320.00
04632            -640.00     4240.00
04633            -580.00     4240.00
04634            -540.00     4080.00
04635            -560.00     4000.00
04636            -540.00     3920.00
04637            -500.00     3920.00
04638            -500.00     3840.00
04639            -460.00     3760.00
04640            -440.00     3600.00
04641            -440.00     3600.00
04642            -420.00     3440.00
04643            -400.00     3440.00
04644            -380.00     3280.00
04645            -360.00     3200.00
04646            -340.00     3120.00
04647            -320.00     3040.00
04648            -320.00     2960.00
04649            -320.00     2800.00
04650            -300.00     2720.00
04651            -260.00     2640.00
04652            -260.00     2640.00
04653            -240.00     2480.00
04654            -240.00     2320.00
04655            -220.00     2320.00
04656            -220.00     2160.00
04657            -180.00     2000.00
04658            -200.00     1920.00
04659            -180.00     1840.00
04660            -160.00     1680.00
04661            -160.00     1680.00
04662            -160.00     1520.00
04663            -160.00     1440.00
04664            -140.00     1360.00
04665            -140.00     1280.00
04666            -100.00     1200.00
04667            -100.00     1040.00
04668            -100.00      880.00
04669            -100.00      800.00
04670            -100.00      720.00
04671            -100.00      640.00
04672            -100.00      480.00
04673             -80.00      400.00
04674             -80.00      240.00
04675             -60.00      160.00
04676             -60.00       80.00
04677             -40.00      -80.00
04678             -20.00     -160.00
04679              20.00     -240.00
04680              60.00     -320.00
04681              60.00     -400.00
04682              20.00     -480.00
04683               0.00     -560.00
04684               0.00     -720.00
04685               0.00     -800.00
04686             160.00     -880.00
04687             600.00    -1040.00
04688             800.00    -1360.00
04689             160.00    -1360.00
04690           -1120.00    -1520.00
04691           -1540.00    -1280.00
04692              80.00    -1520.00
04693            1060.00    -1840.00
04694            -260.00    -1520.00
04695            -100.00    -2000.00
04696             660.00    -2400.00
04697               0.00    -1680.00
04698             -60.00    -2080.00
04699             140.00    -2800.00
04700            -100.00    -2160.00
04701             380.00    -2160.00
04702             280.00    -2960.00
04703            -400.00    -2720.00
04704             140.00    -2480.00
04705             220.00    -3040.00
04706            -140.00    -3040.00
04707             320.00    -2880.00
04708             220.00    -3120.00
04709            -260.00    -3360.00
04710             240.00    -3360.00
04711             420.00    -3200.00
04712             -80.00    -3440.00
04713              60.00    -3760.00
04714             340.00    -3600.00
04715             160.00    -3680.00
04716             -20.00    -4000.00
04717             160.00    -4000.00
04718             220.00    -3840.00
04719             160.00    -4080.00
04720             220.00    -4240.00
04721             200.00    -4080.00
04722             160.00    -4240.00
04723             220.00    -4560.00
04724             240.00    -4400.00
04725             220.00    -4480.00
04726             160.00    -4640.00
04727             200.00    -4560.00
04728             300.00    -4640.00
04729             220.00    -4880.00
04730             220.00    -4880.00
04731             320.00    -4880.00
04732             260.00    -4880.00
04733             220.00    -5040.00
04734             300.00    -4960.00
04735             320.00    -5040.00
04736             300.00    -5200.00
04737             320.00    -5120.00
04738             320.00    -5200.00
04739             260.00    -5280.00
04740             320.00    -5360.00
04741             400.00    -5360.00
04742             380.00    -5360.00
04743             340.00    -5520.00
04744             380.00    -5360.00
04745             380.00    -5440.00
04746             380.00    -5600.00
04747             420.00    -5600.00
04748             440.00    -5440.00
04749             420.00    -5600.00
04750             480.00    -5600.00
04751             480.00    -5600.00
04752             460.00    -5680.00
04753             460.00    -5680.00
04754             540.00    -5680.00
04755             560.00    -5680.00
04756             540.00    -5680.00
04757             580.00    -5680.00
04758             620.00    -5680.00
04759             580.00    -5760.00
04760             620.00    -5680.00
04761             680.00    -5680.00
04762             700.00    -5680.00
04763             700.00    -5840.00
04764             720.00    -5680.00
04765             720.00    -5680.00
04766             720.00    -5680.00
04767             780.00    -5680.00
04768             800.00    -5600.00
04769             820.00    -5680.00
04770             800.00    -5600.00
04771             820.00    -5600.00
04772             860.00    -5440.00
04773             860.00    -5520.00
04774             860.00    -5440.00
04775             880.00    -5440.00
04776             880.00    -5440.00
04777             880.00    -5440.00
04778             900.00    -5360.00
04779             880.00    -5360.00
04780             880.00    -5360.00
04781             900.00    -5280.00
04782             920.00    -5200.00
04783             880.00    -5200.00
04784             880.00    -5040.00
04785             860.00    -5040.00
04786             860.00    -5040.00
04787             860.00    -4960.00
04788             860.00    -4880.00
04789             820.00    -4880.00
04790             820.00    -4880.00
04791             800.00    -4720.00
04792             780.00    -4640.00
04793             740.00    -4560.00
04794             740.00    -4560.00
04795             720.00    -4400.00
04796             700.00    -4400.00
04797             660.00    -4400.00
04798             640.00    -4240.00
04799             620.00    -4160.00
04800             620.00    -4080.00
04801             620.00    -4080.00
04802             580.00    -4000.00
04803             540.00    -3920.00
04804             520.00    -3840.00
04805             480.00    -3760.00
04806             480.00    -3680.00
04807             460.00    -3600.00
04808             460.00    -3520.00
04809             400.00    -3440.00
04810             400.00    -3360.00
04811             380.00    -3280.00
04812             360.00    -3200.00
04813             340.00    -3120.00
04814             320.00    -2960.00
04815             320.00    -2880.00
04816             300.00    -2800.00
04817             300.00    -2720.00
04818             280.00    -2560.00
04819             260.00    -2480.00
04820             240.00    -2400.00
04821             240.00    -2320.00
04822             220.00    -2160.00
04823             220.00    -2080.00
04824             220.00    -2000.00
04825             200.00    -1840.00
04826             160.00    -1840.00
04827             180.00    -1760.00
04828             180.00    -1600.00
04829             180.00    -1520.00
04830             160.00    -1360.00
04831             140.00    -1280.00
04832             140.00    -1200.00
04833             140.00    -1120.00
04834             140.00    -1040.00
04835             120.00     -880.00
04836             100.00     -800.00
04837             100.00     -640.00
04838             100.00     -560.00
04839             100.00     -320.00
04840             100.00     -320.00
04841              80.00     -240.00
04842              60.00     -160.00
04843              80.00        0.00
04844              80.00       80.00
04845              80.00      160.00
04846             100.00      240.00
04847             140.00      400.00
04848             140.00      480.00
04849             100.00      560.00
04850              80.00      640.00
04851              60.00      800.00
04852              80.00      880.00
04853             240.00     1040.00
04854             860.00     1200.00
04855             860.00     1360.00
04856            -300.00     1360.00
04857           -1920.00     1200.00
04858           -1220.00     1440.00
04859            1060.00     1840.00
04860             720.00     1840.00
04861            -660.00     1760.00
04862             300.00     1680.00
04863             720.00     2160.00
04864            -660.00     2640.00
04865            -340.00     1840.00
04866             420.00     2080.00
04867             -20.00     3120.00
04868              20.00     2320.00
04869            -160.00     2080.00
04870            -260.00     3360.00
04871             220.00     2960.00
04872            -340.00     2320.00
04873            -160.00     3360.00
04874             480.00     3280.00
04875            -420.00     2800.00
04876            -320.00     3440.00
04877             380.00     3360.00
04878            -280.00     3440.00
04879            -320.00     3520.00
04880              60.00     3440.00
04881            -140.00     3920.00
04882            -180.00     3680.00
04883            -180.00     3760.00
04884            -100.00     4240.00
04885            -100.00     3920.00
04886            -180.00     4080.00
04887            -100.00     4320.00
04888            -240.00     4240.00
04889            -240.00     4400.00
04890            -120.00     4400.00
04891            -240.00     4480.00
04892            -160.00     4560.00
04893            -220.00     4480.00
04894            -260.00     4880.00
04895            -240.00     4640.00
04896            -240.00     4800.00
04897            -160.00     5040.00
04898            -240.00     4880.00
04899            -320.00     4960.00
04900            -240.00     5040.00
04901            -300.00     5040.00
04902            -300.00     5200.00
04903            -260.00     5200.00
04904            -300.00     5360.00
04905            -340.00     5200.00
04906            -320.00     5280.00
04907            -240.00     5440.00
04908            -340.00     5360.00
04909            -400.00     5440.00
04910            -340.00     5520.00
04911            -380.00     5520.00
04912            -400.00     5520.00
04913            -360.00     5520.00
04914            -380.00     5680.00
04915            -420.00     5600.00
04916            -420.00     5600.00
04917            -420.00     5680.00
04918            -480.00     5680.00
04919            -500.00     5680.00
04920            -460.00     5680.00
04921            -480.00     5840.00
04922            -560.00     5840.00
04923            -560.00     5840.00
04924            -540.00     5760.00
04925            -580.00     5840.00
04926            -620.00     5680.00
04927            -620.00     5760.00
04928            -640.00     5840.00
04929            -660.00     5680.00
04930            -660.00     5840.00
04931            -660.00     5760.00
04932            -740.00     5760.00
04933            -740.00     5680.00
04934            -740.00     5760.00
04935            -760.00     5760.00
04936            -800.00     5680.00
04937            -820.00     5680.00
04938            -820.00     5680.00
04939            -860.00     5600.00
04940            -860.00     5600.00
04941            -860.00     5600.00
04942            -880.00     5520.00
04943            -880.00     5520.00
04944            -880.00     5520.00
04945            -900.00     5440.00
04946            -920.00     5360.00
04947            -900.00     5360.00
04948            -880.00     5360.00
04949            -880.00     5280.00
04950            -880.00     5280.00
04951            -880.00     5200.00
04952            -880.00     5120.00
04953            -860.00     5040.00
04954            -840.00     5040.00
04955            -820.00     5040.00
04956            -840.00     4960.00
04957            -820.00     4960.00
04958            -800.00     4880.00
04959            -780.00     4720.00
04960            -740.00     4720.00
04961            -720.00     4640.00
04962            -720.00     4560.00
04963            -700.00     4560.00
04964            -660.00     4400.00
04965            -660.00     4400.00
04966            -640.00     4240.00
04967            -580.00     4240.00
04968            -560.00     4160.00
04969            -560.00     4080.00
04970            -560.00     4000.00
04971            -500.00     3920.00
04972            -500.00     3840.00
04973            -480.00     3760.00
04974            -460.00     3680.00
04975            -420.00     3600.00
04976            -420.00     3520.00
04977            -400.00     3440.00
04978            -400.00     3280.00
04979            -380.00     3280.00
04980            -360.00     3120.00
04981            -320.00     3040.00
04982            -320.00     2960.00
04983            -320.00     2880.00
04984            -300.00     2800.00
04985            -260.00     2720.00
04986            -260.00     2640.00
04987            -240.00     2480.00
04988            -240.00     2400.00
04989            -240.00     2320.00
04990            -220.00     2160.00
04991            -180.00     2160.00
04992            -220.00     2080.00
04993            -200.00     1840.00
04994            -180.00     1760.00
04995            -160.00     1680.00
04996            -140.00     1600.00
04997            -160.00     1440.00
04998            -140.00     1360.00
04999            -140.00     1280.00
05000            -100.00     1200.00
