Unit:(mV)
                     CH1         CH2
Frequency              ? 299.020 kHz
00001              80.00    -1400.00
00002             520.00    -1800.00
00003            1080.00    -2000.00
00004             640.00    -2200.00
00005            -480.00    -2400.00
00006           -1200.00    -2600.00
00007           -1560.00    -2600.00
00008            -680.00    -2600.00
00009             680.00    -3400.00
00010             320.00    -3000.00
00011             360.00    -3200.00
00012             600.00    -3800.00
00013               0.00    -3400.00
00014             160.00    -3800.00
00015              40.00    -4200.00
00016             -40.00    -4000.00
00017             320.00    -4600.00
00018              80.00    -4200.00
00019            -160.00    -5000.00
00020             -80.00    -5000.00
00021               0.00    -5000.00
00022             120.00    -5400.00
00023              80.00    -5200.00
00024             120.00    -5600.00
00025               0.00    -5600.00
00026              40.00    -5800.00
00027             200.00    -6200.00
00028               0.00    -6000.00
00029              40.00    -6600.00
00030             120.00    -6400.00
00031             120.00    -6400.00
00032              40.00    -7000.00
00033               0.00    -6800.00
00034             120.00    -7000.00
00035             160.00    -7000.00
00036             120.00    -7400.00
00037              80.00    -7600.00
00038             120.00    -7400.00
00039             120.00    -7600.00
00040             120.00    -7800.00
00041             120.00    -7800.00
00042              40.00    -8000.00
00043             120.00    -8200.00
00044             120.00    -8400.00
00045             160.00    -8400.00
00046             120.00    -8600.00
00047             160.00    -8600.00
00048             120.00    -8600.00
00049             120.00    -8800.00
00050             120.00    -9000.00
00051             160.00    -9000.00
00052             160.00    -9000.00
00053             120.00    -9000.00
00054             120.00    -9200.00
00055             120.00    -9400.00
00056             160.00    -9200.00
00057             200.00    -9400.00
00058             200.00    -9400.00
00059             160.00    -9400.00
00060             120.00    -9600.00
00061             160.00    -9600.00
00062             160.00    -9600.00
00063             160.00    -9800.00
00064             200.00    -9800.00
00065             200.00    -9800.00
00066             160.00    -9800.00
00067             200.00    -9800.00
00068             160.00    -9800.00
00069             160.00    -9800.00
00070             200.00   -10000.00
00071             200.00    -9800.00
00072             200.00   -10000.00
00073             160.00    -9800.00
00074             160.00   -10000.00
00075             200.00   -10000.00
00076             160.00    -9800.00
00077             200.00   -10000.00
00078             200.00   -10000.00
00079             200.00    -9800.00
00080             200.00    -9800.00
00081             160.00    -9800.00
00082             200.00    -9800.00
00083             200.00    -9800.00
00084             200.00   -10000.00
00085             240.00    -9800.00
00086             200.00    -9800.00
00087             200.00    -9800.00
00088             160.00    -9600.00
00089             160.00    -9800.00
00090             200.00    -9600.00
00091             200.00    -9400.00
00092             200.00    -9600.00
00093             200.00    -9600.00
00094             160.00    -9400.00
00095             160.00    -9400.00
00096             160.00    -9200.00
00097             160.00    -9200.00
00098             200.00    -9000.00
00099             200.00    -9200.00
00100             200.00    -9000.00
00101             160.00    -8800.00
00102             160.00    -9000.00
00103             160.00    -8600.00
00104             160.00    -8600.00
00105             160.00    -8600.00
00106             160.00    -8400.00
00107             160.00    -8400.00
00108             160.00    -8200.00
00109             160.00    -8200.00
00110             160.00    -8000.00
00111             160.00    -7800.00
00112             160.00    -7800.00
00113             160.00    -7600.00
00114             160.00    -7400.00
00115             200.00    -7200.00
00116             160.00    -7200.00
00117             200.00    -7200.00
00118             160.00    -7000.00
00119             160.00    -7000.00
00120             160.00    -6800.00
00121             120.00    -6600.00
00122             160.00    -6600.00
00123             160.00    -6200.00
00124             120.00    -6200.00
00125             160.00    -6000.00
00126             160.00    -5800.00
00127             120.00    -5800.00
00128             120.00    -5600.00
00129             160.00    -5400.00
00130             120.00    -5000.00
00131             160.00    -5000.00
00132             160.00    -5000.00
00133             120.00    -4600.00
00134             120.00    -4600.00
00135             160.00    -4400.00
00136             120.00    -4200.00
00137             120.00    -4000.00
00138             120.00    -3800.00
00139             160.00    -3800.00
00140             120.00    -3600.00
00141             120.00    -3200.00
00142             120.00    -3000.00
00143             120.00    -3000.00
00144             120.00    -2800.00
00145             120.00    -2600.00
00146             120.00    -2600.00
00147              40.00    -2200.00
00148              40.00    -2000.00
00149              80.00    -2000.00
00150              40.00    -1800.00
00151             120.00    -1400.00
00152              40.00    -1400.00
00153              40.00    -1000.00
00154              40.00     -800.00
00155              40.00     -800.00
00156              40.00     -600.00
00157               0.00     -600.00
00158              40.00     -200.00
00159              40.00     -200.00
00160               0.00      200.00
00161              40.00      400.00
00162             120.00      600.00
00163             160.00      600.00
00164             160.00     1000.00
00165             120.00     1000.00
00166             120.00     1200.00
00167              80.00     1400.00
00168             160.00     1400.00
00169             800.00     1800.00
00170            1280.00     2000.00
00171             360.00     2200.00
00172           -1080.00     2200.00
00173           -1960.00     2200.00
00174           -1440.00     2800.00
00175             600.00     2800.00
00176             640.00     2800.00
00177             160.00     3400.00
00178             680.00     3000.00
00179               0.00     3600.00
00180            -280.00     4200.00
00181               0.00     3400.00
00182            -240.00     4200.00
00183             320.00     4400.00
00184             -40.00     4000.00
00185            -320.00     5000.00
00186              40.00     4600.00
00187            -280.00     5000.00
00188             -40.00     5200.00
00189               0.00     5000.00
00190               0.00     5800.00
00191             -40.00     5400.00
00192            -200.00     5800.00
00193             120.00     6200.00
00194            -120.00     5800.00
00195            -160.00     6600.00
00196               0.00     6200.00
00197            -120.00     6600.00
00198             -40.00     6600.00
00199            -160.00     6600.00
00200             -40.00     7400.00
00201             -40.00     6800.00
00202             -40.00     7400.00
00203            -120.00     7400.00
00204            -120.00     7600.00
00205            -160.00     7600.00
00206            -120.00     7800.00
00207             -40.00     7800.00
00208            -160.00     7800.00
00209            -120.00     8200.00
00210            -160.00     8200.00
00211            -120.00     8400.00
00212            -120.00     8400.00
00213            -120.00     8400.00
00214            -160.00     8600.00
00215            -200.00     8600.00
00216            -200.00     9000.00
00217            -160.00     8800.00
00218            -120.00     9000.00
00219            -160.00     9000.00
00220            -200.00     9200.00
00221            -200.00     9200.00
00222            -200.00     9200.00
00223            -160.00     9400.00
00224            -160.00     9400.00
00225            -160.00     9400.00
00226            -200.00     9600.00
00227            -200.00     9600.00
00228            -200.00     9600.00
00229            -200.00     9800.00
00230            -200.00     9800.00
00231            -200.00     9800.00
00232            -200.00     9800.00
00233            -160.00    10000.00
00234            -200.00    10000.00
00235            -200.00    10000.00
00236            -200.00    10000.00
00237            -200.00    10000.00
00238            -200.00    10000.00
00239            -200.00    10000.00
00240            -200.00    10000.00
00241            -200.00    10000.00
00242            -200.00    10000.00
00243            -200.00    10000.00
00244            -200.00    10000.00
00245            -200.00    10000.00
00246            -200.00    10000.00
00247            -200.00    10000.00
00248            -200.00    10000.00
00249            -200.00    10000.00
00250            -200.00    10000.00
00251            -200.00    10000.00
00252            -200.00     9800.00
00253            -200.00    10000.00
00254            -200.00     9800.00
00255            -200.00     9800.00
00256            -200.00     9800.00
00257            -200.00     9800.00
00258            -200.00     9800.00
00259            -200.00     9400.00
00260            -200.00     9800.00
00261            -240.00     9400.00
00262            -200.00     9400.00
00263            -200.00     9400.00
00264            -200.00     9400.00
00265            -160.00     9200.00
00266            -200.00     9200.00
00267            -200.00     9000.00
00268            -200.00     9000.00
00269            -200.00     9000.00
00270            -200.00     8800.00
00271            -200.00     8600.00
00272            -200.00     8600.00
00273            -200.00     8400.00
00274            -200.00     8400.00
00275            -200.00     8200.00
00276            -200.00     8200.00
00277            -160.00     8200.00
00278            -160.00     7800.00
00279            -200.00     7800.00
00280            -160.00     7600.00
00281            -200.00     7600.00
00282            -200.00     7400.00
00283            -200.00     7400.00
00284            -200.00     7200.00
00285            -200.00     7000.00
00286            -160.00     6800.00
00287            -160.00     6800.00
00288            -200.00     6600.00
00289            -200.00     6400.00
00290            -200.00     6200.00
00291            -200.00     6200.00
00292            -160.00     6000.00
00293            -160.00     6000.00
00294            -160.00     5800.00
00295            -200.00     5400.00
00296            -160.00     5400.00
00297            -160.00     5400.00
00298            -160.00     5000.00
00299            -160.00     4800.00
00300            -160.00     4800.00
00301            -160.00     4600.00
00302            -200.00     4400.00
00303            -160.00     4200.00
00304            -120.00     4200.00
00305            -160.00     4000.00
00306            -120.00     3600.00
00307            -160.00     3600.00
00308            -160.00     3400.00
00309            -120.00     3200.00
00310            -120.00     3000.00
00311            -120.00     3000.00
00312            -120.00     2800.00
00313            -120.00     2600.00
00314            -120.00     2200.00
00315             -40.00     2000.00
00316             -40.00     1800.00
00317             -80.00     1800.00
00318             -80.00     1600.00
00319            -120.00     1400.00
00320             -40.00     1200.00
00321            -120.00     1000.00
00322             -40.00     1000.00
00323             -40.00      600.00
00324             -40.00      400.00
00325             -40.00      200.00
00326             -40.00      200.00
00327             -40.00     -200.00
00328               0.00     -400.00
00329              40.00     -400.00
00330             120.00     -600.00
00331             120.00     -600.00
00332              40.00    -1000.00
00333              40.00    -1200.00
00334              40.00    -1400.00
00335              40.00    -1200.00
00336             280.00    -1400.00
00337             920.00    -1800.00
00338             960.00    -2200.00
00339               0.00    -2200.00
00340            -960.00    -2600.00
00341           -1440.00    -2600.00
00342           -1280.00    -2600.00
00343             280.00    -2800.00
00344             600.00    -3400.00
00345             160.00    -3000.00
00346             600.00    -3600.00
00347             240.00    -3600.00
00348               0.00    -3400.00
00349             200.00    -4400.00
00350            -160.00    -4000.00
00351             160.00    -4400.00
00352             280.00    -4400.00
00353            -120.00    -4600.00
00354            -160.00    -5000.00
00355             -40.00    -4800.00
00356             120.00    -5200.00
00357             120.00    -5400.00
00358             160.00    -5400.00
00359             120.00    -5800.00
00360             -40.00    -5600.00
00361             160.00    -6000.00
00362              40.00    -6200.00
00363               0.00    -6200.00
00364             120.00    -6600.00
00365             120.00    -6200.00
00366              40.00    -6800.00
00367              40.00    -6800.00
00368              80.00    -7000.00
00369             120.00    -7000.00
00370             120.00    -7200.00
00371             120.00    -7400.00
00372             120.00    -7400.00
00373             160.00    -7600.00
00374             120.00    -7800.00
00375             120.00    -7800.00
00376             120.00    -7800.00
00377              40.00    -8200.00
00378             160.00    -8200.00
00379             160.00    -8400.00
00380             160.00    -8600.00
00381             160.00    -8600.00
00382             160.00    -8600.00
00383             120.00    -8800.00
00384             120.00    -8800.00
00385             160.00    -9000.00
00386             160.00    -8800.00
00387             120.00    -9000.00
00388             120.00    -9200.00
00389             120.00    -9000.00
00390             120.00    -9200.00
00391             200.00    -9200.00
00392             200.00    -9400.00
00393             200.00    -9600.00
00394             160.00    -9600.00
00395             160.00    -9400.00
00396             120.00    -9600.00
00397             160.00    -9800.00
00398             160.00    -9800.00
00399             200.00    -9600.00
00400             200.00    -9800.00
00401             160.00    -9800.00
00402             200.00    -9800.00
00403             120.00    -9800.00
00404             200.00   -10000.00
00405             200.00   -10000.00
00406             200.00   -10000.00
00407             160.00    -9800.00
00408             200.00   -10000.00
00409             160.00   -10000.00
00410             160.00   -10000.00
00411             160.00   -10000.00
00412             200.00   -10000.00
00413             200.00   -10000.00
00414             200.00   -10000.00
00415             160.00    -9800.00
00416             160.00   -10000.00
00417             160.00   -10000.00
00418             200.00    -9800.00
00419             200.00    -9800.00
00420             200.00    -9800.00
00421             200.00    -9800.00
00422             160.00    -9800.00
00423             160.00    -9800.00
00424             160.00    -9800.00
00425             200.00    -9600.00
00426             160.00    -9600.00
00427             200.00    -9400.00
00428             200.00    -9400.00
00429             160.00    -9400.00
00430             160.00    -9400.00
00431             160.00    -9200.00
00432             200.00    -9200.00
00433             200.00    -9200.00
00434             160.00    -9000.00
00435             160.00    -9000.00
00436             160.00    -8800.00
00437             200.00    -8600.00
00438             160.00    -8600.00
00439             200.00    -8600.00
00440             160.00    -8400.00
00441             160.00    -8600.00
00442             160.00    -8400.00
00443             160.00    -8200.00
00444             160.00    -8200.00
00445             160.00    -7800.00
00446             200.00    -7800.00
00447             160.00    -7600.00
00448             160.00    -7600.00
00449             160.00    -7200.00
00450             160.00    -7200.00
00451             200.00    -7200.00
00452             200.00    -7000.00
00453             160.00    -6800.00
00454             160.00    -6800.00
00455             160.00    -6600.00
00456             160.00    -6600.00
00457             160.00    -6400.00
00458             160.00    -6200.00
00459             160.00    -6200.00
00460             120.00    -6000.00
00461             160.00    -5800.00
00462             120.00    -5600.00
00463             160.00    -5400.00
00464             120.00    -5400.00
00465             160.00    -5200.00
00466             160.00    -5000.00
00467             120.00    -4800.00
00468             120.00    -4600.00
00469             120.00    -4600.00
00470             120.00    -4400.00
00471             120.00    -4200.00
00472             160.00    -3800.00
00473             160.00    -3800.00
00474             120.00    -3600.00
00475              80.00    -3400.00
00476              80.00    -3400.00
00477              40.00    -3000.00
00478             120.00    -3000.00
00479             120.00    -2600.00
00480              80.00    -2600.00
00481              40.00    -2600.00
00482              40.00    -2200.00
00483              40.00    -2000.00
00484              40.00    -2000.00
00485              80.00    -1400.00
00486              80.00    -1400.00
00487              40.00    -1200.00
00488              40.00     -800.00
00489               0.00     -800.00
00490               0.00     -600.00
00491              40.00     -600.00
00492              40.00     -400.00
00493              80.00     -200.00
00494              40.00      200.00
00495              40.00      200.00
00496              40.00      400.00
00497             160.00      600.00
00498             160.00      600.00
00499             160.00     1000.00
00500             120.00     1000.00
00501               0.00     1200.00
00502              80.00     1400.00
00503             480.00     1800.00
00504            1240.00     2000.00
00505             920.00     2000.00
00506            -520.00     2200.00
00507           -1640.00     2200.00
00508           -1960.00     2600.00
00509            -200.00     3200.00
00510             960.00     2800.00
00511             160.00     3000.00
00512             520.00     3400.00
00513             440.00     3000.00
00514            -320.00     4200.00
00515               0.00     3800.00
00516            -200.00     3600.00
00517             120.00     4600.00
00518             320.00     3800.00
00519            -360.00     4400.00
00520             -40.00     5000.00
00521            -120.00     4600.00
00522            -160.00     5200.00
00523              40.00     5000.00
00524               0.00     5400.00
00525              40.00     5800.00
00526            -200.00     5400.00
00527               0.00     6200.00
00528               0.00     5800.00
00529            -200.00     6000.00
00530               0.00     6400.00
00531             -80.00     6200.00
00532             -40.00     6800.00
00533            -160.00     6400.00
00534            -120.00     7000.00
00535             -40.00     7000.00
00536             -40.00     7000.00
00537             -40.00     7400.00
00538            -160.00     7400.00
00539            -160.00     7600.00
00540            -160.00     7600.00
00541             -80.00     7800.00
00542            -120.00     7800.00
00543            -120.00     8000.00
00544            -120.00     8200.00
00545            -160.00     8200.00
00546            -120.00     8200.00
00547            -120.00     8400.00
00548            -120.00     8600.00
00549            -200.00     8600.00
00550            -160.00     8600.00
00551            -160.00     8800.00
00552            -160.00     8800.00
00553            -160.00     9000.00
00554            -200.00     9200.00
00555            -200.00     9200.00
00556            -200.00     9200.00
00557            -160.00     9200.00
00558            -160.00     9400.00
00559            -200.00     9400.00
00560            -200.00     9400.00
00561            -200.00     9600.00
00562            -200.00     9400.00
00563            -200.00     9800.00
00564            -200.00     9800.00
00565            -200.00     9600.00
00566            -160.00     9800.00
00567            -160.00     9800.00
00568            -200.00    10000.00
00569            -280.00     9800.00
00570            -200.00    10000.00
00571            -200.00    10000.00
00572            -200.00    10000.00
00573            -200.00    10000.00
00574            -200.00    10000.00
00575            -200.00    10200.00
00576            -200.00    10000.00
00577            -200.00    10000.00
00578            -200.00    10200.00
00579            -200.00    10000.00
00580            -200.00    10000.00
00581            -200.00    10200.00
00582            -240.00    10000.00
00583            -280.00    10000.00
00584            -200.00    10000.00
00585            -160.00    10000.00
00586            -200.00    10000.00
00587            -200.00     9800.00
00588            -200.00    10000.00
00589            -200.00     9800.00
00590            -200.00     9800.00
00591            -200.00     9800.00
00592            -200.00     9600.00
00593            -200.00     9800.00
00594            -240.00     9400.00
00595            -200.00     9400.00
00596            -200.00     9400.00
00597            -160.00     9400.00
00598            -200.00     9200.00
00599            -200.00     9200.00
00600            -200.00     9200.00
00601            -200.00     9000.00
00602            -200.00     9200.00
00603            -200.00     9000.00
00604            -200.00     8800.00
00605            -200.00     8600.00
00606            -160.00     8600.00
00607            -200.00     8400.00
00608            -200.00     8600.00
00609            -240.00     8200.00
00610            -200.00     8200.00
00611            -200.00     8200.00
00612            -160.00     7800.00
00613            -200.00     7800.00
00614            -200.00     7600.00
00615            -200.00     7600.00
00616            -200.00     7400.00
00617            -200.00     7400.00
00618            -160.00     7200.00
00619            -200.00     7000.00
00620            -200.00     6800.00
00621            -200.00     6800.00
00622            -200.00     6800.00
00623            -200.00     6600.00
00624            -160.00     6400.00
00625            -200.00     6200.00
00626            -160.00     6000.00
00627            -160.00     5800.00
00628            -200.00     5800.00
00629            -200.00     5800.00
00630            -200.00     5400.00
00631            -120.00     5200.00
00632            -160.00     5200.00
00633            -120.00     5000.00
00634            -200.00     4800.00
00635            -160.00     4600.00
00636            -160.00     4600.00
00637            -160.00     4400.00
00638            -160.00     4200.00
00639            -120.00     4000.00
00640            -120.00     3800.00
00641            -120.00     3600.00
00642            -160.00     3600.00
00643            -160.00     3200.00
00644            -160.00     3400.00
00645             -40.00     3000.00
00646             -40.00     2800.00
00647             -40.00     2600.00
00648            -120.00     2400.00
00649            -160.00     2400.00
00650            -120.00     2000.00
00651             -40.00     1800.00
00652             -80.00     1800.00
00653             -40.00     1400.00
00654             -40.00     1200.00
00655             -80.00     1200.00
00656             -40.00     1000.00
00657            -120.00      800.00
00658             -40.00      600.00
00659             -40.00      400.00
00660             -40.00      200.00
00661             -40.00        0.00
00662               0.00     -200.00
00663               0.00     -400.00
00664             120.00     -400.00
00665             120.00     -600.00
00666             120.00     -800.00
00667               0.00    -1000.00
00668               0.00    -1000.00
00669               0.00    -1400.00
00670             160.00    -1400.00
00671             640.00    -1800.00
00672            1080.00    -2200.00
00673             520.00    -2400.00
00674            -600.00    -2600.00
00675           -1280.00    -2600.00
00676           -1480.00    -2600.00
00677            -440.00    -2600.00
00678             720.00    -3400.00
00679             200.00    -3000.00
00680             440.00    -3400.00
00681             520.00    -3800.00
00682             -40.00    -3400.00
00683             160.00    -4000.00
00684               0.00    -4200.00
00685             -40.00    -4200.00
00686             280.00    -4600.00
00687               0.00    -4400.00
00688            -160.00    -5000.00
00689             -40.00    -4800.00
00690              40.00    -5000.00
00691             120.00    -5400.00
00692             120.00    -5200.00
00693             120.00    -5600.00
00694             -40.00    -5600.00
00695              80.00    -6000.00
00696             200.00    -6200.00
00697              40.00    -6000.00
00698              80.00    -6600.00
00699             120.00    -6600.00
00700             120.00    -6600.00
00701               0.00    -7000.00
00702              40.00    -6800.00
00703             160.00    -7000.00
00704             160.00    -7000.00
00705             120.00    -7400.00
00706             120.00    -7400.00
00707             120.00    -7600.00
00708             160.00    -7600.00
00709             120.00    -7600.00
00710             120.00    -7800.00
00711             120.00    -8200.00
00712              80.00    -8200.00
00713             160.00    -8200.00
00714             160.00    -8400.00
00715             120.00    -8600.00
00716             160.00    -8600.00
00717             160.00    -8600.00
00718             120.00    -8800.00
00719             160.00    -8800.00
00720             160.00    -9000.00
00721             160.00    -9000.00
00722             160.00    -9000.00
00723             160.00    -9200.00
00724             120.00    -9200.00
00725             160.00    -9200.00
00726             160.00    -9400.00
00727             200.00    -9400.00
00728             160.00    -9400.00
00729             160.00    -9600.00
00730             160.00    -9800.00
00731             160.00    -9800.00
00732             160.00    -9800.00
00733             200.00    -9800.00
00734             200.00    -9800.00
00735             200.00    -9800.00
00736             200.00    -9800.00
00737             160.00    -9800.00
00738             160.00    -9800.00
00739             160.00   -10000.00
00740             160.00    -9800.00
00741             160.00   -10200.00
00742             200.00   -10000.00
00743             160.00   -10000.00
00744             160.00   -10000.00
00745             160.00   -10000.00
00746             200.00   -10000.00
00747             200.00   -10000.00
00748             200.00   -10000.00
00749             200.00   -10000.00
00750             160.00    -9800.00
00751             160.00   -10000.00
00752             200.00    -9800.00
00753             160.00    -9800.00
00754             200.00    -9800.00
00755             200.00    -9800.00
00756             160.00    -9800.00
00757             200.00    -9800.00
00758             160.00    -9800.00
00759             200.00    -9800.00
00760             160.00    -9600.00
00761             160.00    -9400.00
00762             160.00    -9400.00
00763             160.00    -9400.00
00764             200.00    -9400.00
00765             200.00    -9200.00
00766             200.00    -9200.00
00767             200.00    -9200.00
00768             200.00    -9000.00
00769             160.00    -9000.00
00770             200.00    -9000.00
00771             200.00    -8600.00
00772             200.00    -8800.00
00773             200.00    -8600.00
00774             200.00    -8400.00
00775             160.00    -8400.00
00776             160.00    -8200.00
00777             160.00    -8400.00
00778             160.00    -8200.00
00779             200.00    -7800.00
00780             240.00    -7800.00
00781             200.00    -7800.00
00782             160.00    -7600.00
00783             160.00    -7200.00
00784             160.00    -7200.00
00785             160.00    -7200.00
00786             200.00    -7000.00
00787             160.00    -7000.00
00788             160.00    -6800.00
00789             160.00    -6600.00
00790             120.00    -6400.00
00791             160.00    -6400.00
00792             160.00    -6400.00
00793             160.00    -6200.00
00794             160.00    -6000.00
00795             160.00    -5800.00
00796             160.00    -5800.00
00797             120.00    -5400.00
00798             120.00    -5400.00
00799             120.00    -5200.00
00800             120.00    -5000.00
00801             160.00    -4800.00
00802             160.00    -4600.00
00803             120.00    -4600.00
00804             120.00    -4400.00
00805             120.00    -4200.00
00806             120.00    -4200.00
00807             120.00    -3800.00
00808             120.00    -3600.00
00809             120.00    -3600.00
00810              80.00    -3400.00
00811              80.00    -3200.00
00812              80.00    -3000.00
00813             120.00    -2800.00
00814              40.00    -2600.00
00815             120.00    -2400.00
00816             120.00    -2200.00
00817             120.00    -2000.00
00818              40.00    -1800.00
00819              40.00    -2000.00
00820              40.00    -1400.00
00821              40.00    -1200.00
00822              40.00    -1200.00
00823              40.00     -800.00
00824              40.00     -800.00
00825              40.00     -600.00
00826              40.00     -400.00
00827              40.00     -400.00
00828               0.00     -200.00
00829              40.00      200.00
00830             120.00      400.00
00831             160.00      600.00
00832             200.00      600.00
00833             160.00      800.00
00834             120.00     1000.00
00835              40.00     1200.00
00836              80.00     1400.00
00837             280.00     1600.00
00838            1000.00     1800.00
00839            1240.00     2000.00
00840             160.00     2000.00
00841           -1240.00     2000.00
00842           -2040.00     2200.00
00843           -1160.00     2800.00
00844             840.00     3000.00
00845             480.00     2800.00
00846             280.00     3400.00
00847             720.00     3400.00
00848            -120.00     3600.00
00849            -160.00     4200.00
00850             -40.00     3400.00
00851            -200.00     4400.00
00852             440.00     4400.00
00853            -160.00     4000.00
00854            -280.00     5200.00
00855              40.00     4600.00
00856            -200.00     5000.00
00857              40.00     5200.00
00858               0.00     5000.00
00859              40.00     5800.00
00860            -160.00     5400.00
00861            -160.00     5800.00
00862             120.00     6000.00
00863            -200.00     5800.00
00864             -40.00     6600.00
00865               0.00     6200.00
00866             -80.00     6600.00
00867            -160.00     6600.00
00868            -160.00     6800.00
00869             -40.00     7200.00
00870            -120.00     6800.00
00871             -40.00     7200.00
00872            -120.00     7200.00
00873            -120.00     7400.00
00874            -160.00     7600.00
00875            -120.00     7800.00
00876            -120.00     7800.00
00877            -160.00     7800.00
00878            -160.00     8200.00
00879            -200.00     8200.00
00880            -160.00     8200.00
00881            -120.00     8200.00
00882            -120.00     8400.00
00883            -200.00     8600.00
00884            -200.00     8600.00
00885            -160.00     8800.00
00886            -160.00     9000.00
00887            -120.00     9000.00
00888            -160.00     9200.00
00889            -200.00     9200.00
00890            -240.00     9200.00
00891            -200.00     9200.00
00892            -160.00     9400.00
00893            -160.00     9400.00
00894            -160.00     9400.00
00895            -160.00     9400.00
00896            -200.00     9600.00
00897            -280.00     9600.00
00898            -200.00     9800.00
00899            -200.00     9800.00
00900            -160.00    10000.00
00901            -240.00     9800.00
00902            -200.00    10000.00
00903            -160.00    10000.00
00904            -120.00    10000.00
00905            -120.00    10200.00
00906            -120.00     9800.00
00907            -200.00    10000.00
00908            -280.00    10000.00
00909            -320.00    10200.00
00910            -280.00    10000.00
00911            -160.00    10000.00
00912            -120.00    10000.00
00913            -120.00    10000.00
00914            -160.00    10000.00
00915            -200.00    10000.00
00916            -200.00    10000.00
00917            -200.00    10000.00
00918            -240.00    10000.00
00919            -280.00    10000.00
00920            -240.00    10000.00
00921            -200.00     9800.00
00922            -160.00     9800.00
00923            -160.00     9800.00
00924            -200.00     9800.00
00925            -200.00     9800.00
00926            -200.00     9800.00
00927            -200.00     9600.00
00928            -200.00     9600.00
00929            -200.00     9400.00
00930            -280.00     9600.00
00931            -280.00     9400.00
00932            -200.00     9400.00
00933            -160.00     9400.00
00934            -120.00     9000.00
00935            -160.00     9200.00
00936            -200.00     9000.00
00937            -280.00     9000.00
00938            -240.00     9000.00
00939            -200.00     8600.00
00940            -200.00     8600.00
00941            -200.00     8600.00
00942            -240.00     8400.00
00943            -200.00     8400.00
00944            -200.00     8200.00
00945            -160.00     8200.00
00946            -160.00     8000.00
00947            -160.00     7800.00
00948            -200.00     7800.00
00949            -280.00     7600.00
00950            -280.00     7600.00
00951            -200.00     7400.00
00952            -200.00     7200.00
00953            -200.00     7200.00
00954            -160.00     6800.00
00955            -200.00     6800.00
00956            -200.00     6600.00
00957            -200.00     6600.00
00958            -200.00     6600.00
00959            -200.00     6200.00
00960            -200.00     6200.00
00961            -160.00     5800.00
00962            -160.00     6000.00
00963            -160.00     5800.00
00964            -160.00     5600.00
00965            -200.00     5400.00
00966            -160.00     5200.00
00967            -120.00     5000.00
00968            -160.00     5000.00
00969            -160.00     4600.00
00970            -160.00     4600.00
00971            -160.00     4400.00
00972            -160.00     4200.00
00973            -160.00     4000.00
00974            -120.00     3800.00
00975            -120.00     3800.00
00976            -120.00     3600.00
00977            -120.00     3400.00
00978            -120.00     3200.00
00979            -120.00     3000.00
00980            -120.00     3000.00
00981            -120.00     2800.00
00982            -120.00     2400.00
00983            -120.00     2200.00
00984             -40.00     2200.00
00985            -120.00     1800.00
00986             -40.00     1800.00
00987            -120.00     1800.00
00988             -80.00     1400.00
00989             -40.00     1200.00
00990            -120.00     1000.00
00991             -40.00      800.00
00992             -80.00      600.00
00993             -40.00      400.00
00994             -40.00      200.00
00995             -40.00      200.00
00996               0.00        0.00
00997               0.00     -200.00
00998              40.00     -400.00
00999             120.00     -600.00
01000              80.00     -800.00
01001               0.00    -1000.00
01002               0.00    -1000.00
01003               0.00    -1400.00
01004               0.00    -1400.00
01005             320.00    -1600.00
01006             960.00    -2000.00
01007             840.00    -2200.00
01008            -200.00    -2400.00
01009           -1080.00    -2600.00
01010           -1480.00    -2600.00
01011           -1080.00    -2400.00
01012             480.00    -3000.00
01013             480.00    -3200.00
01014             200.00    -3000.00
01015             640.00    -3800.00
01016             120.00    -3400.00
01017              40.00    -3600.00
01018             160.00    -4400.00
01019            -160.00    -4000.00
01020             200.00    -4600.00
01021             200.00    -4600.00
01022            -160.00    -4800.00
01023            -120.00    -5000.00
01024               0.00    -5000.00
01025             120.00    -5400.00
01026              40.00    -5400.00
01027             160.00    -5400.00
01028              40.00    -5800.00
01029               0.00    -5800.00
01030             240.00    -6200.00
01031             120.00    -6000.00
01032               0.00    -6200.00
01033             120.00    -6600.00
01034             120.00    -6600.00
01035              80.00    -6800.00
01036               0.00    -7000.00
01037             120.00    -7000.00
01038             160.00    -7000.00
01039             120.00    -7400.00
01040             120.00    -7400.00
01041             160.00    -7400.00
01042             120.00    -7600.00
01043             160.00    -7800.00
01044             160.00    -7800.00
01045              40.00    -7800.00
01046              40.00    -8000.00
01047             160.00    -8200.00
01048             160.00    -8400.00
01049             160.00    -8400.00
01050             160.00    -8600.00
01051             160.00    -8600.00
01052             120.00    -8800.00
01053             120.00    -8800.00
01054             160.00    -9000.00
01055             160.00    -9000.00
01056             120.00    -9200.00
01057             120.00    -9000.00
01058             160.00    -9200.00
01059             160.00    -9200.00
01060             160.00    -9400.00
01061             200.00    -9200.00
01062             200.00    -9400.00
01063             160.00    -9400.00
01064             160.00    -9800.00
01065             160.00    -9600.00
01066             160.00    -9800.00
01067             200.00    -9800.00
01068             200.00    -9800.00
01069             200.00    -9800.00
01070             160.00    -9800.00
01071             160.00    -9800.00
01072             120.00    -9800.00
01073             200.00   -10000.00
01074             200.00   -10000.00
01075             200.00   -10000.00
01076             160.00   -10000.00
01077             160.00    -9800.00
01078             160.00   -10000.00
01079             160.00   -10000.00
01080             200.00   -10000.00
01081             200.00   -10000.00
01082             200.00   -10000.00
01083             200.00   -10000.00
01084             160.00   -10000.00
01085             160.00    -9800.00
01086             160.00   -10000.00
01087             160.00    -9800.00
01088             200.00   -10000.00
01089             200.00    -9800.00
01090             200.00    -9800.00
01091             200.00    -9800.00
01092             160.00    -9600.00
01093             160.00    -9800.00
01094             200.00    -9600.00
01095             200.00    -9400.00
01096             200.00    -9400.00
01097             200.00    -9400.00
01098             200.00    -9400.00
01099             160.00    -9200.00
01100             200.00    -9200.00
01101             200.00    -9200.00
01102             200.00    -9200.00
01103             200.00    -9000.00
01104             200.00    -9000.00
01105             160.00    -8800.00
01106             200.00    -8600.00
01107             200.00    -8600.00
01108             200.00    -8600.00
01109             160.00    -8400.00
01110             200.00    -8400.00
01111             160.00    -8200.00
01112             160.00    -8200.00
01113             160.00    -8200.00
01114             200.00    -7800.00
01115             200.00    -7800.00
01116             160.00    -7600.00
01117             200.00    -7600.00
01118             160.00    -7200.00
01119             160.00    -7200.00
01120             200.00    -7000.00
01121             160.00    -7000.00
01122             160.00    -7000.00
01123             160.00    -6800.00
01124             160.00    -6600.00
01125             160.00    -6600.00
01126             160.00    -6400.00
01127             160.00    -6200.00
01128             160.00    -6000.00
01129             160.00    -6000.00
01130             160.00    -5800.00
01131             160.00    -5600.00
01132             120.00    -5400.00
01133             160.00    -5400.00
01134             120.00    -5200.00
01135             160.00    -5000.00
01136             120.00    -4800.00
01137             120.00    -4600.00
01138             120.00    -4600.00
01139              80.00    -4400.00
01140             120.00    -4200.00
01141             120.00    -4200.00
01142             120.00    -3800.00
01143             120.00    -3600.00
01144             120.00    -3400.00
01145              80.00    -3400.00
01146             120.00    -3000.00
01147             120.00    -3000.00
01148              80.00    -2800.00
01149              40.00    -2600.00
01150              80.00    -2400.00
01151              80.00    -2200.00
01152              40.00    -2000.00
01153              80.00    -1800.00
01154              40.00    -1800.00
01155              80.00    -1400.00
01156              40.00    -1200.00
01157              40.00    -1000.00
01158               0.00     -800.00
01159              40.00     -600.00
01160              40.00     -400.00
01161              40.00     -400.00
01162              80.00     -200.00
01163              80.00      200.00
01164              40.00      200.00
01165             120.00      400.00
01166             160.00      600.00
01167             160.00      800.00
01168             160.00     1000.00
01169             120.00     1000.00
01170              80.00     1400.00
01171             120.00     1400.00
01172             640.00     1800.00
01173            1280.00     2200.00
01174             680.00     2000.00
01175            -680.00     2200.00
01176           -1760.00     2200.00
01177           -1800.00     2600.00
01178             120.00     3200.00
01179             880.00     2800.00
01180             120.00     3000.00
01181             640.00     3400.00
01182             320.00     3400.00
01183            -280.00     4200.00
01184              40.00     3800.00
01185            -200.00     3800.00
01186             200.00     4600.00
01187             160.00     3800.00
01188            -360.00     4600.00
01189              40.00     5000.00
01190            -160.00     4600.00
01191            -160.00     5400.00
01192              40.00     5000.00
01193               0.00     5600.00
01194               0.00     5400.00
01195            -200.00     5400.00
01196              40.00     6200.00
01197             -40.00     5800.00
01198            -160.00     6200.00
01199             -40.00     6200.00
01200            -120.00     6200.00
01201            -120.00     6600.00
01202            -200.00     6400.00
01203            -120.00     7200.00
01204             -40.00     7000.00
01205             -40.00     7000.00
01206            -120.00     7200.00
01207            -200.00     7400.00
01208            -120.00     7600.00
01209            -160.00     7600.00
01210             -40.00     7600.00
01211            -120.00     7800.00
01212            -160.00     8000.00
01213            -200.00     8200.00
01214            -200.00     8200.00
01215            -160.00     8200.00
01216            -120.00     8400.00
01217            -120.00     8600.00
01218            -200.00     8600.00
01219            -160.00     8600.00
01220            -200.00     8600.00
01221            -160.00     8800.00
01222            -160.00     9000.00
01223            -200.00     9000.00
01224            -200.00     9200.00
01225            -200.00     9200.00
01226            -160.00     9400.00
01227            -120.00     9400.00
01228            -160.00     9400.00
01229            -160.00     9400.00
01230            -160.00     9800.00
01231            -200.00     9600.00
01232            -200.00     9800.00
01233            -200.00     9800.00
01234            -160.00     9800.00
01235            -200.00     9800.00
01236            -160.00     9800.00
01237            -200.00     9800.00
01238            -200.00    10000.00
01239            -160.00    10000.00
01240            -160.00    10000.00
01241            -200.00    10000.00
01242            -200.00    10000.00
01243            -200.00    10000.00
01244            -200.00    10200.00
01245            -200.00    10000.00
01246            -200.00    10000.00
01247            -200.00    10000.00
01248            -200.00    10000.00
01249            -200.00    10000.00
01250            -200.00    10000.00
01251            -200.00     9800.00
01252            -200.00    10000.00
01253            -200.00     9800.00
01254            -200.00    10000.00
01255            -200.00    10000.00
01256            -200.00     9800.00
01257            -200.00    10000.00
01258            -200.00     9800.00
01259            -200.00     9800.00
01260            -200.00     9800.00
01261            -200.00     9800.00
01262            -200.00     9800.00
01263            -200.00     9400.00
01264            -200.00     9600.00
01265            -200.00     9400.00
01266            -200.00     9400.00
01267            -200.00     9200.00
01268            -200.00     9200.00
01269            -200.00     9200.00
01270            -200.00     9000.00
01271            -200.00     9000.00
01272            -200.00     9000.00
01273            -200.00     8800.00
01274            -200.00     8600.00
01275            -200.00     8600.00
01276            -200.00     8400.00
01277            -200.00     8400.00
01278            -200.00     8200.00
01279            -200.00     8200.00
01280            -200.00     8000.00
01281            -200.00     8000.00
01282            -200.00     7800.00
01283            -200.00     7600.00
01284            -200.00     7600.00
01285            -200.00     7400.00
01286            -200.00     7400.00
01287            -200.00     7200.00
01288            -200.00     7000.00
01289            -200.00     7000.00
01290            -160.00     6600.00
01291            -160.00     6600.00
01292            -200.00     6600.00
01293            -160.00     6600.00
01294            -160.00     6200.00
01295            -200.00     6200.00
01296            -160.00     6000.00
01297            -160.00     5800.00
01298            -200.00     5800.00
01299            -160.00     5400.00
01300            -160.00     5400.00
01301            -160.00     5200.00
01302            -160.00     5200.00
01303            -160.00     4800.00
01304            -160.00     4600.00
01305            -120.00     4400.00
01306            -120.00     4200.00
01307            -120.00     4200.00
01308            -120.00     4000.00
01309            -120.00     3800.00
01310            -120.00     3800.00
01311             -40.00     3400.00
01312            -120.00     3400.00
01313            -120.00     3000.00
01314            -120.00     3000.00
01315            -120.00     2800.00
01316            -120.00     2600.00
01317            -160.00     2400.00
01318            -120.00     2200.00
01319             -40.00     2000.00
01320             -80.00     1800.00
01321             -40.00     1800.00
01322             -40.00     1400.00
01323             -40.00     1200.00
01324             -40.00     1200.00
01325             -40.00     1000.00
01326             -40.00      800.00
01327             -40.00      600.00
01328             -80.00      400.00
01329             -40.00      200.00
01330             -80.00        0.00
01331             -40.00     -200.00
01332              40.00     -400.00
01333             120.00     -400.00
01334             120.00     -800.00
01335              40.00     -800.00
01336               0.00    -1000.00
01337               0.00    -1000.00
01338               0.00    -1200.00
01339             160.00    -1600.00
01340             760.00    -1600.00
01341            1080.00    -2200.00
01342             320.00    -2200.00
01343            -760.00    -2400.00
01344           -1400.00    -2600.00
01345           -1480.00    -2600.00
01346            -160.00    -2600.00
01347             680.00    -3200.00
01348             160.00    -3000.00
01349             520.00    -3400.00
01350             440.00    -3800.00
01351            -120.00    -3200.00
01352             200.00    -4200.00
01353             -40.00    -4000.00
01354               0.00    -4200.00
01355             320.00    -4600.00
01356             -40.00    -4400.00
01357            -120.00    -5000.00
01358               0.00    -4800.00
01359             120.00    -5200.00
01360              80.00    -5400.00
01361             120.00    -5200.00
01362             120.00    -5800.00
01363             -40.00    -5800.00
01364             160.00    -6000.00
01365             160.00    -6200.00
01366              40.00    -6200.00
01367             120.00    -6600.00
01368             120.00    -6600.00
01369             120.00    -6600.00
01370              40.00    -7000.00
01371             120.00    -6800.00
01372             160.00    -7000.00
01373             160.00    -7000.00
01374             160.00    -7400.00
01375             120.00    -7400.00
01376             120.00    -7600.00
01377             120.00    -7800.00
01378             120.00    -7800.00
01379             160.00    -8000.00
01380             120.00    -8200.00
01381             120.00    -8200.00
01382             160.00    -8200.00
01383             160.00    -8400.00
01384             160.00    -8600.00
01385             160.00    -8600.00
01386             120.00    -8600.00
01387             160.00    -8800.00
01388             160.00    -9000.00
01389             160.00    -9000.00
01390             160.00    -9200.00
01391             160.00    -9200.00
01392             120.00    -9200.00
01393             120.00    -9400.00
01394             160.00    -9200.00
01395             200.00    -9400.00
01396             200.00    -9400.00
01397             160.00    -9400.00
01398             160.00    -9600.00
01399             120.00    -9600.00
01400             160.00    -9800.00
01401             160.00    -9600.00
01402             200.00    -9800.00
01403             160.00    -9800.00
01404             160.00    -9800.00
01405             160.00    -9800.00
01406             120.00   -10000.00
01407             120.00   -10000.00
01408             200.00   -10000.00
01409             200.00   -10000.00
01410             160.00   -10000.00
01411             160.00   -10000.00
01412             160.00   -10000.00
01413             160.00   -10000.00
01414             160.00   -10000.00
01415             200.00   -10000.00
01416             200.00   -10000.00
01417             200.00   -10000.00
01418             160.00   -10000.00
01419             160.00   -10000.00
01420             200.00    -9800.00
01421             200.00    -9800.00
01422             280.00    -9800.00
01423             240.00    -9800.00
01424             200.00    -9800.00
01425             160.00    -9800.00
01426             200.00    -9800.00
01427             200.00    -9600.00
01428             200.00    -9600.00
01429             200.00    -9600.00
01430             200.00    -9600.00
01431             200.00    -9400.00
01432             160.00    -9400.00
01433             200.00    -9200.00
01434             160.00    -9200.00
01435             240.00    -9200.00
01436             200.00    -9000.00
01437             240.00    -9000.00
01438             200.00    -9000.00
01439             200.00    -8800.00
01440             240.00    -8800.00
01441             160.00    -8800.00
01442             200.00    -8600.00
01443             200.00    -8400.00
01444             160.00    -8400.00
01445             160.00    -8200.00
01446             200.00    -8200.00
01447             160.00    -8200.00
01448             200.00    -7800.00
01449             200.00    -7800.00
01450             200.00    -7600.00
01451             120.00    -7600.00
01452             160.00    -7600.00
01453             160.00    -7200.00
01454             200.00    -7200.00
01455             160.00    -7200.00
01456             160.00    -7000.00
01457             160.00    -6800.00
01458             160.00    -6800.00
01459             160.00    -6600.00
01460             160.00    -6400.00
01461             120.00    -6200.00
01462             160.00    -6200.00
01463             120.00    -6000.00
01464             120.00    -5800.00
01465             120.00    -5600.00
01466             120.00    -5400.00
01467             120.00    -5400.00
01468             120.00    -5200.00
01469             160.00    -5000.00
01470             120.00    -4800.00
01471             120.00    -4600.00
01472             120.00    -4600.00
01473             120.00    -4400.00
01474             120.00    -4200.00
01475             120.00    -4200.00
01476             120.00    -3800.00
01477             120.00    -3600.00
01478              40.00    -3400.00
01479              80.00    -3400.00
01480             120.00    -3200.00
01481             120.00    -3000.00
01482              40.00    -2800.00
01483              80.00    -2600.00
01484              40.00    -2200.00
01485              40.00    -2200.00
01486              40.00    -2000.00
01487              40.00    -1800.00
01488             120.00    -1800.00
01489              40.00    -1400.00
01490              80.00    -1400.00
01491              40.00     -800.00
01492               0.00     -800.00
01493              40.00     -600.00
01494              40.00     -600.00
01495              40.00     -400.00
01496              40.00     -200.00
01497              40.00        0.00
01498              40.00      200.00
01499             120.00      400.00
01500             160.00      400.00
01501             200.00      600.00
01502             160.00      800.00
01503             120.00     1000.00
01504             120.00     1200.00
01505              80.00     1200.00
01506             320.00     1800.00
01507            1120.00     2000.00
01508            1120.00     2000.00
01509            -120.00     2200.00
01510           -1400.00     2200.00
01511           -2040.00     2200.00
01512            -800.00     3000.00
01513            1000.00     3000.00
01514             320.00     2800.00
01515             360.00     3400.00
01516             640.00     3000.00
01517            -240.00     3800.00
01518             -40.00     4200.00
01519            -120.00     3600.00
01520             -80.00     4600.00
01521             440.00     4200.00
01522            -280.00     4200.00
01523            -200.00     5000.00
01524             -40.00     4600.00
01525            -280.00     5200.00
01526              40.00     5000.00
01527               0.00     5200.00
01528              40.00     6000.00
01529            -160.00     5200.00
01530            -120.00     6000.00
01531             120.00     5800.00
01532            -200.00     6000.00
01533             -40.00     6200.00
01534             -40.00     6200.00
01535             -40.00     6800.00
01536            -120.00     6600.00
01537            -120.00     6800.00
01538             -40.00     7000.00
01539             -40.00     6800.00
01540             -40.00     7400.00
01541            -120.00     7200.00
01542            -120.00     7400.00
01543            -160.00     7600.00
01544            -120.00     7800.00
01545            -120.00     7800.00
01546            -160.00     7800.00
01547            -160.00     8200.00
01548            -200.00     8200.00
01549            -120.00     8400.00
01550            -120.00     8400.00
01551            -120.00     8400.00
01552            -160.00     8400.00
01553            -200.00     8600.00
01554            -160.00     9000.00
01555            -160.00     8800.00
01556            -160.00     9000.00
01557            -160.00     9200.00
01558            -160.00     9000.00
01559            -200.00     9400.00
01560            -160.00     9200.00
01561            -160.00     9400.00
01562            -160.00     9400.00
01563            -160.00     9600.00
01564            -200.00     9600.00
01565            -200.00     9600.00
01566            -200.00     9800.00
01567            -160.00     9800.00
01568            -160.00     9800.00
01569            -160.00     9800.00
01570            -200.00     9800.00
01571            -200.00    10000.00
01572            -200.00    10000.00
01573            -200.00    10000.00
01574            -160.00    10000.00
01575            -160.00    10000.00
01576            -200.00    10200.00
01577            -200.00    10000.00
01578            -200.00    10000.00
01579            -200.00    10000.00
01580            -200.00    10000.00
01581            -200.00    10000.00
01582            -200.00    10000.00
01583            -200.00    10000.00
01584            -200.00    10000.00
01585            -200.00    10000.00
01586            -200.00    10000.00
01587            -200.00    10000.00
01588            -200.00    10000.00
01589            -200.00    10000.00
01590            -200.00     9800.00
01591            -200.00     9800.00
01592            -200.00     9800.00
01593            -200.00     9800.00
01594            -200.00     9800.00
01595            -200.00     9800.00
01596            -200.00     9400.00
01597            -200.00     9600.00
01598            -200.00     9400.00
01599            -200.00     9400.00
01600            -240.00     9400.00
01601            -200.00     9400.00
01602            -200.00     9400.00
01603            -200.00     9200.00
01604            -200.00     9200.00
01605            -240.00     8800.00
01606            -240.00     9000.00
01607            -200.00     8800.00
01608            -200.00     8600.00
01609            -200.00     8600.00
01610            -200.00     8600.00
01611            -200.00     8400.00
01612            -200.00     8400.00
01613            -200.00     8200.00
01614            -200.00     8200.00
01615            -200.00     8200.00
01616            -200.00     8000.00
01617            -200.00     7800.00
01618            -200.00     7600.00
01619            -200.00     7600.00
01620            -200.00     7400.00
01621            -160.00     7200.00
01622            -160.00     7000.00
01623            -160.00     6800.00
01624            -200.00     7000.00
01625            -200.00     6600.00
01626            -160.00     6600.00
01627            -160.00     6600.00
01628            -160.00     6600.00
01629            -160.00     6200.00
01630            -160.00     6000.00
01631            -160.00     5800.00
01632            -200.00     5600.00
01633            -160.00     5600.00
01634            -160.00     5400.00
01635            -160.00     5400.00
01636            -160.00     5200.00
01637            -160.00     4800.00
01638            -160.00     4800.00
01639            -160.00     4600.00
01640            -120.00     4400.00
01641            -120.00     4400.00
01642            -160.00     3800.00
01643            -120.00     4000.00
01644            -120.00     3800.00
01645            -120.00     3600.00
01646            -120.00     3400.00
01647            -120.00     3000.00
01648            -120.00     3000.00
01649            -160.00     2800.00
01650            -160.00     2600.00
01651            -160.00     2200.00
01652            -120.00     2200.00
01653             -40.00     2000.00
01654             -40.00     1800.00
01655            -120.00     1800.00
01656            -120.00     1600.00
01657            -120.00     1400.00
01658            -120.00     1000.00
01659             -40.00     1000.00
01660             -40.00     1000.00
01661             -40.00      600.00
01662             -40.00      200.00
01663            -120.00      400.00
01664             -40.00        0.00
01665             -40.00        0.00
01666               0.00     -400.00
01667             120.00     -400.00
01668             120.00     -600.00
01669             120.00     -800.00
01670               0.00     -800.00
01671               0.00    -1200.00
01672             -40.00    -1200.00
01673              40.00    -1400.00
01674             480.00    -1400.00
01675            1080.00    -2000.00
01676             760.00    -2400.00
01677            -320.00    -2400.00
01678           -1160.00    -2600.00
01679           -1560.00    -2600.00
01680            -840.00    -2600.00
01681             600.00    -3200.00
01682             360.00    -3000.00
01683             320.00    -3000.00
01684             640.00    -3800.00
01685               0.00    -3400.00
01686             120.00    -3600.00
01687              80.00    -4200.00
01688            -160.00    -4200.00
01689             280.00    -4600.00
01690             120.00    -4400.00
01691            -160.00    -5000.00
01692            -120.00    -5000.00
01693               0.00    -4800.00
01694             120.00    -5400.00
01695              80.00    -5200.00
01696             160.00    -5400.00
01697              80.00    -5800.00
01698              40.00    -5800.00
01699             200.00    -6200.00
01700              40.00    -6000.00
01701              40.00    -6600.00
01702             120.00    -6400.00
01703             120.00    -6400.00
01704             120.00    -6800.00
01705              40.00    -7000.00
01706             160.00    -7000.00
01707             200.00    -7000.00
01708             120.00    -7200.00
01709             120.00    -7400.00
01710             120.00    -7400.00
01711             120.00    -7800.00
01712             160.00    -7800.00
01713             160.00    -7800.00
01714             120.00    -8000.00
01715              80.00    -8200.00
01716             160.00    -8200.00
01717             160.00    -8400.00
01718             120.00    -8400.00
01719             200.00    -8600.00
01720             120.00    -8600.00
01721             120.00    -8800.00
01722             120.00    -8800.00
01723             160.00    -9000.00
01724             160.00    -9200.00
01725             160.00    -9000.00
01726             160.00    -9000.00
01727             120.00    -9200.00
01728             160.00    -9400.00
01729             200.00    -9400.00
01730             200.00    -9400.00
01731             160.00    -9400.00
01732             160.00    -9600.00
01733             160.00    -9600.00
01734             160.00    -9600.00
01735             160.00    -9800.00
01736             160.00    -9800.00
01737             160.00    -9800.00
01738             160.00    -9800.00
01739             160.00    -9800.00
01740             160.00    -9800.00
01741             160.00    -9800.00
01742             160.00   -10000.00
01743             160.00    -9800.00
01744             200.00   -10000.00
01745             160.00   -10000.00
01746             160.00   -10000.00
01747             160.00   -10000.00
01748             160.00   -10000.00
01749             200.00   -10000.00
01750             240.00    -9800.00
01751             200.00   -10000.00
01752             200.00   -10000.00
01753             200.00    -9800.00
01754             160.00   -10000.00
01755             160.00   -10000.00
01756             200.00   -10000.00
01757             200.00    -9800.00
01758             200.00    -9800.00
01759             200.00    -9800.00
01760             200.00    -9800.00
01761             200.00    -9800.00
01762             200.00    -9800.00
01763             200.00    -9400.00
01764             200.00    -9400.00
01765             200.00    -9400.00
01766             200.00    -9400.00
01767             160.00    -9400.00
01768             200.00    -9200.00
01769             200.00    -9200.00
01770             240.00    -9200.00
01771             200.00    -9200.00
01772             200.00    -9000.00
01773             200.00    -9000.00
01774             160.00    -8800.00
01775             200.00    -8600.00
01776             200.00    -8600.00
01777             200.00    -8600.00
01778             200.00    -8400.00
01779             200.00    -8400.00
01780             160.00    -8200.00
01781             160.00    -8200.00
01782             160.00    -8000.00
01783             160.00    -8000.00
01784             160.00    -7800.00
01785             160.00    -7600.00
01786             160.00    -7600.00
01787             160.00    -7400.00
01788             160.00    -7200.00
01789             160.00    -7200.00
01790             160.00    -7000.00
01791             120.00    -7000.00
01792             160.00    -6800.00
01793             120.00    -6600.00
01794             160.00    -6600.00
01795             160.00    -6600.00
01796             160.00    -6200.00
01797             120.00    -6000.00
01798             120.00    -6000.00
01799             120.00    -5800.00
01800             120.00    -5600.00
01801             120.00    -5400.00
01802             120.00    -5200.00
01803             120.00    -5200.00
01804             120.00    -5000.00
01805             120.00    -4600.00
01806             120.00    -4600.00
01807             120.00    -4400.00
01808             120.00    -4200.00
01809             120.00    -4200.00
01810              80.00    -4000.00
01811             120.00    -3800.00
01812             120.00    -3400.00
01813             120.00    -3400.00
01814             120.00    -3200.00
01815             120.00    -3000.00
01816              80.00    -2800.00
01817             120.00    -2800.00
01818              40.00    -2400.00
01819              40.00    -2400.00
01820              40.00    -2000.00
01821             120.00    -1800.00
01822              40.00    -1800.00
01823             120.00    -1600.00
01824              40.00    -1200.00
01825             120.00    -1200.00
01826              40.00     -800.00
01827              40.00     -800.00
01828              40.00     -600.00
01829              40.00     -400.00
01830              40.00     -400.00
01831              40.00        0.00
01832              40.00      200.00
01833             120.00      400.00
01834             120.00      400.00
01835             160.00      600.00
01836             200.00      800.00
01837             120.00     1000.00
01838             120.00     1000.00
01839              40.00     1400.00
01840             160.00     1400.00
01841             760.00     1800.00
01842            1280.00     2000.00
01843             480.00     2200.00
01844            -920.00     2200.00
01845           -1920.00     2200.00
01846           -1600.00     2800.00
01847             480.00     3000.00
01848             760.00     2800.00
01849             120.00     3400.00
01850             680.00     3000.00
01851             120.00     3400.00
01852            -280.00     4200.00
01853               0.00     3400.00
01854            -280.00     4000.00
01855             320.00     4600.00
01856               0.00     3800.00
01857            -360.00     5000.00
01858              40.00     4600.00
01859            -200.00     4800.00
01860             -80.00     5200.00
01861              40.00     4800.00
01862               0.00     5800.00
01863             -40.00     5400.00
01864            -200.00     5600.00
01865             120.00     6000.00
01866            -160.00     5800.00
01867            -160.00     6400.00
01868             -40.00     6200.00
01869            -120.00     6600.00
01870             -80.00     6600.00
01871            -160.00     6600.00
01872             -80.00     7000.00
01873            -120.00     6800.00
01874             -40.00     7200.00
01875            -120.00     7400.00
01876            -160.00     7400.00
01877            -120.00     7600.00
01878            -160.00     7600.00
01879             -40.00     7800.00
01880            -120.00     7800.00
01881            -120.00     8200.00
01882            -200.00     8200.00
01883            -160.00     8400.00
01884            -120.00     8400.00
01885             -80.00     8400.00
01886            -120.00     8600.00
01887            -200.00     8600.00
01888            -120.00     8600.00
01889            -160.00     8800.00
01890            -160.00     9000.00
01891            -160.00     9200.00
01892            -160.00     9200.00
01893            -200.00     9200.00
01894            -160.00     9200.00
01895            -120.00     9400.00
01896            -160.00     9400.00
01897            -160.00     9400.00
01898            -200.00     9400.00
01899            -200.00     9800.00
01900            -200.00     9600.00
01901            -160.00     9800.00
01902            -160.00     9800.00
01903            -200.00     9800.00
01904            -200.00     9800.00
01905            -160.00    10000.00
01906            -200.00    10000.00
01907            -200.00     9800.00
01908            -160.00    10000.00
01909            -160.00    10000.00
01910            -200.00     9800.00
01911            -200.00    10000.00
01912            -200.00    10000.00
01913            -200.00    10000.00
01914            -200.00    10200.00
01915            -200.00    10200.00
01916            -200.00    10000.00
01917            -200.00    10000.00
01918            -200.00    10000.00
01919            -200.00    10000.00
01920            -200.00    10000.00
01921            -240.00    10000.00
01922            -200.00     9800.00
01923            -200.00    10000.00
01924            -200.00     9800.00
01925            -200.00     9800.00
01926            -200.00     9800.00
01927            -200.00     9800.00
01928            -200.00     9800.00
01929            -200.00     9800.00
01930            -240.00     9600.00
01931            -200.00     9600.00
01932            -200.00     9400.00
01933            -240.00     9400.00
01934            -280.00     9400.00
01935            -240.00     9200.00
01936            -200.00     9200.00
01937            -200.00     9200.00
01938            -200.00     9200.00
01939            -200.00     9000.00
01940            -200.00     9000.00
01941            -200.00     8800.00
01942            -160.00     8800.00
01943            -200.00     8800.00
01944            -200.00     8400.00
01945            -200.00     8600.00
01946            -200.00     8400.00
01947            -200.00     8200.00
01948            -200.00     8200.00
01949            -200.00     8200.00
01950            -200.00     8000.00
01951            -200.00     7800.00
01952            -200.00     7600.00
01953            -200.00     7600.00
01954            -200.00     7600.00
01955            -160.00     7400.00
01956            -160.00     7000.00
01957            -160.00     7000.00
01958            -160.00     6800.00
01959            -200.00     6800.00
01960            -200.00     6600.00
01961            -160.00     6600.00
01962            -160.00     6600.00
01963            -160.00     6200.00
01964            -200.00     6000.00
01965            -160.00     5800.00
01966            -200.00     5800.00
01967            -160.00     5800.00
01968            -160.00     5400.00
01969            -160.00     5200.00
01970            -160.00     5000.00
01971            -160.00     5000.00
01972            -120.00     4800.00
01973            -160.00     4600.00
01974            -120.00     4600.00
01975            -120.00     4400.00
01976            -120.00     4200.00
01977            -120.00     3800.00
01978            -120.00     3800.00
01979            -120.00     3600.00
01980            -160.00     3400.00
01981            -120.00     3200.00
01982            -160.00     3000.00
01983            -160.00     2800.00
01984            -120.00     2600.00
01985            -120.00     2600.00
01986            -160.00     2200.00
01987            -120.00     2000.00
01988            -120.00     2000.00
01989             -40.00     1800.00
01990             -80.00     1400.00
01991             -80.00     1400.00
01992            -120.00     1200.00
01993             -40.00     1000.00
01994            -120.00      800.00
01995            -120.00      600.00
01996             -40.00      400.00
01997             -40.00      400.00
01998             -40.00      200.00
01999             -40.00     -200.00
02000               0.00     -200.00
02001              40.00     -400.00
02002             120.00     -600.00
02003             120.00     -800.00
02004              40.00    -1000.00
02005               0.00    -1200.00
02006               0.00    -1200.00
02007               0.00    -1400.00
02008             280.00    -1400.00
02009             840.00    -1800.00
02010            1000.00    -2400.00
02011             120.00    -2400.00
02012            -920.00    -2600.00
02013           -1440.00    -2600.00
02014           -1320.00    -2400.00
02015             160.00    -2800.00
02016             640.00    -3400.00
02017             160.00    -3000.00
02018             600.00    -3600.00
02019             280.00    -3600.00
02020               0.00    -3400.00
02021             200.00    -4200.00
02022            -120.00    -4000.00
02023             120.00    -4400.00
02024             280.00    -4600.00
02025             -80.00    -4600.00
02026            -160.00    -5000.00
02027             -40.00    -4600.00
02028             120.00    -5200.00
02029              40.00    -5400.00
02030             160.00    -5200.00
02031             120.00    -5800.00
02032               0.00    -5800.00
02033             160.00    -6200.00
02034             160.00    -6000.00
02035               0.00    -6200.00
02036             120.00    -6600.00
02037             120.00    -6400.00
02038             120.00    -6800.00
02039              40.00    -6800.00
02040             120.00    -6800.00
02041             160.00    -7200.00
02042             120.00    -7200.00
02043             120.00    -7400.00
02044             120.00    -7400.00
02045             120.00    -7600.00
02046             120.00    -7600.00
02047             120.00    -7800.00
02048             120.00    -8000.00
02049              80.00    -8200.00
02050             120.00    -8200.00
02051             160.00    -8200.00
02052             160.00    -8400.00
02053             160.00    -8600.00
02054             160.00    -8600.00
02055             120.00    -8600.00
02056             120.00    -9000.00
02057             120.00    -8800.00
02058             160.00    -9000.00
02059             160.00    -9000.00
02060             160.00    -9200.00
02061             160.00    -9200.00
02062             120.00    -9200.00
02063             160.00    -9400.00
02064             200.00    -9400.00
02065             200.00    -9400.00
02066             160.00    -9800.00
02067             160.00    -9600.00
02068             160.00    -9600.00
02069             160.00    -9800.00
02070             160.00    -9600.00
02071             200.00    -9800.00
02072             200.00    -9800.00
02073             160.00    -9800.00
02074             200.00    -9800.00
02075             160.00    -9800.00
02076             200.00   -10000.00
02077             200.00   -10000.00
02078             200.00   -10000.00
02079             160.00   -10000.00
02080             160.00   -10000.00
02081             160.00   -10000.00
02082             200.00   -10000.00
02083             200.00   -10000.00
02084             240.00   -10000.00
02085             200.00   -10000.00
02086             200.00   -10000.00
02087             200.00    -9800.00
02088             160.00   -10000.00
02089             200.00    -9800.00
02090             200.00   -10000.00
02091             240.00    -9800.00
02092             200.00    -9800.00
02093             200.00    -9800.00
02094             160.00    -9600.00
02095             200.00    -9800.00
02096             200.00    -9600.00
02097             200.00    -9600.00
02098             280.00    -9600.00
02099             200.00    -9600.00
02100             200.00    -9400.00
02101             160.00    -9400.00
02102             200.00    -9400.00
02103             160.00    -9200.00
02104             200.00    -9200.00
02105             200.00    -9000.00
02106             200.00    -9000.00
02107             160.00    -9000.00
02108             200.00    -9000.00
02109             160.00    -8600.00
02110             200.00    -8600.00
02111             200.00    -8600.00
02112             160.00    -8600.00
02113             160.00    -8400.00
02114             160.00    -8400.00
02115             160.00    -8200.00
02116             160.00    -8200.00
02117             200.00    -7800.00
02118             200.00    -7800.00
02119             160.00    -7800.00
02120             160.00    -7600.00
02121             160.00    -7400.00
02122             160.00    -7200.00
02123             160.00    -7200.00
02124             160.00    -7000.00
02125             160.00    -7000.00
02126             160.00    -6800.00
02127             160.00    -6600.00
02128             160.00    -6400.00
02129             160.00    -6400.00
02130             160.00    -6200.00
02131             160.00    -6000.00
02132             120.00    -6000.00
02133             160.00    -5800.00
02134             120.00    -5600.00
02135             120.00    -5400.00
02136             120.00    -5200.00
02137             160.00    -5200.00
02138             120.00    -5000.00
02139             120.00    -4800.00
02140             120.00    -4600.00
02141             120.00    -4400.00
02142             120.00    -4200.00
02143             120.00    -4200.00
02144             120.00    -4000.00
02145             120.00    -3800.00
02146             120.00    -3400.00
02147             120.00    -3400.00
02148             120.00    -3200.00
02149             120.00    -3000.00
02150             120.00    -3000.00
02151             120.00    -2800.00
02152             120.00    -2600.00
02153              80.00    -2400.00
02154              80.00    -2200.00
02155             120.00    -2000.00
02156             120.00    -1800.00
02157             120.00    -1800.00
02158              80.00    -1400.00
02159             120.00    -1200.00
02160              40.00    -1000.00
02161              40.00     -800.00
02162              40.00     -600.00
02163              40.00     -400.00
02164              80.00     -400.00
02165              40.00        0.00
02166              40.00      200.00
02167              40.00      200.00
02168             120.00      400.00
02169             160.00      600.00
02170             200.00      800.00
02171             160.00      800.00
02172             120.00     1000.00
02173              40.00     1200.00
02174              80.00     1200.00
02175             440.00     1800.00
02176            1160.00     2000.00
02177             960.00     2200.00
02178            -320.00     2200.00
02179           -1560.00     2200.00
02180           -2000.00     2400.00
02181            -440.00     3200.00
02182             960.00     3000.00
02183             160.00     3000.00
02184             480.00     3400.00
02185             480.00     3000.00
02186            -320.00     4200.00
02187               0.00     3800.00
02188            -200.00     3600.00
02189               0.00     4600.00
02190             360.00     4000.00
02191            -360.00     4400.00
02192            -120.00     5200.00
02193             -80.00     4600.00
02194            -200.00     5200.00
02195              40.00     5000.00
02196             -40.00     5400.00
02197               0.00     5800.00
02198            -280.00     5400.00
02199             -40.00     6200.00
02200              40.00     5800.00
02201            -160.00     6200.00
02202               0.00     6400.00
02203             -40.00     6200.00
02204            -120.00     6800.00
02205            -200.00     6400.00
02206            -160.00     7000.00
02207             -40.00     7000.00
02208             -40.00     7000.00
02209             -40.00     7400.00
02210            -120.00     7200.00
02211            -120.00     7600.00
02212            -160.00     7400.00
02213             -40.00     7800.00
02214            -120.00     8000.00
02215            -160.00     7800.00
02216            -120.00     8200.00
02217            -160.00     8200.00
02218            -120.00     8200.00
02219            -120.00     8400.00
02220            -120.00     8600.00
02221            -200.00     8600.00
02222            -160.00     8600.00
02223            -160.00     9000.00
02224            -120.00     9000.00
02225            -120.00     9000.00
02226            -160.00     9200.00
02227            -200.00     9200.00
02228            -200.00     9200.00
02229            -160.00     9400.00
02230            -160.00     9400.00
02231            -160.00     9400.00
02232            -160.00     9400.00
02233            -160.00     9600.00
02234            -200.00     9600.00
02235            -200.00     9800.00
02236            -160.00     9800.00
02237            -160.00     9800.00
02238            -160.00     9800.00
02239            -160.00     9800.00
02240            -200.00     9800.00
02241            -200.00     9800.00
02242            -200.00    10000.00
02243            -200.00    10000.00
02244            -160.00    10000.00
02245            -200.00    10000.00
02246            -200.00    10000.00
02247            -200.00    10000.00
02248            -200.00    10000.00
02249            -200.00    10000.00
02250            -200.00    10000.00
02251            -200.00    10000.00
02252            -200.00    10000.00
02253            -200.00    10000.00
02254            -200.00    10000.00
02255            -280.00    10000.00
02256            -240.00    10000.00
02257            -200.00    10000.00
02258            -200.00    10000.00
02259            -200.00     9800.00
02260            -200.00    10000.00
02261            -200.00     9800.00
02262            -200.00     9800.00
02263            -200.00     9800.00
02264            -200.00     9600.00
02265            -200.00     9600.00
02266            -200.00     9400.00
02267            -200.00     9400.00
02268            -200.00     9400.00
02269            -240.00     9400.00
02270            -200.00     9400.00
02271            -160.00     9200.00
02272            -200.00     9400.00
02273            -200.00     9000.00
02274            -200.00     9000.00
02275            -200.00     9200.00
02276            -200.00     8800.00
02277            -200.00     8600.00
02278            -200.00     8600.00
02279            -200.00     8400.00
02280            -200.00     8400.00
02281            -200.00     8400.00
02282            -200.00     8200.00
02283            -200.00     8200.00
02284            -160.00     8000.00
02285            -200.00     7800.00
02286            -200.00     7800.00
02287            -200.00     7600.00
02288            -200.00     7400.00
02289            -200.00     7400.00
02290            -160.00     7200.00
02291            -160.00     7000.00
02292            -200.00     7000.00
02293            -200.00     6800.00
02294            -160.00     6600.00
02295            -160.00     6600.00
02296            -200.00     6400.00
02297            -160.00     6200.00
02298            -200.00     6200.00
02299            -160.00     6000.00
02300            -160.00     5800.00
02301            -200.00     5600.00
02302            -160.00     5400.00
02303            -160.00     5400.00
02304            -160.00     5400.00
02305            -160.00     5000.00
02306            -160.00     5000.00
02307            -160.00     4600.00
02308            -160.00     4400.00
02309            -160.00     4400.00
02310            -120.00     4200.00
02311            -160.00     4200.00
02312            -160.00     3800.00
02313            -160.00     3800.00
02314            -160.00     3400.00
02315            -120.00     3400.00
02316            -120.00     3000.00
02317            -120.00     3000.00
02318            -120.00     2800.00
02319            -120.00     2600.00
02320            -160.00     2400.00
02321            -160.00     2200.00
02322            -120.00     2000.00
02323            -120.00     1800.00
02324             -40.00     1600.00
02325             -40.00     1400.00
02326             -40.00     1200.00
02327            -120.00     1000.00
02328             -40.00     1000.00
02329             -40.00      800.00
02330             -80.00      600.00
02331             -40.00      400.00
02332             -40.00      200.00
02333             -40.00      200.00
02334             -40.00     -200.00
02335               0.00     -400.00
02336             120.00     -600.00
02337             120.00     -600.00
02338              80.00     -800.00
02339              40.00    -1000.00
02340               0.00    -1200.00
02341               0.00    -1400.00
02342             120.00    -1400.00
02343             560.00    -1800.00
02344            1120.00    -2200.00
02345             600.00    -2400.00
02346            -520.00    -2400.00
02347           -1240.00    -2600.00
02348           -1520.00    -2600.00
02349            -600.00    -2600.00
02350             680.00    -3400.00
02351             320.00    -3000.00
02352             440.00    -3000.00
02353             600.00    -3800.00
02354             -40.00    -3400.00
02355             160.00    -3800.00
02356               0.00    -4200.00
02357            -120.00    -4200.00
02358             320.00    -4600.00
02359              80.00    -4400.00
02360            -160.00    -5000.00
02361             -40.00    -5000.00
02362               0.00    -5000.00
02363              80.00    -5400.00
02364              80.00    -5200.00
02365             160.00    -5800.00
02366               0.00    -5800.00
02367             120.00    -5800.00
02368             200.00    -6200.00
02369               0.00    -6000.00
02370              80.00    -6600.00
02371             120.00    -6400.00
02372             120.00    -6600.00
02373              40.00    -6800.00
02374              40.00    -6800.00
02375             120.00    -7000.00
02376             120.00    -7000.00
02377             120.00    -7400.00
02378              80.00    -7200.00
02379             120.00    -7600.00
02380             120.00    -7800.00
02381             120.00    -7800.00
02382             120.00    -8000.00
02383             120.00    -8200.00
02384             120.00    -8200.00
02385             120.00    -8200.00
02386             160.00    -8600.00
02387             120.00    -8400.00
02388             160.00    -8600.00
02389             120.00    -8600.00
02390             120.00    -8600.00
02391             120.00    -9000.00
02392             160.00    -9000.00
02393             160.00    -9000.00
02394             160.00    -9200.00
02395             160.00    -9200.00
02396             120.00    -9200.00
02397             160.00    -9400.00
02398             200.00    -9400.00
02399             160.00    -9200.00
02400             160.00    -9600.00
02401             160.00    -9800.00
02402             160.00    -9400.00
02403             120.00    -9800.00
02404             160.00    -9800.00
02405             200.00    -9800.00
02406             200.00    -9800.00
02407             200.00    -9800.00
02408             200.00    -9800.00
02409             160.00    -9800.00
02410             160.00   -10000.00
02411             160.00   -10000.00
02412             200.00    -9800.00
02413             200.00   -10000.00
02414             160.00   -10000.00
02415             160.00   -10000.00
02416             200.00   -10000.00
02417             200.00   -10000.00
02418             200.00   -10000.00
02419             240.00   -10000.00
02420             200.00   -10000.00
02421             200.00   -10000.00
02422             160.00   -10000.00
02423             200.00    -9800.00
02424             200.00   -10000.00
02425             200.00    -9800.00
02426             200.00   -10000.00
02427             200.00    -9800.00
02428             200.00    -9800.00
02429             160.00    -9800.00
02430             200.00    -9800.00
02431             200.00    -9600.00
02432             200.00    -9600.00
02433             280.00    -9400.00
02434             200.00    -9600.00
02435             160.00    -9400.00
02436             160.00    -9400.00
02437             120.00    -9200.00
02438             200.00    -9200.00
02439             200.00    -9200.00
02440             160.00    -9000.00
02441             160.00    -9000.00
02442             200.00    -9000.00
02443             200.00    -8800.00
02444             160.00    -8800.00
02445             200.00    -8800.00
02446             200.00    -8600.00
02447             160.00    -8400.00
02448             160.00    -8400.00
02449             160.00    -8200.00
02450             160.00    -8200.00
02451             160.00    -7800.00
02452             160.00    -7800.00
02453             200.00    -7800.00
02454             160.00    -7600.00
02455             160.00    -7600.00
02456             120.00    -7200.00
02457             160.00    -7400.00
02458             160.00    -7000.00
02459             160.00    -7000.00
02460             160.00    -6800.00
02461             160.00    -6800.00
02462             160.00    -6600.00
02463             160.00    -6400.00
02464             160.00    -6400.00
02465             160.00    -6200.00
02466             160.00    -6000.00
02467             120.00    -6000.00
02468             160.00    -5800.00
02469             120.00    -5400.00
02470             160.00    -5400.00
02471             160.00    -5200.00
02472             120.00    -5200.00
02473             120.00    -4800.00
02474             120.00    -4800.00
02475             120.00    -4600.00
02476             120.00    -4400.00
02477             120.00    -4200.00
02478             160.00    -4200.00
02479             120.00    -3800.00
02480             120.00    -3800.00
02481             120.00    -3600.00
02482             120.00    -3200.00
02483             120.00    -3200.00
02484             120.00    -3000.00
02485             120.00    -2800.00
02486              40.00    -2600.00
02487              80.00    -2400.00
02488             120.00    -2200.00
02489             120.00    -2000.00
02490              80.00    -2000.00
02491             120.00    -1800.00
02492             120.00    -1400.00
02493              40.00    -1200.00
02494              40.00    -1200.00
02495              40.00     -800.00
02496              40.00     -800.00
02497               0.00     -600.00
02498              40.00     -400.00
02499              40.00     -200.00
02500              80.00        0.00
02501             120.00      200.00
02502              40.00      400.00
02503             120.00      600.00
02504             160.00      600.00
02505             160.00      800.00
02506             120.00     1000.00
02507             120.00     1200.00
02508             120.00     1400.00
02509             200.00     1400.00
02510             920.00     1800.00
02511            1240.00     2000.00
02512             200.00     2200.00
02513           -1160.00     2200.00
02514           -1960.00     2200.00
02515           -1320.00     3000.00
02516             760.00     3000.00
02517             520.00     2800.00
02518             160.00     3400.00
02519             680.00     3200.00
02520             -80.00     3600.00
02521            -200.00     4200.00
02522               0.00     3400.00
02523            -200.00     4200.00
02524             360.00     4400.00
02525            -160.00     4000.00
02526            -320.00     5000.00
02527               0.00     4800.00
02528            -280.00     4800.00
02529               0.00     5200.00
02530               0.00     5200.00
02531               0.00     6000.00
02532             -80.00     5400.00
02533            -160.00     5800.00
02534             120.00     6200.00
02535            -160.00     5800.00
02536            -120.00     6400.00
02537             -40.00     6200.00
02538            -120.00     6600.00
02539            -120.00     6600.00
02540            -160.00     6800.00
02541             -40.00     7200.00
02542            -120.00     6800.00
02543             -40.00     7400.00
02544            -120.00     7400.00
02545            -120.00     7600.00
02546            -120.00     7600.00
02547            -120.00     7800.00
02548             -80.00     7800.00
02549            -160.00     7800.00
02550            -120.00     8200.00
02551            -160.00     8200.00
02552            -120.00     8400.00
02553            -120.00     8400.00
02554            -120.00     8400.00
02555            -120.00     8600.00
02556            -200.00     8600.00
02557            -160.00     9000.00
02558            -160.00     8800.00
02559            -120.00     9000.00
02560            -160.00     9000.00
02561            -200.00     9200.00
02562            -200.00     9200.00
02563            -200.00     9200.00
02564            -120.00     9400.00
02565            -160.00     9400.00
02566            -160.00     9400.00
02567            -200.00     9400.00
02568            -200.00     9600.00
02569            -200.00     9800.00
02570            -200.00     9800.00
02571            -160.00     9800.00
02572            -200.00    10000.00
02573            -160.00     9800.00
02574            -200.00     9800.00
02575            -240.00    10000.00
02576            -200.00     9800.00
02577            -200.00    10000.00
02578            -160.00    10000.00
02579            -200.00    10000.00
02580            -200.00    10000.00
02581            -240.00    10000.00
02582            -200.00    10000.00
02583            -200.00    10000.00
02584            -200.00    10200.00
02585            -200.00    10000.00
02586            -200.00    10000.00
02587            -200.00    10200.00
02588            -200.00    10000.00
02589            -200.00    10000.00
02590            -280.00    10000.00
02591            -200.00     9800.00
02592            -200.00    10000.00
02593            -200.00    10000.00
02594            -200.00     9800.00
02595            -200.00    10000.00
02596            -200.00     9800.00
02597            -200.00     9800.00
02598            -200.00     9800.00
02599            -200.00     9600.00
02600            -200.00     9400.00
02601            -200.00     9400.00
02602            -240.00     9400.00
02603            -280.00     9400.00
02604            -240.00     9400.00
02605            -200.00     9400.00
02606            -200.00     9200.00
02607            -200.00     9200.00
02608            -200.00     9000.00
02609            -200.00     9000.00
02610            -200.00     9000.00
02611            -200.00     8600.00
02612            -200.00     8600.00
02613            -200.00     8600.00
02614            -200.00     8600.00
02615            -200.00     8400.00
02616            -200.00     8200.00
02617            -200.00     8200.00
02618            -200.00     8000.00
02619            -160.00     8000.00
02620            -160.00     7800.00
02621            -200.00     7800.00
02622            -200.00     7600.00
02623            -200.00     7400.00
02624            -200.00     7400.00
02625            -200.00     7200.00
02626            -160.00     7000.00
02627            -200.00     6800.00
02628            -160.00     6800.00
02629            -200.00     6600.00
02630            -200.00     6400.00
02631            -160.00     6400.00
02632            -160.00     6200.00
02633            -160.00     6000.00
02634            -160.00     5800.00
02635            -200.00     5800.00
02636            -200.00     5400.00
02637            -160.00     5400.00
02638            -120.00     5400.00
02639            -160.00     5200.00
02640            -160.00     5000.00
02641            -160.00     4600.00
02642            -160.00     4600.00
02643            -160.00     4400.00
02644            -160.00     4400.00
02645            -160.00     4200.00
02646            -120.00     4000.00
02647            -160.00     3800.00
02648            -160.00     3600.00
02649            -160.00     3600.00
02650            -120.00     3400.00
02651            -120.00     3000.00
02652            -160.00     2800.00
02653            -120.00     2800.00
02654            -120.00     2600.00
02655            -120.00     2400.00
02656             -80.00     2200.00
02657            -120.00     1800.00
02658             -80.00     1800.00
02659            -120.00     1400.00
02660            -120.00     1400.00
02661             -40.00     1200.00
02662            -120.00     1200.00
02663             -40.00      800.00
02664             -40.00      600.00
02665             -80.00      400.00
02666             -40.00      400.00
02667             -40.00      200.00
02668             -40.00     -200.00
02669             -40.00     -200.00
02670             120.00     -400.00
02671             120.00     -600.00
02672             120.00     -800.00
02673              40.00    -1000.00
02674               0.00    -1000.00
02675               0.00    -1200.00
02676              40.00    -1400.00
02677             320.00    -1400.00
02678            1000.00    -1800.00
02679             960.00    -2200.00
02680             -40.00    -2200.00
02681           -1000.00    -2600.00
02682           -1480.00    -2600.00
02683           -1160.00    -2400.00
02684             360.00    -2800.00
02685             560.00    -3000.00
02686             200.00    -3000.00
02687             640.00    -3800.00
02688             160.00    -3600.00
02689               0.00    -3600.00
02690             160.00    -4400.00
02691            -160.00    -4000.00
02692             200.00    -4600.00
02693             200.00    -4400.00
02694            -160.00    -4600.00
02695            -120.00    -5200.00
02696             -40.00    -4800.00
02697             120.00    -5400.00
02698              40.00    -5200.00
02699             160.00    -5400.00
02700              80.00    -5800.00
02701             -40.00    -5600.00
02702             160.00    -6200.00
02703              80.00    -6000.00
02704              40.00    -6200.00
02705             120.00    -6600.00
02706             120.00    -6200.00
02707              40.00    -6800.00
02708               0.00    -6800.00
02709              40.00    -7000.00
02710             160.00    -7200.00
02711             120.00    -7200.00
02712             120.00    -7400.00
02713             120.00    -7200.00
02714             120.00    -7600.00
02715             120.00    -7800.00
02716             120.00    -7800.00
02717              40.00    -8200.00
02718              80.00    -8200.00
02719             120.00    -8400.00
02720             160.00    -8400.00
02721             120.00    -8400.00
02722             160.00    -8600.00
02723             120.00    -8600.00
02724             120.00    -8600.00
02725             120.00    -8800.00
02726             160.00    -9000.00
02727             160.00    -9000.00
02728             160.00    -9200.00
02729             120.00    -9000.00
02730             120.00    -9200.00
02731             160.00    -9400.00
02732             160.00    -9200.00
02733             200.00    -9400.00
02734             160.00    -9400.00
02735             160.00    -9400.00
02736             160.00    -9400.00
02737             160.00    -9600.00
02738             120.00    -9800.00
02739             160.00    -9800.00
02740             200.00   -10000.00
02741             160.00    -9800.00
02742             160.00   -10000.00
02743             160.00    -9800.00
02744             160.00   -10000.00
02745             200.00   -10000.00
02746             200.00   -10000.00
02747             200.00   -10000.00
02748             160.00   -10000.00
02749             160.00    -9800.00
02750             200.00   -10000.00
02751             160.00   -10000.00
02752             200.00   -10000.00
02753             200.00   -10000.00
02754             200.00   -10000.00
02755             200.00   -10000.00
02756             200.00    -9800.00
02757             160.00    -9800.00
02758             200.00   -10000.00
02759             200.00    -9800.00
02760             200.00    -9800.00
02761             200.00    -9800.00
02762             160.00    -9800.00
02763             160.00    -9800.00
02764             160.00    -9600.00
02765             160.00    -9600.00
02766             200.00    -9800.00
02767             200.00    -9800.00
02768             200.00    -9600.00
02769             160.00    -9400.00
02770             120.00    -9400.00
02771             160.00    -9200.00
02772             200.00    -9200.00
02773             200.00    -9200.00
02774             160.00    -9200.00
02775             160.00    -9000.00
02776             160.00    -9000.00
02777             160.00    -9000.00
02778             160.00    -8600.00
02779             160.00    -8800.00
02780             200.00    -8600.00
02781             200.00    -8600.00
02782             200.00    -8400.00
02783             200.00    -8200.00
02784             160.00    -8200.00
02785             160.00    -8000.00
02786             160.00    -8000.00
02787             160.00    -7800.00
02788             160.00    -7600.00
02789             160.00    -7600.00
02790             160.00    -7200.00
02791             160.00    -7200.00
02792             200.00    -7200.00
02793             200.00    -7000.00
02794             120.00    -7000.00
02795             160.00    -6800.00
02796             160.00    -6600.00
02797             120.00    -6600.00
02798             160.00    -6400.00
02799             160.00    -6200.00
02800             160.00    -6000.00
02801             120.00    -5800.00
02802             120.00    -5800.00
02803             120.00    -5600.00
02804             160.00    -5400.00
02805             120.00    -5400.00
02806             120.00    -5200.00
02807             160.00    -5000.00
02808             120.00    -4800.00
02809             120.00    -4600.00
02810             120.00    -4400.00
02811             120.00    -4200.00
02812             120.00    -4200.00
02813             120.00    -3800.00
02814             120.00    -3800.00
02815             120.00    -3600.00
02816             120.00    -3400.00
02817             120.00    -3000.00
02818             120.00    -3200.00
02819              80.00    -2800.00
02820              80.00    -2800.00
02821             120.00    -2400.00
02822              40.00    -2400.00
02823             120.00    -2200.00
02824             120.00    -2000.00
02825              40.00    -1800.00
02826              40.00    -1600.00
02827             120.00    -1400.00
02828             120.00    -1200.00
02829              40.00    -1000.00
02830               0.00     -800.00
02831               0.00     -600.00
02832               0.00     -400.00
02833               0.00     -200.00
02834              80.00        0.00
02835             120.00        0.00
02836               0.00      200.00
02837             120.00      600.00
02838             160.00      600.00
02839             200.00      600.00
02840             160.00     1000.00
02841              80.00     1000.00
02842              40.00     1200.00
02843              80.00     1400.00
02844             520.00     1800.00
02845            1280.00     2000.00
02846             800.00     2200.00
02847            -600.00     2000.00
02848           -1760.00     2200.00
02849           -1920.00     2600.00
02850             -40.00     3400.00
02851             920.00     2800.00
02852             120.00     3000.00
02853             640.00     3400.00
02854             360.00     3200.00
02855            -320.00     4200.00
02856               0.00     3600.00
02857            -240.00     3800.00
02858             160.00     4600.00
02859             280.00     3800.00
02860            -360.00     4600.00
02861               0.00     5000.00
02862            -160.00     4600.00
02863            -160.00     5200.00
02864              40.00     5000.00
02865             -40.00     5800.00
02866               0.00     5600.00
02867            -240.00     5400.00
02868              40.00     6200.00
02869               0.00     5800.00
02870            -200.00     6200.00
02871             -40.00     6400.00
02872            -120.00     6400.00
02873            -120.00     6800.00
02874            -120.00     6600.00
02875             -80.00     7000.00
02876             -40.00     7000.00
02877            -120.00     7000.00
02878             -80.00     7400.00
02879            -160.00     7400.00
02880            -120.00     7600.00
02881            -120.00     7400.00
02882             -80.00     7800.00
02883            -160.00     7800.00
02884            -160.00     8000.00
02885            -200.00     8400.00
02886            -160.00     8400.00
02887            -120.00     8400.00
02888            -120.00     8400.00
02889            -120.00     8600.00
02890            -200.00     8600.00
02891            -200.00     9000.00
02892            -160.00     9000.00
02893            -160.00     9000.00
02894            -160.00     9000.00
02895            -160.00     9000.00
02896            -200.00     9200.00
02897            -200.00     9200.00
02898            -160.00     9200.00
02899            -160.00     9400.00
02900            -200.00     9400.00
02901            -200.00     9600.00
02902            -200.00     9400.00
02903            -200.00     9600.00
02904            -200.00     9800.00
02905            -200.00     9800.00
02906            -160.00    10000.00
02907            -160.00     9800.00
02908            -200.00    10000.00
02909            -200.00     9800.00
02910            -240.00     9800.00
02911            -200.00    10000.00
02912            -200.00     9800.00
02913            -200.00    10000.00
02914            -200.00    10000.00
02915            -200.00    10000.00
02916            -200.00    10000.00
02917            -200.00    10000.00
02918            -200.00     9800.00
02919            -200.00    10000.00
02920            -200.00    10000.00
02921            -200.00    10000.00
02922            -200.00    10000.00
02923            -200.00    10000.00
02924            -200.00    10000.00
02925            -160.00    10000.00
02926            -200.00    10000.00
02927            -200.00     9800.00
02928            -200.00     9800.00
02929            -200.00    10000.00
02930            -200.00     9800.00
02931            -200.00     9800.00
02932            -200.00     9600.00
02933            -200.00     9800.00
02934            -200.00     9800.00
02935            -200.00     9600.00
02936            -200.00     9400.00
02937            -280.00     9400.00
02938            -200.00     9400.00
02939            -200.00     9400.00
02940            -200.00     9200.00
02941            -160.00     9200.00
02942            -200.00     9200.00
02943            -200.00     9000.00
02944            -200.00     9000.00
02945            -200.00     8800.00
02946            -200.00     8600.00
02947            -200.00     8600.00
02948            -200.00     8400.00
02949            -200.00     8400.00
02950            -200.00     8200.00
02951            -200.00     8200.00
02952            -200.00     8200.00
02953            -200.00     8000.00
02954            -160.00     7800.00
02955            -200.00     7800.00
02956            -200.00     7800.00
02957            -200.00     7400.00
02958            -160.00     7400.00
02959            -200.00     7200.00
02960            -200.00     7000.00
02961            -200.00     6800.00
02962            -200.00     6800.00
02963            -200.00     6800.00
02964            -200.00     6400.00
02965            -200.00     6200.00
02966            -160.00     6200.00
02967            -160.00     6000.00
02968            -200.00     6000.00
02969            -200.00     5800.00
02970            -200.00     5600.00
02971            -160.00     5400.00
02972            -160.00     5200.00
02973            -160.00     5200.00
02974            -200.00     4800.00
02975            -160.00     5000.00
02976            -200.00     4600.00
02977            -160.00     4600.00
02978            -160.00     4200.00
02979            -120.00     4200.00
02980            -160.00     4000.00
02981            -160.00     3800.00
02982            -120.00     3800.00
02983            -160.00     3400.00
02984            -120.00     3400.00
02985            -120.00     3200.00
02986            -120.00     3000.00
02987            -120.00     2800.00
02988            -160.00     2600.00
02989            -160.00     2400.00
02990            -120.00     2200.00
02991            -120.00     2000.00
02992             -40.00     1800.00
02993            -120.00     1600.00
02994             -80.00     1400.00
02995             -40.00     1200.00
02996            -120.00     1000.00
02997             -40.00     1000.00
02998             -40.00     1000.00
02999             -40.00      600.00
03000             -40.00      400.00
03001             -40.00      400.00
03002             -40.00        0.00
03003             -40.00     -200.00
03004               0.00     -200.00
03005             120.00     -400.00
03006             120.00     -600.00
03007              40.00     -800.00
03008              40.00    -1000.00
03009               0.00     -800.00
03010               0.00    -1200.00
03011             120.00    -1400.00
03012             680.00    -1800.00
03013            1080.00    -2200.00
03014             440.00    -2200.00
03015            -680.00    -2600.00
03016           -1320.00    -2600.00
03017           -1480.00    -2400.00
03018            -280.00    -2600.00
03019             720.00    -3400.00
03020             200.00    -3000.00
03021             520.00    -3400.00
03022             440.00    -3800.00
03023             -40.00    -3400.00
03024             200.00    -4200.00
03025            -120.00    -4200.00
03026             -40.00    -4200.00
03027             320.00    -4600.00
03028             -40.00    -4400.00
03029            -200.00    -5000.00
03030             -80.00    -4800.00
03031              40.00    -5000.00
03032              40.00    -5400.00
03033              80.00    -5200.00
03034             120.00    -5800.00
03035             -40.00    -5600.00
03036             120.00    -6000.00
03037             200.00    -6200.00
03038               0.00    -6000.00
03039              40.00    -6600.00
03040             120.00    -6400.00
03041             120.00    -6600.00
03042              40.00    -7000.00
03043              40.00    -6800.00
03044             160.00    -7000.00
03045             160.00    -7000.00
03046             120.00    -7400.00
03047              40.00    -7200.00
03048             160.00    -7600.00
03049             120.00    -7800.00
03050             120.00    -7800.00
03051             120.00    -7800.00
03052             120.00    -8000.00
03053             120.00    -8200.00
03054             160.00    -8400.00
03055             160.00    -8400.00
03056             120.00    -8600.00
03057             160.00    -8600.00
03058             120.00    -8600.00
03059             120.00    -8800.00
03060             160.00    -9000.00
03061             160.00    -9000.00
03062             160.00    -9200.00
03063             120.00    -9000.00
03064             160.00    -9200.00
03065             160.00    -9200.00
03066             160.00    -9400.00
03067             200.00    -9400.00
03068             160.00    -9400.00
03069             160.00    -9400.00
03070             160.00    -9600.00
03071             160.00    -9600.00
03072             160.00    -9800.00
03073             160.00    -9800.00
03074             200.00    -9800.00
03075             200.00    -9800.00
03076             160.00    -9800.00
03077             160.00    -9800.00
03078             160.00    -9800.00
03079             160.00   -10000.00
03080             200.00   -10000.00
03081             200.00   -10000.00
03082             200.00   -10000.00
03083             160.00   -10000.00
03084             200.00    -9800.00
03085             160.00   -10000.00
03086             200.00   -10000.00
03087             200.00   -10000.00
03088             200.00   -10000.00
03089             200.00    -9800.00
03090             160.00   -10000.00
03091             160.00    -9800.00
03092             160.00    -9800.00
03093             200.00   -10000.00
03094             200.00    -9800.00
03095             200.00    -9800.00
03096             200.00   -10000.00
03097             160.00    -9800.00
03098             160.00    -9800.00
03099             160.00    -9800.00
03100             200.00    -9600.00
03101             200.00    -9400.00
03102             160.00    -9600.00
03103             160.00    -9600.00
03104             200.00    -9400.00
03105             160.00    -9400.00
03106             160.00    -9400.00
03107             200.00    -9200.00
03108             200.00    -9200.00
03109             200.00    -9000.00
03110             160.00    -9000.00
03111             120.00    -9000.00
03112             160.00    -8800.00
03113             200.00    -8800.00
03114             200.00    -8600.00
03115             160.00    -8400.00
03116             200.00    -8400.00
03117             200.00    -8200.00
03118             160.00    -8200.00
03119             160.00    -8000.00
03120             160.00    -8000.00
03121             200.00    -7800.00
03122             160.00    -7600.00
03123             200.00    -7600.00
03124             160.00    -7200.00
03125             120.00    -7200.00
03126             160.00    -7000.00
03127             200.00    -7000.00
03128             200.00    -7000.00
03129             200.00    -6800.00
03130             160.00    -6600.00
03131             160.00    -6600.00
03132             160.00    -6400.00
03133             120.00    -6200.00
03134             160.00    -6000.00
03135             160.00    -6000.00
03136             160.00    -5800.00
03137             160.00    -5600.00
03138             120.00    -5400.00
03139             120.00    -5200.00
03140             160.00    -5200.00
03141             160.00    -5000.00
03142             120.00    -5000.00
03143             120.00    -4600.00
03144             120.00    -4400.00
03145             120.00    -4200.00
03146             120.00    -4200.00
03147             160.00    -4000.00
03148             120.00    -3800.00
03149             120.00    -3800.00
03150             120.00    -3400.00
03151              80.00    -3200.00
03152             120.00    -3000.00
03153             120.00    -3000.00
03154             120.00    -2600.00
03155              80.00    -2600.00
03156              40.00    -2400.00
03157              40.00    -2200.00
03158              80.00    -2000.00
03159              40.00    -2000.00
03160              40.00    -1800.00
03161              40.00    -1400.00
03162              40.00    -1200.00
03163              40.00    -1000.00
03164               0.00     -800.00
03165              40.00     -800.00
03166               0.00     -400.00
03167              40.00     -400.00
03168              40.00     -200.00
03169               0.00        0.00
03170               0.00      200.00
03171              40.00      400.00
03172             160.00      600.00
03173             160.00      600.00
03174             160.00     1000.00
03175             120.00     1000.00
03176              80.00     1200.00
03177              80.00     1400.00
03178             280.00     1600.00
03179            1080.00     2000.00
03180            1120.00     2200.00
03181               0.00     2200.00
03182           -1320.00     2200.00
03183           -2040.00     2200.00
03184            -960.00     3000.00
03185             920.00     3000.00
03186             440.00     2800.00
03187             320.00     3400.00
03188             640.00     3000.00
03189            -200.00     3800.00
03190            -120.00     4200.00
03191            -120.00     3400.00
03192            -160.00     4600.00
03193             440.00     4400.00
03194            -280.00     4200.00
03195            -200.00     5200.00
03196               0.00     4600.00
03197            -280.00     5000.00
03198              40.00     5200.00
03199             -40.00     5200.00
03200               0.00     5800.00
03201            -160.00     5400.00
03202            -120.00     6000.00
03203              80.00     6200.00
03204            -200.00     6000.00
03205             -40.00     6400.00
03206             -40.00     6200.00
03207             -80.00     6800.00
03208            -120.00     6600.00
03209            -160.00     6800.00
03210             -40.00     7200.00
03211            -120.00     6800.00
03212             -40.00     7400.00
03213            -120.00     7400.00
03214            -160.00     7600.00
03215            -160.00     7600.00
03216            -120.00     7800.00
03217            -120.00     7800.00
03218            -160.00     7800.00
03219            -120.00     8200.00
03220            -200.00     8200.00
03221            -120.00     8200.00
03222            -160.00     8400.00
03223             -80.00     8600.00
03224            -200.00     8600.00
03225            -200.00     8600.00
03226            -200.00     9000.00
03227            -160.00     9000.00
03228            -120.00     9000.00
03229            -160.00     9000.00
03230            -200.00     9200.00
03231            -240.00     9200.00
03232            -200.00     9400.00
03233            -160.00     9400.00
03234            -200.00     9400.00
03235            -200.00     9400.00
03236            -200.00     9800.00
03237            -200.00     9600.00
03238            -200.00     9800.00
03239            -160.00     9800.00
03240            -200.00     9800.00
03241            -160.00     9800.00
03242            -200.00     9800.00
03243            -200.00    10000.00
03244            -320.00     9800.00
03245            -280.00    10000.00
03246            -200.00    10000.00
03247            -200.00    10000.00
03248            -160.00    10000.00
03249            -120.00    10200.00
03250            -160.00    10000.00
03251            -200.00    10000.00
03252            -280.00     9800.00
03253            -280.00    10000.00
03254            -280.00    10000.00
03255            -240.00    10000.00
03256            -200.00    10200.00
03257            -200.00    10000.00
03258            -200.00    10000.00
03259            -160.00    10000.00
03260            -200.00    10200.00
03261            -200.00    10000.00
03262            -200.00    10000.00
03263            -200.00     9800.00
03264            -280.00    10000.00
03265            -200.00     9800.00
03266            -200.00     9800.00
03267            -200.00     9800.00
03268            -200.00     9800.00
03269            -160.00     9800.00
03270            -200.00     9400.00
03271            -200.00     9400.00
03272            -200.00     9400.00
03273            -200.00     9400.00
03274            -200.00     9200.00
03275            -200.00     9200.00
03276            -200.00     9200.00
03277            -200.00     9000.00
03278            -200.00     9000.00
03279            -200.00     9000.00
03280            -120.00     8800.00
03281            -200.00     8600.00
03282            -200.00     8600.00
03283            -240.00     8400.00
03284            -240.00     8400.00
03285            -200.00     8200.00
03286            -200.00     8200.00
03287            -200.00     8200.00
03288            -200.00     7800.00
03289            -160.00     7800.00
03290            -160.00     7600.00
03291            -200.00     7600.00
03292            -200.00     7400.00
03293            -200.00     7400.00
03294            -200.00     7000.00
03295            -200.00     7000.00
03296            -200.00     6800.00
03297            -200.00     6600.00
03298            -160.00     6600.00
03299            -160.00     6400.00
03300            -160.00     6200.00
03301            -200.00     6200.00
03302            -200.00     6000.00
03303            -200.00     5800.00
03304            -200.00     5800.00
03305            -200.00     5600.00
03306            -160.00     5400.00
03307            -120.00     5200.00
03308            -160.00     5200.00
03309            -160.00     5000.00
03310            -200.00     4600.00
03311            -160.00     4600.00
03312            -160.00     4600.00
03313            -160.00     4200.00
03314            -160.00     4200.00
03315            -120.00     3800.00
03316            -120.00     3800.00
03317            -120.00     3600.00
03318            -120.00     3400.00
03319            -120.00     3000.00
03320            -120.00     3000.00
03321            -120.00     2800.00
03322            -120.00     2800.00
03323            -120.00     2400.00
03324            -160.00     2200.00
03325            -120.00     2200.00
03326             -80.00     2000.00
03327             -40.00     1800.00
03328             -40.00     1600.00
03329             -40.00     1400.00
03330             -40.00     1200.00
03331             -40.00     1000.00
03332             -40.00      800.00
03333             -40.00      600.00
03334             -40.00      600.00
03335             -40.00      400.00
03336             -40.00      200.00
03337             -40.00        0.00
03338               0.00     -200.00
03339             120.00     -400.00
03340             120.00     -600.00
03341             120.00     -800.00
03342              40.00     -800.00
03343               0.00    -1200.00
03344               0.00    -1200.00
03345              40.00    -1400.00
03346             440.00    -1400.00
03347            1000.00    -2000.00
03348             800.00    -2200.00
03349            -280.00    -2400.00
03350           -1120.00    -2600.00
03351           -1560.00    -2600.00
03352            -960.00    -2400.00
03353             560.00    -3200.00
03354             400.00    -3200.00
03355             280.00    -3000.00
03356             600.00    -3800.00
03357              40.00    -3400.00
03358              80.00    -3600.00
03359             120.00    -4200.00
03360            -200.00    -4000.00
03361             280.00    -4600.00
03362             120.00    -4400.00
03363            -160.00    -4800.00
03364            -120.00    -5000.00
03365               0.00    -4600.00
03366             120.00    -5400.00
03367              40.00    -5200.00
03368             160.00    -5600.00
03369              40.00    -5800.00
03370              40.00    -5800.00
03371             200.00    -6200.00
03372              40.00    -6000.00
03373              40.00    -6200.00
03374             120.00    -6400.00
03375             120.00    -6400.00
03376              40.00    -6800.00
03377              40.00    -6800.00
03378             120.00    -7000.00
03379             120.00    -7000.00
03380             120.00    -7200.00
03381             120.00    -7400.00
03382             120.00    -7200.00
03383             160.00    -7800.00
03384             120.00    -7600.00
03385             160.00    -7800.00
03386              80.00    -8000.00
03387             120.00    -8200.00
03388             120.00    -8200.00
03389             160.00    -8200.00
03390             160.00    -8400.00
03391             160.00    -8600.00
03392             160.00    -8600.00
03393             160.00    -8800.00
03394             160.00    -8800.00
03395             200.00    -9000.00
03396             120.00    -9000.00
03397             120.00    -9200.00
03398             120.00    -9000.00
03399             120.00    -9200.00
03400             160.00    -9400.00
03401             200.00    -9200.00
03402             200.00    -9400.00
03403             160.00    -9400.00
03404             160.00    -9400.00
03405             160.00    -9400.00
03406             160.00    -9400.00
03407             160.00    -9800.00
03408             200.00    -9800.00
03409             200.00    -9800.00
03410             200.00    -9800.00
03411             160.00    -9800.00
03412             160.00    -9800.00
03413             120.00   -10000.00
03414             160.00   -10000.00
03415             200.00   -10000.00
03416             160.00    -9800.00
03417             160.00   -10000.00
03418             160.00    -9800.00
03419             160.00   -10000.00
03420             160.00   -10000.00
03421             160.00   -10000.00
03422             200.00   -10000.00
03423             200.00   -10000.00
03424             200.00   -10000.00
03425             160.00    -9800.00
03426             160.00   -10000.00
03427             160.00    -9800.00
03428             200.00   -10000.00
03429             200.00   -10000.00
03430             200.00    -9800.00
03431             160.00    -9800.00
03432             160.00    -9800.00
03433             160.00    -9800.00
03434             160.00    -9600.00
03435             200.00    -9600.00
03436             200.00    -9600.00
03437             200.00    -9400.00
03438             160.00    -9400.00
03439             160.00    -9400.00
03440             160.00    -9200.00
03441             200.00    -9200.00
03442             200.00    -9200.00
03443             200.00    -9000.00
03444             200.00    -9000.00
03445             200.00    -9000.00
03446             200.00    -8800.00
03447             200.00    -8800.00
03448             160.00    -8600.00
03449             200.00    -8600.00
03450             160.00    -8600.00
03451             200.00    -8400.00
03452             160.00    -8200.00
03453             200.00    -8200.00
03454             160.00    -8200.00
03455             200.00    -8000.00
03456             200.00    -7800.00
03457             160.00    -7600.00
03458             160.00    -7200.00
03459             160.00    -7400.00
03460             160.00    -7200.00
03461             160.00    -7000.00
03462             200.00    -7000.00
03463             200.00    -7000.00
03464             160.00    -6600.00
03465             160.00    -6600.00
03466             160.00    -6600.00
03467             160.00    -6200.00
03468             200.00    -6200.00
03469             160.00    -6000.00
03470             160.00    -5800.00
03471             120.00    -5800.00
03472             160.00    -5400.00
03473             120.00    -5400.00
03474             160.00    -5200.00
03475             160.00    -5000.00
03476             160.00    -5000.00
03477             160.00    -4600.00
03478             120.00    -4600.00
03479             120.00    -4400.00
03480             120.00    -4200.00
03481             120.00    -4200.00
03482             120.00    -3800.00
03483             120.00    -3800.00
03484              80.00    -3600.00
03485              40.00    -3400.00
03486             120.00    -3000.00
03487             120.00    -3000.00
03488             120.00    -2800.00
03489              40.00    -2600.00
03490             120.00    -2600.00
03491              80.00    -2200.00
03492              40.00    -2200.00
03493              40.00    -1800.00
03494              80.00    -1800.00
03495              40.00    -1400.00
03496              40.00    -1400.00
03497              40.00    -1200.00
03498              40.00     -800.00
03499              40.00     -800.00
03500              40.00     -600.00
03501              40.00     -400.00
03502              40.00     -200.00
03503               0.00     -200.00
03504              40.00      200.00
03505              40.00      200.00
03506             120.00      600.00
03507             160.00      600.00
03508             160.00     1000.00
03509             120.00     1000.00
03510              80.00     1000.00
03511             120.00     1400.00
03512             160.00     1400.00
03513             680.00     1800.00
03514            1280.00     2000.00
03515             560.00     2200.00
03516            -840.00     2200.00
03517           -1800.00     2200.00
03518           -1720.00     2800.00
03519             360.00     3000.00
03520             800.00     2800.00
03521             120.00     3200.00
03522             640.00     3200.00
03523             200.00     3400.00
03524            -280.00     4200.00
03525               0.00     3600.00
03526            -240.00     3800.00
03527             280.00     4800.00
03528             120.00     3800.00
03529            -360.00     4800.00
03530              40.00     5000.00
03531            -200.00     4800.00
03532             -80.00     5400.00
03533              80.00     5000.00
03534              40.00     5800.00
03535               0.00     5600.00
03536            -280.00     5400.00
03537              40.00     6200.00
03538            -120.00     5800.00
03539            -200.00     6200.00
03540               0.00     6200.00
03541             -80.00     6600.00
03542             -80.00     6800.00
03543            -200.00     6600.00
03544            -120.00     7200.00
03545             -80.00     6800.00
03546             -40.00     7200.00
03547             -40.00     7400.00
03548            -160.00     7400.00
03549            -160.00     7600.00
03550            -160.00     7600.00
03551            -120.00     7800.00
03552            -160.00     7800.00
03553            -120.00     8000.00
03554            -160.00     8200.00
03555            -160.00     8200.00
03556            -120.00     8400.00
03557            -160.00     8400.00
03558            -160.00     8600.00
03559            -200.00     8600.00
03560            -200.00     8600.00
03561            -160.00     8800.00
03562            -120.00     9000.00
03563            -160.00     9200.00
03564            -200.00     9200.00
03565            -200.00     9200.00
03566            -200.00     9200.00
03567            -160.00     9400.00
03568            -160.00     9400.00
03569            -160.00     9400.00
03570            -200.00     9600.00
03571            -200.00     9800.00
03572            -200.00     9400.00
03573            -200.00     9800.00
03574            -200.00     9800.00
03575            -160.00     9800.00
03576            -200.00     9800.00
03577            -200.00     9800.00
03578            -200.00    10000.00
03579            -240.00     9800.00
03580            -200.00    10000.00
03581            -200.00    10000.00
03582            -200.00    10000.00
03583            -200.00    10000.00
03584            -200.00    10200.00
03585            -200.00    10000.00
03586            -200.00    10200.00
03587            -200.00    10000.00
03588            -200.00    10200.00
03589            -200.00    10000.00
03590            -200.00    10200.00
03591            -200.00    10200.00
03592            -200.00    10200.00
03593            -200.00    10000.00
03594            -200.00    10000.00
03595            -200.00     9800.00
03596            -200.00     9800.00
03597            -200.00    10000.00
03598            -200.00     9800.00
03599            -200.00     9800.00
03600            -200.00    10000.00
03601            -200.00     9800.00
03602            -200.00     9800.00
03603            -200.00     9800.00
03604            -200.00     9400.00
03605            -200.00     9400.00
03606            -200.00     9400.00
03607            -200.00     9400.00
03608            -200.00     9200.00
03609            -200.00     9200.00
03610            -200.00     9000.00
03611            -240.00     9000.00
03612            -200.00     9000.00
03613            -200.00     8800.00
03614            -200.00     8800.00
03615            -200.00     8800.00
03616            -200.00     8600.00
03617            -200.00     8400.00
03618            -200.00     8400.00
03619            -200.00     8200.00
03620            -200.00     8200.00
03621            -200.00     8200.00
03622            -200.00     8200.00
03623            -200.00     7800.00
03624            -200.00     7600.00
03625            -200.00     7600.00
03626            -200.00     7400.00
03627            -160.00     7400.00
03628            -200.00     7200.00
03629            -200.00     7000.00
03630            -200.00     7000.00
03631            -200.00     6800.00
03632            -200.00     6600.00
03633            -160.00     6600.00
03634            -160.00     6400.00
03635            -160.00     6200.00
03636            -200.00     6000.00
03637            -200.00     5800.00
03638            -160.00     5800.00
03639            -200.00     5800.00
03640            -160.00     5400.00
03641            -160.00     5400.00
03642            -120.00     5200.00
03643            -160.00     5000.00
03644            -160.00     4800.00
03645            -160.00     4600.00
03646            -160.00     4400.00
03647            -160.00     4400.00
03648            -120.00     4200.00
03649            -120.00     3800.00
03650            -120.00     3800.00
03651            -120.00     3800.00
03652            -120.00     3400.00
03653            -120.00     3400.00
03654            -120.00     3000.00
03655            -120.00     3000.00
03656            -120.00     2800.00
03657            -120.00     2600.00
03658            -160.00     2200.00
03659            -120.00     2200.00
03660            -120.00     1800.00
03661             -80.00     1800.00
03662             -40.00     1800.00
03663             -40.00     1400.00
03664            -120.00     1200.00
03665             -80.00     1000.00
03666             -40.00     1000.00
03667             -40.00      600.00
03668             -40.00      600.00
03669             -40.00      400.00
03670             -40.00      200.00
03671             -40.00      200.00
03672             -40.00     -200.00
03673              40.00     -400.00
03674             120.00     -600.00
03675             120.00     -600.00
03676              80.00    -1000.00
03677               0.00    -1000.00
03678               0.00    -1200.00
03679               0.00    -1400.00
03680             160.00    -1600.00
03681             800.00    -1800.00
03682            1080.00    -2200.00
03683             200.00    -2200.00
03684            -840.00    -2600.00
03685           -1400.00    -2600.00
03686           -1440.00    -2600.00
03687               0.00    -2600.00
03688             640.00    -3400.00
03689             160.00    -3000.00
03690             600.00    -3400.00
03691             320.00    -3800.00
03692             -40.00    -3400.00
03693             200.00    -4200.00
03694            -120.00    -4200.00
03695              80.00    -4400.00
03696             280.00    -4600.00
03697             -80.00    -4600.00
03698            -160.00    -5000.00
03699             -40.00    -4800.00
03700             120.00    -5200.00
03701              40.00    -5400.00
03702             120.00    -5200.00
03703             120.00    -5800.00
03704             -40.00    -5600.00
03705             160.00    -5800.00
03706             160.00    -6200.00
03707              40.00    -6000.00
03708             120.00    -6600.00
03709             120.00    -6200.00
03710             120.00    -6800.00
03711               0.00    -6800.00
03712              40.00    -6800.00
03713             160.00    -7000.00
03714             160.00    -7000.00
03715             120.00    -7400.00
03716             120.00    -7400.00
03717             120.00    -7600.00
03718             120.00    -7800.00
03719             120.00    -7600.00
03720             120.00    -8000.00
03721              40.00    -8200.00
03722             120.00    -8200.00
03723             160.00    -8400.00
03724             120.00    -8400.00
03725             120.00    -8600.00
03726             160.00    -8600.00
03727             120.00    -8600.00
03728             160.00    -8600.00
03729             160.00    -9000.00
03730             160.00    -9200.00
03731             160.00    -9000.00
03732             160.00    -9200.00
03733             120.00    -9000.00
03734             120.00    -9200.00
03735             160.00    -9200.00
03736             200.00    -9400.00
03737             200.00    -9400.00
03738             160.00    -9600.00
03739             160.00    -9400.00
03740             160.00    -9600.00
03741             160.00    -9800.00
03742             160.00    -9800.00
03743             160.00    -9800.00
03744             160.00    -9800.00
03745             160.00    -9800.00
03746             160.00    -9800.00
03747             160.00   -10000.00
03748             160.00    -9800.00
03749             160.00    -9800.00
03750             160.00    -9800.00
03751             200.00   -10000.00
03752             160.00   -10000.00
03753             160.00   -10000.00
03754             160.00   -10000.00
03755             120.00   -10000.00
03756             200.00   -10000.00
03757             200.00   -10000.00
03758             160.00   -10000.00
03759             160.00    -9800.00
03760             160.00    -9800.00
03761             160.00    -9800.00
03762             200.00    -9800.00
03763             200.00    -9800.00
03764             200.00    -9800.00
03765             160.00   -10000.00
03766             160.00    -9800.00
03767             200.00    -9600.00
03768             200.00    -9600.00
03769             160.00    -9800.00
03770             240.00    -9400.00
03771             200.00    -9400.00
03772             160.00    -9400.00
03773             200.00    -9400.00
03774             160.00    -9400.00
03775             160.00    -9200.00
03776             200.00    -9200.00
03777             200.00    -9200.00
03778             200.00    -9000.00
03779             200.00    -9000.00
03780             160.00    -8800.00
03781             200.00    -8800.00
03782             200.00    -8800.00
03783             200.00    -8600.00
03784             200.00    -8600.00
03785             160.00    -8400.00
03786             200.00    -8200.00
03787             160.00    -8200.00
03788             200.00    -8000.00
03789             160.00    -8000.00
03790             200.00    -7800.00
03791             160.00    -7600.00
03792             160.00    -7600.00
03793             160.00    -7400.00
03794             160.00    -7400.00
03795             160.00    -7200.00
03796             160.00    -7000.00
03797             200.00    -6800.00
03798             160.00    -6800.00
03799             120.00    -6600.00
03800             160.00    -6400.00
03801             160.00    -6600.00
03802             160.00    -6200.00
03803             160.00    -6200.00
03804             160.00    -5800.00
03805             120.00    -5800.00
03806             120.00    -5400.00
03807             120.00    -5400.00
03808             160.00    -5400.00
03809             160.00    -5200.00
03810             120.00    -5000.00
03811             160.00    -5000.00
03812             120.00    -4600.00
03813             120.00    -4400.00
03814              80.00    -4400.00
03815             120.00    -4200.00
03816             120.00    -3800.00
03817             120.00    -4000.00
03818             120.00    -3600.00
03819             120.00    -3400.00
03820             120.00    -3400.00
03821              40.00    -3000.00
03822              80.00    -2800.00
03823              80.00    -2800.00
03824             120.00    -2600.00
03825              40.00    -2400.00
03826             120.00    -2200.00
03827              80.00    -2000.00
03828              40.00    -1800.00
03829              40.00    -1800.00
03830              40.00    -1400.00
03831              40.00    -1400.00
03832              40.00    -1200.00
03833              40.00     -800.00
03834               0.00     -600.00
03835              40.00     -600.00
03836              40.00     -200.00
03837              40.00     -200.00
03838              40.00      200.00
03839              40.00      200.00
03840             120.00      600.00
03841             160.00      600.00
03842             200.00      800.00
03843             160.00     1000.00
03844             120.00     1200.00
03845              40.00     1200.00
03846              40.00     1400.00
03847             360.00     1600.00
03848            1200.00     2000.00
03849            1080.00     2000.00
03850            -280.00     2200.00
03851           -1480.00     2200.00
03852           -2040.00     2200.00
03853            -600.00     3000.00
03854            1000.00     3000.00
03855             280.00     2800.00
03856             440.00     3400.00
03857             600.00     3000.00
03858            -280.00     4000.00
03859             -40.00     3800.00
03860            -160.00     3600.00
03861               0.00     4600.00
03862             400.00     4200.00
03863            -320.00     4400.00
03864            -120.00     5000.00
03865             -40.00     4600.00
03866            -200.00     5200.00
03867              40.00     5000.00
03868             -40.00     5600.00
03869              40.00     5800.00
03870            -160.00     5400.00
03871             -40.00     6000.00
03872              40.00     6000.00
03873            -280.00     6200.00
03874             -40.00     6600.00
03875            -120.00     6200.00
03876             -80.00     6800.00
03877            -160.00     6600.00
03878            -160.00     6800.00
03879             -40.00     7000.00
03880             -80.00     7000.00
03881             -40.00     7400.00
03882            -160.00     7400.00
03883            -120.00     7600.00
03884            -160.00     7600.00
03885            -120.00     7800.00
03886            -160.00     7800.00
03887            -160.00     7800.00
03888            -160.00     8200.00
03889            -200.00     8200.00
03890            -120.00     8400.00
03891            -160.00     8400.00
03892            -120.00     8600.00
03893            -200.00     8600.00
03894            -200.00     8600.00
03895            -160.00     9000.00
03896            -160.00     8600.00
03897            -160.00     9000.00
03898            -200.00     9000.00
03899            -200.00     9200.00
03900            -200.00     9400.00
03901            -120.00     9400.00
03902            -120.00     9400.00
03903            -160.00     9400.00
03904            -200.00     9400.00
03905            -200.00     9600.00
03906            -200.00     9600.00
03907            -200.00     9600.00
03908            -200.00     9800.00
03909            -160.00     9800.00
03910            -160.00     9800.00
03911            -160.00     9800.00
03912            -200.00     9800.00
03913            -200.00    10000.00
03914            -200.00     9800.00
03915            -200.00    10000.00
03916            -160.00    10000.00
03917            -200.00    10000.00
03918            -200.00    10000.00
03919            -200.00    10000.00
03920            -200.00    10000.00
03921            -200.00    10200.00
03922            -160.00    10200.00
03923            -200.00    10000.00
03924            -200.00    10200.00
03925            -200.00    10200.00
03926            -200.00    10000.00
03927            -200.00    10200.00
03928            -200.00    10000.00
03929            -200.00    10000.00
03930            -200.00    10000.00
03931            -200.00     9800.00
03932            -200.00     9800.00
03933            -200.00    10000.00
03934            -200.00    10000.00
03935            -200.00     9800.00
03936            -200.00     9600.00
03937            -200.00     9400.00
03938            -200.00     9600.00
03939            -200.00     9400.00
03940            -200.00     9600.00
03941            -200.00     9400.00
03942            -200.00     9400.00
03943            -200.00     9200.00
03944            -200.00     9200.00
03945            -200.00     9000.00
03946            -200.00     9000.00
03947            -280.00     9000.00
03948            -200.00     8800.00
03949            -200.00     8600.00
03950            -200.00     8600.00
03951            -200.00     8400.00
03952            -200.00     8400.00
03953            -200.00     8200.00
03954            -200.00     8200.00
03955            -200.00     8200.00
03956            -200.00     8000.00
03957            -200.00     7800.00
03958            -200.00     7800.00
03959            -200.00     7600.00
03960            -200.00     7600.00
03961            -200.00     7400.00
03962            -200.00     7200.00
03963            -160.00     7000.00
03964            -200.00     7000.00
03965            -200.00     6800.00
03966            -200.00     6600.00
03967            -160.00     6600.00
03968            -200.00     6600.00
03969            -160.00     6200.00
03970            -160.00     6200.00
03971            -160.00     6000.00
03972            -200.00     5800.00
03973            -200.00     5800.00
03974            -160.00     5600.00
03975            -160.00     5400.00
03976            -160.00     5200.00
03977            -120.00     5200.00
03978            -160.00     5000.00
03979            -160.00     4600.00
03980            -160.00     4600.00
03981            -120.00     4400.00
03982            -160.00     4200.00
03983            -160.00     4000.00
03984            -120.00     3800.00
03985            -120.00     3800.00
03986            -120.00     3600.00
03987            -120.00     3400.00
03988            -120.00     3200.00
03989            -120.00     3000.00
03990            -120.00     2800.00
03991             -80.00     2600.00
03992            -120.00     2400.00
03993            -120.00     2200.00
03994             -80.00     2000.00
03995            -120.00     1800.00
03996             -40.00     1800.00
03997             -40.00     1400.00
03998             -40.00     1200.00
03999             -40.00     1000.00
04000             -80.00     1000.00
04001             -40.00      600.00
04002            -120.00      600.00
04003            -120.00      400.00
04004             -40.00      200.00
04005             -40.00        0.00
04006             -40.00     -200.00
04007               0.00     -400.00
04008             120.00     -400.00
04009             120.00     -600.00
04010              80.00     -800.00
04011               0.00    -1000.00
04012               0.00    -1200.00
04013               0.00    -1400.00
04014              40.00    -1400.00
04015             520.00    -1800.00
04016            1080.00    -2200.00
04017             680.00    -2400.00
04018            -440.00    -2600.00
04019           -1240.00    -2600.00
04020           -1560.00    -2400.00
04021            -680.00    -2600.00
04022             640.00    -3200.00
04023             320.00    -3200.00
04024             320.00    -3200.00
04025             600.00    -4000.00
04026             -40.00    -3400.00
04027             160.00    -3800.00
04028               0.00    -4200.00
04029            -120.00    -4200.00
04030             320.00    -4600.00
04031             120.00    -4400.00
04032            -160.00    -5000.00
04033            -120.00    -5000.00
04034               0.00    -4800.00
04035             120.00    -5400.00
04036              40.00    -5200.00
04037             160.00    -5600.00
04038               0.00    -5600.00
04039             120.00    -5800.00
04040             200.00    -6200.00
04041              40.00    -6000.00
04042              80.00    -6400.00
04043             160.00    -6400.00
04044             120.00    -6400.00
04045              40.00    -6800.00
04046              40.00    -6800.00
04047             120.00    -7000.00
04048             160.00    -7000.00
04049             120.00    -7400.00
04050             120.00    -7200.00
04051             120.00    -7400.00
04052             120.00    -7600.00
04053             120.00    -7800.00
04054             120.00    -7800.00
04055             120.00    -8000.00
04056              80.00    -8200.00
04057             160.00    -8200.00
04058             160.00    -8400.00
04059             120.00    -8400.00
04060             120.00    -8600.00
04061             160.00    -8600.00
04062             160.00    -8800.00
04063             160.00    -8800.00
04064             200.00    -9000.00
04065             160.00    -9000.00
04066             120.00    -9200.00
04067             120.00    -9200.00
04068             120.00    -9200.00
04069             160.00    -9200.00
04070             200.00    -9400.00
04071             200.00    -9400.00
04072             160.00    -9400.00
04073             160.00    -9600.00
04074             120.00    -9400.00
04075             120.00    -9600.00
04076             160.00    -9600.00
04077             200.00    -9800.00
04078             200.00    -9800.00
04079             160.00    -9800.00
04080             120.00   -10000.00
04081             120.00    -9800.00
04082             160.00   -10000.00
04083             160.00    -9800.00
04084             200.00   -10000.00
04085             200.00   -10000.00
04086             200.00   -10000.00
04087             160.00    -9800.00
04088             160.00   -10000.00
04089             160.00   -10000.00
04090             160.00   -10000.00
04091             160.00    -9800.00
04092             200.00   -10000.00
04093             200.00   -10000.00
04094             160.00   -10000.00
04095             160.00    -9800.00
04096             160.00    -9800.00
04097             200.00    -9800.00
04098             240.00    -9800.00
04099             200.00    -9800.00
04100             200.00    -9800.00
04101             200.00    -9800.00
04102             160.00    -9800.00
04103             160.00    -9400.00
04104             200.00    -9600.00
04105             200.00    -9600.00
04106             200.00    -9400.00
04107             160.00    -9400.00
04108             200.00    -9400.00
04109             200.00    -9200.00
04110             160.00    -9200.00
04111             200.00    -9200.00
04112             200.00    -9000.00
04113             200.00    -9000.00
04114             200.00    -9000.00
04115             200.00    -8800.00
04116             160.00    -8800.00
04117             200.00    -8600.00
04118             200.00    -8600.00
04119             160.00    -8400.00
04120             200.00    -8400.00
04121             160.00    -8200.00
04122             200.00    -8200.00
04123             200.00    -8000.00
04124             200.00    -7800.00
04125             200.00    -7600.00
04126             160.00    -7600.00
04127             200.00    -7600.00
04128             160.00    -7400.00
04129             160.00    -7200.00
04130             160.00    -7000.00
04131             160.00    -7000.00
04132             160.00    -6800.00
04133             160.00    -6800.00
04134             160.00    -6600.00
04135             120.00    -6600.00
04136             160.00    -6400.00
04137             160.00    -6200.00
04138             160.00    -6000.00
04139             160.00    -6000.00
04140             120.00    -5800.00
04141             120.00    -5400.00
04142             120.00    -5400.00
04143             160.00    -5400.00
04144             120.00    -5000.00
04145             120.00    -5000.00
04146             120.00    -4800.00
04147             120.00    -4600.00
04148             120.00    -4400.00
04149             120.00    -4200.00
04150             120.00    -4200.00
04151             120.00    -3800.00
04152              80.00    -3600.00
04153             120.00    -3600.00
04154              40.00    -3400.00
04155             120.00    -3000.00
04156             120.00    -3000.00
04157              80.00    -3000.00
04158              80.00    -2800.00
04159             120.00    -2400.00
04160              40.00    -2200.00
04161              40.00    -2200.00
04162              40.00    -1800.00
04163             120.00    -1800.00
04164              80.00    -1800.00
04165              40.00    -1200.00
04166              40.00    -1200.00
04167              40.00     -800.00
04168              40.00     -600.00
04169              40.00     -600.00
04170              40.00     -400.00
04171              40.00     -400.00
04172              40.00        0.00
04173              40.00      200.00
04174             120.00      400.00
04175             120.00      400.00
04176             200.00      600.00
04177             200.00     1000.00
04178             120.00     1000.00
04179              80.00     1000.00
04180             120.00     1400.00
04181             160.00     1600.00
04182             840.00     1800.00
04183            1280.00     2000.00
04184             360.00     2200.00
04185           -1000.00     2200.00
04186           -1920.00     2200.00
04187           -1440.00     2800.00
04188             640.00     3000.00
04189             640.00     3000.00
04190             160.00     3400.00
04191             720.00     3200.00
04192               0.00     3400.00
04193            -200.00     4200.00
04194               0.00     3400.00
04195            -200.00     4200.00
04196             360.00     4600.00
04197             -40.00     4000.00
04198            -360.00     5000.00
04199              40.00     4600.00
04200            -200.00     4600.00
04201             -40.00     5200.00
04202               0.00     5000.00
04203               0.00     5800.00
04204            -120.00     5400.00
04205            -200.00     5800.00
04206             120.00     6200.00
04207            -160.00     5800.00
04208            -160.00     6200.00
04209             -40.00     6200.00
04210            -160.00     6600.00
04211            -120.00     6600.00
04212            -200.00     6600.00
04213             -40.00     7000.00
04214             -80.00     6800.00
04215             -40.00     7200.00
04216            -120.00     7400.00
04217            -160.00     7400.00
04218            -160.00     7600.00
04219            -200.00     7800.00
04220            -120.00     7800.00
04221            -160.00     7800.00
04222            -160.00     8200.00
04223            -160.00     8200.00
04224            -160.00     8200.00
04225            -160.00     8400.00
04226            -120.00     8600.00
04227            -160.00     8600.00
04228            -200.00     8600.00
04229            -200.00     9000.00
04230            -160.00     9000.00
04231            -120.00     9000.00
04232            -160.00     9200.00
04233            -200.00     9200.00
04234            -200.00     9400.00
04235            -200.00     9400.00
04236            -120.00     9400.00
04237            -160.00     9400.00
04238            -160.00     9400.00
04239            -200.00     9400.00
04240            -200.00     9600.00
04241            -200.00     9800.00
04242            -200.00     9800.00
04243            -160.00     9800.00
04244            -160.00     9800.00
04245            -160.00    10000.00
04246            -200.00     9800.00
04247            -200.00     9800.00
04248            -200.00    10000.00
04249            -200.00    10000.00
04250            -160.00    10000.00
04251            -200.00    10000.00
04252            -160.00    10000.00
04253            -200.00     9800.00
04254            -200.00    10000.00
04255            -200.00    10000.00
04256            -200.00    10000.00
04257            -200.00    10000.00
04258            -200.00    10000.00
04259            -200.00    10000.00
04260            -200.00    10000.00
04261            -280.00    10000.00
04262            -200.00    10000.00
04263            -200.00    10000.00
04264            -200.00    10000.00
04265            -200.00     9800.00
04266            -200.00     9800.00
04267            -200.00     9800.00
04268            -240.00     9800.00
04269            -240.00     9800.00
04270            -200.00     9600.00
04271            -200.00     9400.00
04272            -200.00     9400.00
04273            -200.00     9400.00
04274            -200.00     9400.00
04275            -200.00     9400.00
04276            -200.00     9400.00
04277            -200.00     9200.00
04278            -200.00     9200.00
04279            -200.00     9200.00
04280            -200.00     8800.00
04281            -200.00     9000.00
04282            -200.00     9000.00
04283            -200.00     8600.00
04284            -200.00     8600.00
04285            -200.00     8600.00
04286            -200.00     8400.00
04287            -200.00     8400.00
04288            -200.00     8200.00
04289            -200.00     8200.00
04290            -200.00     8200.00
04291            -200.00     8000.00
04292            -200.00     7800.00
04293            -200.00     7800.00
04294            -200.00     7600.00
04295            -200.00     7400.00
04296            -200.00     7400.00
04297            -200.00     7000.00
04298            -200.00     7000.00
04299            -200.00     6800.00
04300            -200.00     6600.00
04301            -160.00     6600.00
04302            -200.00     6600.00
04303            -160.00     6400.00
04304            -160.00     6200.00
04305            -160.00     6000.00
04306            -200.00     6000.00
04307            -200.00     5800.00
04308            -160.00     5600.00
04309            -160.00     5400.00
04310            -160.00     5400.00
04311            -160.00     5200.00
04312            -160.00     5000.00
04313            -160.00     4600.00
04314            -160.00     4600.00
04315            -160.00     4400.00
04316            -160.00     4400.00
04317            -160.00     4200.00
04318            -160.00     4000.00
04319            -160.00     3800.00
04320            -120.00     3600.00
04321            -120.00     3600.00
04322            -120.00     3400.00
04323            -120.00     3200.00
04324            -120.00     2800.00
04325            -120.00     2800.00
04326            -120.00     2600.00
04327            -120.00     2200.00
04328             -80.00     2200.00
04329             -40.00     2000.00
04330             -40.00     1800.00
04331            -120.00     1600.00
04332            -120.00     1400.00
04333            -120.00     1200.00
04334            -120.00     1200.00
04335            -120.00      800.00
04336             -40.00      600.00
04337             -40.00      400.00
04338             -40.00      200.00
04339             -40.00      200.00
04340             -40.00        0.00
04341               0.00     -200.00
04342              40.00     -400.00
04343              80.00     -600.00
04344             120.00     -800.00
04345               0.00    -1200.00
04346               0.00    -1200.00
04347               0.00    -1200.00
04348               0.00    -1400.00
04349             280.00    -1800.00
04350             960.00    -2000.00
04351            1000.00    -2200.00
04352               0.00    -2200.00
04353            -960.00    -2800.00
04354           -1480.00    -2800.00
04355           -1320.00    -2400.00
04356             240.00    -3000.00
04357             600.00    -3400.00
04358             160.00    -3000.00
04359             640.00    -3600.00
04360             280.00    -3600.00
04361               0.00    -3400.00
04362             160.00    -4400.00
04363            -160.00    -4000.00
04364             160.00    -4400.00
04365             200.00    -4400.00
04366            -120.00    -4600.00
04367            -120.00    -5000.00
04368             -40.00    -4600.00
04369             120.00    -5200.00
04370              40.00    -5400.00
04371             160.00    -5400.00
04372              80.00    -5800.00
04373               0.00    -5800.00
04374             200.00    -6000.00
04375             120.00    -6000.00
04376              40.00    -6200.00
04377             120.00    -6600.00
04378             120.00    -6600.00
04379             120.00    -6800.00
04380              40.00    -6800.00
04381              80.00    -7000.00
04382             160.00    -7000.00
04383             160.00    -7400.00
04384             120.00    -7400.00
04385             120.00    -7200.00
04386             120.00    -7600.00
04387             120.00    -7800.00
04388             120.00    -7800.00
04389             160.00    -8200.00
04390             120.00    -8200.00
04391             120.00    -8200.00
04392             160.00    -8400.00
04393             120.00    -8600.00
04394             120.00    -8600.00
04395             160.00    -8600.00
04396             160.00    -8600.00
04397             120.00    -9000.00
04398             160.00    -8800.00
04399             160.00    -9000.00
04400             120.00    -9200.00
04401             120.00    -9000.00
04402             120.00    -9200.00
04403             120.00    -9400.00
04404             160.00    -9400.00
04405             200.00    -9400.00
04406             160.00    -9400.00
04407             160.00    -9400.00
04408             120.00    -9400.00
04409             120.00    -9800.00
04410             120.00    -9800.00
04411             160.00    -9800.00
04412             200.00    -9800.00
04413             160.00    -9800.00
04414             160.00    -9800.00
04415             160.00   -10000.00
04416             160.00   -10000.00
04417             160.00   -10000.00
04418             160.00   -10000.00
04419             160.00   -10000.00
04420             200.00   -10000.00
04421             200.00   -10000.00
04422             200.00   -10000.00
04423             160.00   -10000.00
04424             160.00   -10000.00
04425             200.00   -10200.00
04426             200.00   -10000.00
04427             160.00   -10000.00
04428             200.00   -10000.00
04429             160.00   -10000.00
04430             160.00   -10000.00
04431             160.00    -9800.00
04432             200.00    -9800.00
04433             200.00    -9800.00
04434             280.00    -9800.00
04435             200.00    -9800.00
04436             200.00    -9800.00
04437             160.00    -9800.00
04438             200.00    -9400.00
04439             200.00    -9400.00
04440             200.00    -9400.00
04441             200.00    -9400.00
04442             200.00    -9400.00
04443             200.00    -9200.00
04444             160.00    -9200.00
04445             160.00    -9200.00
04446             200.00    -9200.00
04447             200.00    -9000.00
04448             200.00    -9000.00
04449             200.00    -9000.00
04450             160.00    -8800.00
04451             160.00    -8600.00
04452             160.00    -8600.00
04453             160.00    -8600.00
04454             200.00    -8400.00
04455             160.00    -8400.00
04456             200.00    -8200.00
04457             200.00    -8200.00
04458             200.00    -7800.00
04459             160.00    -7800.00
04460             160.00    -7800.00
04461             160.00    -7600.00
04462             160.00    -7400.00
04463             160.00    -7200.00
04464             160.00    -7400.00
04465             200.00    -7000.00
04466             160.00    -7000.00
04467             120.00    -6800.00
04468             120.00    -6600.00
04469             160.00    -6600.00
04470             160.00    -6400.00
04471             160.00    -6200.00
04472             160.00    -6200.00
04473             120.00    -6000.00
04474             120.00    -5800.00
04475             120.00    -5600.00
04476             120.00    -5400.00
04477             160.00    -5400.00
04478             160.00    -5200.00
04479             120.00    -5000.00
04480             120.00    -4800.00
04481             120.00    -4600.00
04482              40.00    -4400.00
04483             120.00    -4400.00
04484             160.00    -4200.00
04485             120.00    -3800.00
04486             120.00    -3800.00
04487             120.00    -3600.00
04488             120.00    -3600.00
04489             120.00    -3200.00
04490              80.00    -3000.00
04491             120.00    -3000.00
04492             120.00    -2600.00
04493              40.00    -2600.00
04494             120.00    -2400.00
04495              40.00    -2200.00
04496              80.00    -2000.00
04497              40.00    -2000.00
04498              40.00    -1400.00
04499              40.00    -1400.00
04500             120.00    -1200.00
04501              80.00    -1000.00
04502              80.00     -800.00
04503              40.00     -600.00
04504              40.00     -600.00
04505              40.00     -400.00
04506              80.00     -200.00
04507              80.00        0.00
04508              40.00      200.00
04509             120.00      400.00
04510             160.00      600.00
04511             160.00      800.00
04512             160.00     1000.00
04513             120.00     1000.00
04514              80.00     1200.00
04515             120.00     1400.00
04516             480.00     1800.00
04517            1240.00     2000.00
04518             840.00     2200.00
04519            -480.00     2200.00
04520           -1600.00     2000.00
04521           -1920.00     2600.00
04522            -200.00     3000.00
04523             960.00     2800.00
04524             160.00     3000.00
04525             520.00     3400.00
04526             440.00     3200.00
04527            -320.00     4200.00
04528               0.00     3800.00
04529            -200.00     3600.00
04530             120.00     4600.00
04531             280.00     4000.00
04532            -360.00     4400.00
04533             -40.00     5000.00
04534            -160.00     4600.00
04535            -200.00     5200.00
04536              40.00     5000.00
04537             -40.00     5600.00
04538               0.00     5800.00
04539            -240.00     5200.00
04540               0.00     6000.00
04541               0.00     5800.00
04542            -200.00     6200.00
04543             -40.00     6400.00
04544            -120.00     6200.00
04545            -120.00     6800.00
04546            -200.00     6600.00
04547            -160.00     7000.00
04548             -40.00     7000.00
04549            -120.00     7000.00
04550             -40.00     7400.00
04551            -160.00     7400.00
04552            -120.00     7600.00
04553            -160.00     7600.00
04554             -80.00     7800.00
04555            -160.00     7800.00
04556            -160.00     8200.00
04557            -160.00     8200.00
04558            -200.00     8200.00
04559             -40.00     8400.00
04560            -120.00     8400.00
04561            -120.00     8400.00
04562            -200.00     8600.00
04563            -200.00     8800.00
04564            -160.00     9000.00
04565            -160.00     8800.00
04566            -160.00     9000.00
04567            -160.00     9200.00
04568            -200.00     9200.00
04569            -200.00     9200.00
04570            -120.00     9200.00
04571            -120.00     9400.00
04572            -160.00     9400.00
04573            -200.00     9600.00
04574            -200.00     9600.00
04575            -200.00     9800.00
04576            -160.00     9800.00
04577            -160.00     9800.00
04578            -160.00     9800.00
04579            -160.00     9800.00
04580            -200.00     9800.00
04581            -200.00    10000.00
04582            -200.00    10000.00
04583            -200.00    10000.00
04584            -160.00    10000.00
04585            -200.00    10000.00
04586            -200.00    10000.00
04587            -200.00    10000.00
04588            -200.00    10000.00
04589            -200.00    10000.00
04590            -200.00    10000.00
04591            -200.00    10200.00
04592            -200.00    10000.00
04593            -200.00    10000.00
04594            -200.00    10000.00
04595            -240.00    10000.00
04596            -240.00     9800.00
04597            -200.00     9800.00
04598            -200.00     9800.00
04599            -200.00    10000.00
04600            -200.00    10000.00
04601            -280.00    10000.00
04602            -280.00     9800.00
04603            -200.00     9800.00
04604            -200.00     9800.00
04605            -200.00     9800.00
04606            -160.00     9400.00
04607            -200.00     9600.00
04608            -280.00     9400.00
04609            -240.00     9400.00
04610            -240.00     9400.00
04611            -200.00     9400.00
04612            -200.00     9200.00
04613            -200.00     9200.00
04614            -200.00     9000.00
04615            -240.00     9000.00
04616            -200.00     8800.00
04617            -200.00     8600.00
04618            -160.00     8600.00
04619            -200.00     8600.00
04620            -200.00     8600.00
04621            -200.00     8400.00
04622            -200.00     8200.00
04623            -200.00     8200.00
04624            -200.00     8200.00
04625            -200.00     8000.00
04626            -200.00     7800.00
04627            -200.00     7800.00
04628            -200.00     7600.00
04629            -200.00     7600.00
04630            -200.00     7400.00
04631            -200.00     7200.00
04632            -200.00     7000.00
04633            -200.00     7000.00
04634            -200.00     6800.00
04635            -160.00     6600.00
04636            -160.00     6600.00
04637            -200.00     6400.00
04638            -200.00     6200.00
04639            -160.00     6200.00
04640            -160.00     6000.00
04641            -200.00     5800.00
04642            -160.00     5800.00
04643            -160.00     5600.00
04644            -160.00     5400.00
04645            -160.00     5200.00
04646            -160.00     5000.00
04647            -160.00     4800.00
04648            -160.00     4800.00
04649            -160.00     4600.00
04650            -160.00     4400.00
04651            -160.00     4200.00
04652            -120.00     4000.00
04653            -160.00     3800.00
04654            -160.00     3600.00
04655            -160.00     3400.00
04656            -160.00     3400.00
04657            -120.00     3000.00
04658            -120.00     3000.00
04659            -120.00     2800.00
04660            -160.00     2600.00
04661            -160.00     2200.00
04662            -160.00     2200.00
04663            -120.00     2000.00
04664             -80.00     1800.00
04665             -40.00     1800.00
04666             -40.00     1400.00
04667            -120.00     1200.00
04668            -120.00     1200.00
04669            -120.00     1000.00
04670            -120.00      600.00
04671             -40.00      600.00
04672            -120.00      400.00
04673             -40.00      200.00
04674             -40.00        0.00
04675             -40.00     -400.00
04676               0.00     -400.00
04677             120.00     -600.00
04678             120.00     -600.00
04679              40.00     -800.00
04680               0.00    -1000.00
04681               0.00    -1200.00
04682              40.00    -1200.00
04683             160.00    -1400.00
04684             640.00    -1800.00
04685            1080.00    -2200.00
04686             480.00    -2200.00
04687            -640.00    -2600.00
04688           -1280.00    -2800.00
04689           -1480.00    -2600.00
04690            -440.00    -2600.00
04691             680.00    -3200.00
04692             200.00    -3000.00
04693             480.00    -3400.00
04694             600.00    -3800.00
04695             -40.00    -3400.00
04696             160.00    -4200.00
04697             -40.00    -4200.00
04698            -120.00    -4200.00
04699             320.00    -4600.00
04700               0.00    -4200.00
04701            -120.00    -5000.00
04702            -120.00    -5000.00
04703              40.00    -4800.00
04704             120.00    -5400.00
04705             120.00    -5400.00
04706             160.00    -5600.00
04707             -40.00    -5600.00
04708             120.00    -6000.00
04709             160.00    -6200.00
04710              40.00    -6000.00
04711             120.00    -6400.00
04712             160.00    -6600.00
04713             120.00    -6600.00
04714               0.00    -6800.00
04715               0.00    -6800.00
04716             120.00    -7000.00
04717             160.00    -7000.00
04718             120.00    -7400.00
04719             120.00    -7400.00
04720             120.00    -7600.00
04721             160.00    -7800.00
04722              40.00    -7800.00
04723              80.00    -7800.00
04724              40.00    -8200.00
04725              40.00    -8200.00
04726             160.00    -8200.00
04727             160.00    -8400.00
04728             160.00    -8600.00
04729             160.00    -8600.00
04730             120.00    -8600.00
04731              80.00    -8800.00
04732             120.00    -9000.00
04733             160.00    -9000.00
04734             200.00    -9200.00
04735             120.00    -9200.00
04736              80.00    -9200.00
04737              80.00    -9200.00
04738             120.00    -9200.00
04739             200.00    -9400.00
04740             200.00    -9400.00
04741             200.00    -9600.00
04742             120.00    -9600.00
04743             120.00    -9600.00
04744             120.00    -9800.00
04745             160.00    -9800.00
04746             200.00    -9800.00
04747             200.00    -9800.00
04748             160.00    -9800.00
04749             160.00   -10000.00
04750             160.00    -9800.00
04751             160.00   -10000.00
04752             200.00    -9800.00
04753             200.00   -10000.00
04754             200.00   -10000.00
04755             160.00   -10000.00
04756             160.00   -10000.00
04757             160.00    -9800.00
04758             160.00   -10000.00
04759             200.00   -10000.00
04760             280.00   -10000.00
04761             240.00    -9800.00
04762             240.00   -10000.00
04763             160.00    -9800.00
04764             160.00   -10000.00
04765             160.00    -9800.00
04766             200.00    -9800.00
04767             200.00    -9800.00
04768             200.00    -9800.00
04769             200.00    -9800.00
04770             160.00    -9800.00
04771             200.00    -9600.00
04772             200.00    -9400.00
04773             200.00    -9400.00
04774             200.00    -9400.00
04775             160.00    -9400.00
04776             200.00    -9400.00
04777             160.00    -9400.00
04778             160.00    -9200.00
04779             200.00    -9200.00
04780             200.00    -9200.00
04781             200.00    -9000.00
04782             200.00    -9000.00
04783             160.00    -9000.00
04784             160.00    -8800.00
04785             160.00    -8800.00
04786             200.00    -8600.00
04787             200.00    -8400.00
04788             200.00    -8400.00
04789             160.00    -8400.00
04790             160.00    -8200.00
04791             160.00    -8200.00
04792             200.00    -8000.00
04793             160.00    -7800.00
04794             160.00    -7800.00
04795             120.00    -7600.00
04796             120.00    -7400.00
04797             160.00    -7200.00
04798             160.00    -7200.00
04799             160.00    -7200.00
04800             160.00    -7000.00
04801             160.00    -6800.00
04802             160.00    -6800.00
04803             160.00    -6600.00
04804             120.00    -6400.00
04805             160.00    -6200.00
04806             120.00    -6200.00
04807             160.00    -6000.00
04808             160.00    -6000.00
04809             120.00    -5600.00
04810             120.00    -5600.00
04811             160.00    -5400.00
04812             120.00    -5200.00
04813             160.00    -5000.00
04814             160.00    -4800.00
04815             120.00    -4600.00
04816             120.00    -4600.00
04817             120.00    -4400.00
04818             120.00    -4200.00
04819             120.00    -4000.00
04820             120.00    -3800.00
04821             120.00    -3600.00
04822             120.00    -3600.00
04823             120.00    -3400.00
04824              80.00    -3000.00
04825              40.00    -2800.00
04826             120.00    -2800.00
04827             120.00    -2600.00
04828             120.00    -2400.00
04829              40.00    -2200.00
04830              40.00    -2000.00
04831              40.00    -1800.00
04832             120.00    -1800.00
04833              80.00    -1400.00
04834             120.00    -1400.00
04835             120.00    -1200.00
04836              40.00     -800.00
04837               0.00     -600.00
04838              40.00     -600.00
04839              40.00     -400.00
04840              80.00     -200.00
04841              40.00        0.00
04842              40.00      200.00
04843              40.00      400.00
04844             120.00      600.00
04845             160.00      600.00
04846             160.00     1000.00
04847             120.00     1000.00
04848             120.00     1400.00
04849              80.00     1400.00
04850             200.00     1800.00
04851             960.00     1800.00
04852            1240.00     2000.00
04853             120.00     2200.00
04854           -1240.00     2000.00
04855           -2040.00     2200.00
04856           -1160.00     3000.00
04857             800.00     3000.00
04858             440.00     2600.00
04859             280.00     3400.00
04860             680.00     3000.00
04861            -160.00     3800.00
04862            -160.00     4200.00
04863             -40.00     3400.00
04864            -200.00     4400.00
04865             440.00     4400.00
04866            -160.00     3800.00
04867            -280.00     5200.00
04868               0.00     4600.00
04869            -280.00     5000.00
04870               0.00     5200.00
04871               0.00     5000.00
04872               0.00     5800.00
04873            -120.00     5200.00
04874            -160.00     5800.00
04875              40.00     6000.00
04876            -200.00     5800.00
04877            -120.00     6200.00
04878             -40.00     6200.00
04879            -120.00     6600.00
04880            -120.00     6600.00
04881            -160.00     6600.00
04882             -40.00     7400.00
04883             -40.00     6800.00
04884             -40.00     7400.00
04885            -120.00     7000.00
04886            -120.00     7600.00
04887            -160.00     7600.00
04888            -120.00     7800.00
04889            -120.00     7800.00
04890            -160.00     7800.00
04891            -120.00     8200.00
04892            -200.00     8200.00
04893            -120.00     8200.00
04894            -120.00     8400.00
04895            -120.00     8400.00
04896            -160.00     8600.00
04897            -200.00     8400.00
04898            -160.00     9000.00
04899            -160.00     8800.00
04900            -160.00     9000.00
04901            -160.00     9000.00
04902            -200.00     9200.00
04903            -200.00     9200.00
04904            -160.00     9200.00
04905            -160.00     9400.00
04906            -160.00     9400.00
04907            -160.00     9400.00
04908            -200.00     9600.00
04909            -160.00     9800.00
04910            -200.00     9600.00
04911            -200.00     9600.00
04912            -160.00     9800.00
04913            -200.00     9800.00
04914            -160.00     9800.00
04915            -200.00    10000.00
04916            -200.00    10000.00
04917            -200.00     9800.00
04918            -200.00    10000.00
04919            -200.00    10000.00
04920            -200.00    10000.00
04921            -200.00    10000.00
04922            -200.00    10000.00
04923            -200.00    10000.00
04924            -200.00    10000.00
04925            -200.00    10000.00
04926            -200.00    10000.00
04927            -200.00    10000.00
04928            -200.00    10200.00
04929            -200.00    10000.00
04930            -280.00    10000.00
04931            -200.00    10000.00
04932            -200.00    10000.00
04933            -200.00    10000.00
04934            -200.00    10000.00
04935            -200.00     9800.00
04936            -200.00     9800.00
04937            -240.00     9800.00
04938            -200.00    10000.00
04939            -200.00     9600.00
04940            -200.00     9600.00
04941            -160.00     9600.00
04942            -200.00     9600.00
04943            -240.00     9400.00
04944            -200.00     9400.00
04945            -200.00     9400.00
04946            -200.00     9400.00
04947            -200.00     9200.00
04948            -200.00     9000.00
04949            -200.00     9000.00
04950            -200.00     9000.00
04951            -200.00     9000.00
04952            -200.00     8600.00
04953            -200.00     8600.00
04954            -200.00     8600.00
04955            -200.00     8400.00
04956            -200.00     8400.00
04957            -200.00     8400.00
04958            -200.00     8200.00
04959            -200.00     8000.00
04960            -200.00     8000.00
04961            -200.00     7800.00
04962            -200.00     7600.00
04963            -200.00     7600.00
04964            -200.00     7400.00
04965            -160.00     7400.00
04966            -160.00     7000.00
04967            -160.00     7000.00
04968            -200.00     6800.00
04969            -160.00     6600.00
04970            -200.00     6600.00
04971            -160.00     6400.00
04972            -200.00     6400.00
04973            -160.00     6200.00
04974            -160.00     6000.00
04975            -160.00     5800.00
04976            -160.00     5800.00
04977            -160.00     5800.00
04978            -160.00     5400.00
04979            -120.00     5200.00
04980            -160.00     5200.00
04981            -160.00     5000.00
04982            -160.00     4600.00
04983            -160.00     4600.00
04984            -160.00     4400.00
04985            -120.00     4200.00
04986            -160.00     4200.00
04987            -160.00     3800.00
04988            -120.00     3800.00
04989            -160.00     3600.00
04990            -160.00     3400.00
04991            -160.00     3000.00
04992            -120.00     3200.00
04993            -120.00     2800.00
04994            -120.00     2800.00
04995            -120.00     2400.00
04996            -160.00     2200.00
04997            -120.00     2200.00
04998            -120.00     1800.00
04999             -80.00     1800.00
05000            -120.00     1600.00
