Unit:(mV)
                     CH1         CH2
Frequency              ? 298.952 kHz
00001               0.00    -1000.00
00002             160.00    -1200.00
00003             640.00    -1400.00
00004            1000.00    -1800.00
00005             360.00    -2000.00
00006            -760.00    -2000.00
00007           -1720.00    -1800.00
00008           -1120.00    -1800.00
00009             680.00    -2400.00
00010             480.00    -2400.00
00011               0.00    -2200.00
00012             600.00    -3000.00
00013             280.00    -2600.00
00014               0.00    -2600.00
00015             120.00    -3400.00
00016            -200.00    -3000.00
00017             200.00    -3000.00
00018             360.00    -3600.00
00019            -240.00    -3600.00
00020             -40.00    -3600.00
00021              40.00    -3600.00
00022               0.00    -4000.00
00023             280.00    -4200.00
00024             160.00    -4000.00
00025             -40.00    -4400.00
00026              40.00    -4600.00
00027             280.00    -4400.00
00028             160.00    -4600.00
00029             -40.00    -4600.00
00030             160.00    -5000.00
00031             200.00    -4800.00
00032              40.00    -5200.00
00033              40.00    -5400.00
00034             120.00    -5000.00
00035             200.00    -5400.00
00036             160.00    -5400.00
00037             160.00    -5600.00
00038             200.00    -5800.00
00039             120.00    -5800.00
00040             200.00    -6000.00
00041             200.00    -6000.00
00042             160.00    -6000.00
00043             160.00    -6200.00
00044             280.00    -6200.00
00045             280.00    -6200.00
00046             200.00    -6600.00
00047             280.00    -6600.00
00048             320.00    -6600.00
00049             200.00    -6600.00
00050             280.00    -6800.00
00051             320.00    -6600.00
00052             320.00    -7000.00
00053             320.00    -7000.00
00054             320.00    -7000.00
00055             320.00    -7000.00
00056             320.00    -7000.00
00057             440.00    -7200.00
00058             400.00    -7200.00
00059             360.00    -7200.00
00060             360.00    -7200.00
00061             440.00    -7400.00
00062             440.00    -7200.00
00063             440.00    -7600.00
00064             520.00    -7200.00
00065             520.00    -7400.00
00066             520.00    -7600.00
00067             520.00    -7600.00
00068             520.00    -7600.00
00069             560.00    -7600.00
00070             600.00    -7600.00
00071             680.00    -7600.00
00072             640.00    -7600.00
00073             680.00    -7600.00
00074             720.00    -7600.00
00075             760.00    -7600.00
00076             760.00    -7600.00
00077             840.00    -7600.00
00078             920.00    -7600.00
00079             920.00    -7600.00
00080             960.00    -7800.00
00081             920.00    -7600.00
00082             960.00    -7600.00
00083            1000.00    -7600.00
00084            1080.00    -7600.00
00085            1080.00    -7200.00
00086            1160.00    -7400.00
00087            1120.00    -7400.00
00088            1120.00    -7400.00
00089            1120.00    -7200.00
00090            1160.00    -7400.00
00091            1160.00    -7200.00
00092            1160.00    -7200.00
00093            1200.00    -7200.00
00094            1240.00    -7200.00
00095            1160.00    -7200.00
00096            1160.00    -7000.00
00097            1120.00    -7000.00
00098            1160.00    -7000.00
00099            1120.00    -6800.00
00100            1080.00    -7000.00
00101            1080.00    -7000.00
00102            1080.00    -6600.00
00103            1000.00    -6600.00
00104            1000.00    -6600.00
00105             920.00    -6600.00
00106             920.00    -6400.00
00107             840.00    -6600.00
00108             840.00    -6200.00
00109             760.00    -6200.00
00110             760.00    -6200.00
00111             760.00    -6000.00
00112             680.00    -6000.00
00113             640.00    -5800.00
00114             600.00    -5800.00
00115             600.00    -5600.00
00116             520.00    -5800.00
00117             520.00    -5400.00
00118             520.00    -5400.00
00119             480.00    -5400.00
00120             440.00    -5200.00
00121             440.00    -5200.00
00122             440.00    -5000.00
00123             360.00    -5000.00
00124             440.00    -4600.00
00125             360.00    -4600.00
00126             320.00    -4600.00
00127             320.00    -4400.00
00128             280.00    -4200.00
00129             280.00    -4200.00
00130             280.00    -4200.00
00131             280.00    -4000.00
00132             240.00    -3800.00
00133             280.00    -3800.00
00134             240.00    -3400.00
00135             200.00    -3400.00
00136             200.00    -3200.00
00137             200.00    -3200.00
00138             160.00    -3000.00
00139             200.00    -3000.00
00140             160.00    -2600.00
00141             160.00    -2800.00
00142             120.00    -2600.00
00143             160.00    -2200.00
00144             160.00    -2200.00
00145             160.00    -2200.00
00146             120.00    -1800.00
00147             120.00    -2000.00
00148              80.00    -1400.00
00149             120.00    -1400.00
00150             120.00    -1200.00
00151             120.00    -1200.00
00152             120.00    -1000.00
00153              40.00     -800.00
00154              40.00     -800.00
00155              80.00     -600.00
00156              80.00     -400.00
00157              40.00     -400.00
00158              40.00     -200.00
00159              40.00     -200.00
00160              40.00      200.00
00161               0.00      200.00
00162              40.00      400.00
00163             160.00      400.00
00164             160.00      600.00
00165             120.00      600.00
00166              40.00      800.00
00167              40.00     1000.00
00168              40.00     1000.00
00169             160.00     1200.00
00170             920.00     1400.00
00171            1080.00     1800.00
00172               0.00     1800.00
00173           -1520.00     1600.00
00174           -2120.00     1800.00
00175            -160.00     2600.00
00176            1160.00     2400.00
00177            -120.00     2200.00
00178             160.00     2600.00
00179             760.00     2400.00
00180            -360.00     3400.00
00181            -280.00     2800.00
00182             -40.00     2800.00
00183             -40.00     3600.00
00184             360.00     3200.00
00185            -360.00     3000.00
00186            -280.00     4000.00
00187             280.00     3600.00
00188            -520.00     3600.00
00189               0.00     4200.00
00190             320.00     4000.00
00191            -320.00     4400.00
00192            -120.00     4200.00
00193             -40.00     4400.00
00194             -40.00     5000.00
00195            -200.00     4200.00
00196            -200.00     5000.00
00197              40.00     5200.00
00198            -200.00     4800.00
00199            -200.00     5400.00
00200            -120.00     5200.00
00201            -160.00     5600.00
00202             -40.00     5400.00
00203            -200.00     5400.00
00204            -120.00     5800.00
00205            -200.00     5800.00
00206            -240.00     6000.00
00207            -120.00     6000.00
00208            -200.00     6000.00
00209            -200.00     6200.00
00210            -200.00     6200.00
00211            -200.00     6400.00
00212            -280.00     6400.00
00213            -200.00     6400.00
00214            -200.00     6600.00
00215            -280.00     6600.00
00216            -320.00     6800.00
00217            -280.00     6800.00
00218            -280.00     7000.00
00219            -320.00     7000.00
00220            -280.00     7000.00
00221            -360.00     7000.00
00222            -360.00     7000.00
00223            -320.00     7000.00
00224            -320.00     7000.00
00225            -400.00     7200.00
00226            -440.00     7000.00
00227            -440.00     7400.00
00228            -440.00     7400.00
00229            -520.00     7400.00
00230            -480.00     7400.00
00231            -480.00     7600.00
00232            -480.00     7400.00
00233            -520.00     7600.00
00234            -520.00     7600.00
00235            -640.00     7400.00
00236            -640.00     7600.00
00237            -600.00     7600.00
00238            -640.00     7800.00
00239            -680.00     7600.00
00240            -680.00     7600.00
00241            -760.00     7600.00
00242            -800.00     7600.00
00243            -800.00     7600.00
00244            -800.00     7600.00
00245            -840.00     7600.00
00246            -920.00     7600.00
00247            -920.00     7600.00
00248            -960.00     7600.00
00249           -1000.00     7600.00
00250           -1080.00     7600.00
00251           -1080.00     7600.00
00252           -1080.00     7600.00
00253           -1120.00     7600.00
00254           -1120.00     7600.00
00255           -1160.00     7600.00
00256           -1160.00     7400.00
00257           -1160.00     7400.00
00258           -1160.00     7400.00
00259           -1240.00     7400.00
00260           -1200.00     7400.00
00261           -1200.00     7200.00
00262           -1240.00     7400.00
00263           -1160.00     7000.00
00264           -1160.00     7000.00
00265           -1160.00     7000.00
00266           -1160.00     6800.00
00267           -1120.00     7000.00
00268           -1120.00     6800.00
00269           -1080.00     6800.00
00270           -1000.00     6800.00
00271            -960.00     6800.00
00272            -960.00     6600.00
00273            -920.00     6600.00
00274            -920.00     6600.00
00275            -880.00     6400.00
00276            -840.00     6200.00
00277            -800.00     6200.00
00278            -720.00     6200.00
00279            -720.00     6200.00
00280            -680.00     6000.00
00281            -640.00     5800.00
00282            -640.00     5800.00
00283            -600.00     5800.00
00284            -520.00     5600.00
00285            -520.00     5600.00
00286            -480.00     5400.00
00287            -480.00     5200.00
00288            -480.00     5200.00
00289            -440.00     5000.00
00290            -440.00     5000.00
00291            -440.00     4800.00
00292            -360.00     4600.00
00293            -360.00     4600.00
00294            -320.00     4600.00
00295            -320.00     4200.00
00296            -320.00     4200.00
00297            -320.00     4200.00
00298            -280.00     3800.00
00299            -280.00     3800.00
00300            -280.00     3800.00
00301            -280.00     3600.00
00302            -200.00     3400.00
00303            -240.00     3400.00
00304            -200.00     3400.00
00305            -200.00     3400.00
00306            -200.00     3000.00
00307            -200.00     2800.00
00308            -160.00     2800.00
00309            -200.00     2600.00
00310            -200.00     2400.00
00311            -160.00     2200.00
00312            -160.00     2200.00
00313            -160.00     2000.00
00314            -200.00     1800.00
00315            -120.00     1800.00
00316            -120.00     1600.00
00317            -120.00     1400.00
00318            -120.00     1200.00
00319            -120.00     1200.00
00320            -120.00     1000.00
00321             -80.00     1000.00
00322             -80.00      800.00
00323             -40.00      600.00
00324             -40.00      400.00
00325             -40.00      400.00
00326             -40.00      200.00
00327             -40.00        0.00
00328             -40.00     -200.00
00329               0.00     -200.00
00330              40.00     -400.00
00331              40.00     -600.00
00332               0.00     -400.00
00333               0.00     -600.00
00334               0.00     -800.00
00335               0.00    -1000.00
00336              40.00    -1000.00
00337             320.00    -1200.00
00338             920.00    -1600.00
00339             760.00    -1800.00
00340            -200.00    -2000.00
00341           -1280.00    -2200.00
00342           -1720.00    -1800.00
00343            -160.00    -2000.00
00344             920.00    -2600.00
00345               0.00    -2200.00
00346             320.00    -2800.00
00347             600.00    -2800.00
00348             -40.00    -2200.00
00349             160.00    -3000.00
00350               0.00    -3400.00
00351            -120.00    -3000.00
00352             480.00    -3400.00
00353               0.00    -3600.00
00354            -280.00    -3600.00
00355             120.00    -3800.00
00356             -40.00    -3800.00
00357             120.00    -4200.00
00358             280.00    -4200.00
00359               0.00    -4200.00
00360             -40.00    -4600.00
00361             160.00    -4400.00
00362             280.00    -4400.00
00363               0.00    -4600.00
00364              40.00    -5000.00
00365             280.00    -5000.00
00366             120.00    -5000.00
00367              40.00    -5400.00
00368             120.00    -5200.00
00369             200.00    -5200.00
00370             200.00    -5800.00
00371             120.00    -5400.00
00372             200.00    -5600.00
00373             160.00    -5800.00
00374             120.00    -5800.00
00375             280.00    -6000.00
00376             160.00    -6000.00
00377             120.00    -6400.00
00378             200.00    -6200.00
00379             280.00    -6200.00
00380             200.00    -6400.00
00381             280.00    -6600.00
00382             320.00    -6400.00
00383             240.00    -6600.00
00384             240.00    -6800.00
00385             320.00    -6600.00
00386             320.00    -6800.00
00387             320.00    -7000.00
00388             320.00    -7000.00
00389             320.00    -7000.00
00390             320.00    -7000.00
00391             320.00    -7000.00
00392             440.00    -7200.00
00393             440.00    -7200.00
00394             400.00    -7200.00
00395             440.00    -7200.00
00396             440.00    -7400.00
00397             440.00    -7200.00
00398             480.00    -7400.00
00399             520.00    -7200.00
00400             520.00    -7400.00
00401             520.00    -7600.00
00402             600.00    -7200.00
00403             600.00    -7600.00
00404             600.00    -7600.00
00405             640.00    -7600.00
00406             640.00    -7600.00
00407             680.00    -7600.00
00408             760.00    -7600.00
00409             760.00    -7200.00
00410             760.00    -7600.00
00411             760.00    -7600.00
00412             840.00    -7600.00
00413             920.00    -7600.00
00414             920.00    -7800.00
00415             960.00    -7600.00
00416             960.00    -7600.00
00417            1000.00    -7600.00
00418            1080.00    -7400.00
00419            1080.00    -7600.00
00420            1080.00    -7200.00
00421            1120.00    -7400.00
00422            1160.00    -7600.00
00423            1120.00    -7400.00
00424            1160.00    -7400.00
00425            1160.00    -7200.00
00426            1160.00    -7400.00
00427            1160.00    -7200.00
00428            1200.00    -7400.00
00429            1240.00    -7200.00
00430            1160.00    -7000.00
00431            1160.00    -7000.00
00432            1120.00    -7000.00
00433            1120.00    -7000.00
00434            1120.00    -6800.00
00435            1080.00    -6800.00
00436            1080.00    -6800.00
00437            1080.00    -6600.00
00438            1000.00    -6600.00
00439             960.00    -6600.00
00440             960.00    -6600.00
00441             920.00    -6600.00
00442             800.00    -6400.00
00443             760.00    -6400.00
00444             760.00    -6200.00
00445             760.00    -6200.00
00446             760.00    -6200.00
00447             680.00    -6000.00
00448             640.00    -6000.00
00449             600.00    -5800.00
00450             560.00    -5600.00
00451             600.00    -5400.00
00452             520.00    -5400.00
00453             520.00    -5200.00
00454             480.00    -5200.00
00455             440.00    -5000.00
00456             400.00    -5000.00
00457             400.00    -5000.00
00458             360.00    -4600.00
00459             440.00    -4800.00
00460             320.00    -4600.00
00461             320.00    -4400.00
00462             320.00    -4200.00
00463             320.00    -4200.00
00464             320.00    -4200.00
00465             320.00    -3800.00
00466             280.00    -3800.00
00467             280.00    -3600.00
00468             200.00    -3400.00
00469             200.00    -3400.00
00470             200.00    -3400.00
00471             200.00    -3200.00
00472             200.00    -3000.00
00473             160.00    -3000.00
00474             200.00    -2800.00
00475             160.00    -2800.00
00476             160.00    -2600.00
00477             160.00    -2200.00
00478             120.00    -2200.00
00479             160.00    -2200.00
00480             160.00    -2000.00
00481             120.00    -1800.00
00482             120.00    -1800.00
00483             120.00    -1800.00
00484             120.00    -1200.00
00485             120.00    -1400.00
00486              40.00    -1200.00
00487              40.00     -800.00
00488              80.00    -1000.00
00489              40.00     -600.00
00490              80.00     -600.00
00491              40.00     -400.00
00492              40.00     -400.00
00493              40.00     -200.00
00494              40.00      200.00
00495              40.00      200.00
00496              40.00      200.00
00497             120.00      400.00
00498             160.00      600.00
00499             160.00      600.00
00500             120.00      800.00
00501              40.00      800.00
00502               0.00     1000.00
00503              80.00     1200.00
00504             520.00     1400.00
00505            1160.00     1600.00
00506             640.00     1800.00
00507            -760.00     1800.00
00508           -2200.00     1400.00
00509           -1400.00     2200.00
00510             960.00     2400.00
00511             600.00     2200.00
00512            -200.00     2400.00
00513             760.00     2400.00
00514             240.00     3000.00
00515            -480.00     3400.00
00516             -40.00     2600.00
00517            -120.00     3400.00
00518             280.00     3800.00
00519              40.00     2800.00
00520            -560.00     3600.00
00521             200.00     4200.00
00522            -120.00     3600.00
00523            -480.00     4000.00
00524             360.00     4200.00
00525             -40.00     4200.00
00526            -280.00     4400.00
00527               0.00     4000.00
00528             -40.00     4800.00
00529             -40.00     4600.00
00530            -280.00     4600.00
00531             -40.00     5200.00
00532             -40.00     4800.00
00533            -280.00     5200.00
00534            -120.00     5400.00
00535            -160.00     5200.00
00536            -120.00     5600.00
00537            -120.00     5400.00
00538            -200.00     5800.00
00539            -120.00     5800.00
00540            -280.00     5600.00
00541            -160.00     6000.00
00542            -120.00     5800.00
00543            -280.00     6000.00
00544            -200.00     6200.00
00545            -200.00     6200.00
00546            -240.00     6200.00
00547            -200.00     6200.00
00548            -160.00     6600.00
00549            -280.00     6600.00
00550            -280.00     6600.00
00551            -320.00     6600.00
00552            -320.00     6800.00
00553            -280.00     6800.00
00554            -320.00     6800.00
00555            -320.00     7000.00
00556            -440.00     7000.00
00557            -360.00     7000.00
00558            -320.00     7200.00
00559            -320.00     7000.00
00560            -440.00     7200.00
00561            -440.00     7400.00
00562            -440.00     7400.00
00563            -480.00     7400.00
00564            -480.00     7400.00
00565            -480.00     7400.00
00566            -520.00     7400.00
00567            -520.00     7600.00
00568            -520.00     7600.00
00569            -600.00     7600.00
00570            -640.00     7600.00
00571            -600.00     7600.00
00572            -600.00     7800.00
00573            -680.00     7600.00
00574            -640.00     7600.00
00575            -680.00     7600.00
00576            -760.00     7800.00
00577            -800.00     7600.00
00578            -760.00     7600.00
00579            -840.00     7600.00
00580            -880.00     7600.00
00581            -920.00     7800.00
00582            -920.00     7600.00
00583           -1000.00     7600.00
00584           -1000.00     7600.00
00585           -1000.00     7600.00
00586           -1080.00     7600.00
00587           -1120.00     7600.00
00588           -1120.00     7600.00
00589           -1160.00     7600.00
00590           -1160.00     7400.00
00591           -1160.00     7400.00
00592           -1160.00     7400.00
00593           -1160.00     7400.00
00594           -1160.00     7400.00
00595           -1160.00     7400.00
00596           -1240.00     7400.00
00597           -1200.00     7000.00
00598           -1240.00     7200.00
00599           -1160.00     7000.00
00600           -1160.00     7000.00
00601           -1120.00     7000.00
00602           -1120.00     6800.00
00603           -1120.00     6800.00
00604           -1000.00     6800.00
00605           -1000.00     6800.00
00606           -1000.00     6600.00
00607            -960.00     6600.00
00608            -920.00     6600.00
00609            -880.00     6600.00
00610            -840.00     6400.00
00611            -800.00     6200.00
00612            -760.00     6200.00
00613            -760.00     6000.00
00614            -680.00     6000.00
00615            -680.00     6000.00
00616            -640.00     5800.00
00617            -640.00     5800.00
00618            -600.00     5600.00
00619            -520.00     5600.00
00620            -520.00     5400.00
00621            -480.00     5200.00
00622            -520.00     5200.00
00623            -480.00     5200.00
00624            -440.00     5000.00
00625            -400.00     5000.00
00626            -360.00     4600.00
00627            -360.00     4600.00
00628            -360.00     4600.00
00629            -320.00     4400.00
00630            -320.00     4200.00
00631            -320.00     4200.00
00632            -320.00     4200.00
00633            -280.00     3800.00
00634            -280.00     3800.00
00635            -240.00     3600.00
00636            -280.00     3600.00
00637            -200.00     3400.00
00638            -200.00     3400.00
00639            -200.00     3000.00
00640            -200.00     3200.00
00641            -200.00     2800.00
00642            -200.00     2800.00
00643            -200.00     2600.00
00644            -160.00     2600.00
00645            -160.00     2400.00
00646            -120.00     2200.00
00647            -160.00     2000.00
00648            -160.00     1800.00
00649            -160.00     1600.00
00650            -160.00     1400.00
00651            -120.00     1600.00
00652            -120.00     1400.00
00653            -120.00     1200.00
00654            -120.00     1200.00
00655            -120.00     1000.00
00656             -40.00      800.00
00657             -80.00      800.00
00658             -40.00      600.00
00659             -40.00      400.00
00660             -40.00      400.00
00661             -40.00      200.00
00662             -40.00      200.00
00663             -40.00     -200.00
00664              40.00     -200.00
00665             120.00     -400.00
00666             120.00     -600.00
00667              40.00     -600.00
00668               0.00     -800.00
00669               0.00     -800.00
00670               0.00    -1000.00
00671             120.00    -1200.00
00672             640.00    -1400.00
00673            1000.00    -1600.00
00674             320.00    -1800.00
00675            -760.00    -2000.00
00676           -1760.00    -2000.00
00677           -1120.00    -1800.00
00678             640.00    -2200.00
00679             480.00    -2400.00
00680               0.00    -2200.00
00681             600.00    -3000.00
00682             280.00    -2600.00
00683               0.00    -2600.00
00684             120.00    -3400.00
00685            -200.00    -3000.00
00686             200.00    -3000.00
00687             320.00    -3600.00
00688            -280.00    -3600.00
00689             -40.00    -3800.00
00690               0.00    -3600.00
00691             -40.00    -4000.00
00692             240.00    -4200.00
00693             160.00    -4000.00
00694             -40.00    -4400.00
00695              40.00    -4600.00
00696             280.00    -4400.00
00697             160.00    -4600.00
00698             -40.00    -4600.00
00699             160.00    -5000.00
00700             200.00    -4800.00
00701              40.00    -5000.00
00702             120.00    -5400.00
00703             160.00    -5200.00
00704             200.00    -5600.00
00705             160.00    -5400.00
00706             160.00    -5600.00
00707             200.00    -5800.00
00708             120.00    -5800.00
00709             240.00    -6000.00
00710             280.00    -6000.00
00711             160.00    -6200.00
00712             160.00    -6200.00
00713             280.00    -6200.00
00714             280.00    -6200.00
00715             200.00    -6600.00
00716             320.00    -6400.00
00717             280.00    -6600.00
00718             280.00    -6800.00
00719             280.00    -6800.00
00720             320.00    -6800.00
00721             280.00    -6800.00
00722             320.00    -7000.00
00723             320.00    -6800.00
00724             320.00    -7000.00
00725             320.00    -7200.00
00726             440.00    -7200.00
00727             440.00    -7000.00
00728             440.00    -7400.00
00729             440.00    -7200.00
00730             440.00    -7400.00
00731             400.00    -7200.00
00732             440.00    -7600.00
00733             480.00    -7400.00
00734             520.00    -7200.00
00735             520.00    -7400.00
00736             600.00    -7400.00
00737             600.00    -7600.00
00738             600.00    -7600.00
00739             600.00    -7600.00
00740             640.00    -7600.00
00741             640.00    -7600.00
00742             640.00    -7600.00
00743             760.00    -7600.00
00744             760.00    -7600.00
00745             760.00    -7600.00
00746             800.00    -7800.00
00747             920.00    -7600.00
00748             920.00    -7600.00
00749             920.00    -7600.00
00750             960.00    -7600.00
00751             960.00    -7400.00
00752             960.00    -7600.00
00753            1040.00    -7600.00
00754            1080.00    -7400.00
00755            1080.00    -7600.00
00756            1120.00    -7200.00
00757            1160.00    -7200.00
00758            1160.00    -7400.00
00759            1160.00    -7200.00
00760            1160.00    -7400.00
00761            1200.00    -7200.00
00762            1160.00    -7200.00
00763            1160.00    -7200.00
00764            1160.00    -7200.00
00765            1120.00    -7000.00
00766            1160.00    -7000.00
00767            1160.00    -7000.00
00768            1120.00    -7000.00
00769            1080.00    -6800.00
00770            1080.00    -7000.00
00771            1040.00    -6800.00
00772            1000.00    -6600.00
00773            1000.00    -6600.00
00774             960.00    -6600.00
00775             920.00    -6600.00
00776             920.00    -6400.00
00777             840.00    -6200.00
00778             800.00    -6200.00
00779             760.00    -6200.00
00780             760.00    -6000.00
00781             680.00    -6000.00
00782             640.00    -5800.00
00783             640.00    -5800.00
00784             600.00    -5600.00
00785             600.00    -5400.00
00786             560.00    -5400.00
00787             480.00    -5400.00
00788             480.00    -5200.00
00789             480.00    -5200.00
00790             440.00    -5200.00
00791             400.00    -4800.00
00792             440.00    -4800.00
00793             360.00    -4800.00
00794             360.00    -4600.00
00795             320.00    -4600.00
00796             320.00    -4400.00
00797             280.00    -4200.00
00798             320.00    -4200.00
00799             280.00    -4200.00
00800             280.00    -3800.00
00801             280.00    -3800.00
00802             240.00    -3600.00
00803             280.00    -3600.00
00804             200.00    -3400.00
00805             200.00    -3200.00
00806             200.00    -3000.00
00807             200.00    -3000.00
00808             160.00    -2800.00
00809             160.00    -2800.00
00810             160.00    -2600.00
00811             160.00    -2600.00
00812             120.00    -2200.00
00813             120.00    -2200.00
00814             120.00    -2200.00
00815             120.00    -2000.00
00816             120.00    -1800.00
00817             120.00    -1600.00
00818              40.00    -1400.00
00819              80.00    -1400.00
00820              80.00    -1200.00
00821              40.00    -1200.00
00822              40.00     -800.00
00823              40.00     -600.00
00824              40.00     -600.00
00825              40.00     -600.00
00826              40.00     -400.00
00827              40.00     -400.00
00828              40.00     -200.00
00829              40.00      200.00
00830              40.00      200.00
00831              40.00      400.00
00832             120.00      600.00
00833             160.00      600.00
00834             120.00      600.00
00835              40.00      600.00
00836              40.00     1000.00
00837              40.00     1200.00
00838             200.00     1400.00
00839             920.00     1400.00
00840            1080.00     1800.00
00841               0.00     1800.00
00842           -1560.00     1800.00
00843           -2120.00     1800.00
00844            -120.00     2600.00
00845            1120.00     2200.00
00846            -120.00     2200.00
00847             200.00     2400.00
00848             720.00     2400.00
00849            -320.00     3200.00
00850            -200.00     2800.00
00851               0.00     2600.00
00852               0.00     3600.00
00853             360.00     3200.00
00854            -440.00     3000.00
00855            -280.00     4200.00
00856             320.00     3600.00
00857            -520.00     3800.00
00858               0.00     4200.00
00859             280.00     4000.00
00860            -320.00     4600.00
00861             -80.00     4200.00
00862              40.00     4400.00
00863               0.00     5000.00
00864            -120.00     4400.00
00865            -200.00     5000.00
00866              40.00     5200.00
00867            -320.00     5000.00
00868            -280.00     5200.00
00869            -160.00     5400.00
00870            -160.00     5600.00
00871               0.00     5400.00
00872             -40.00     5600.00
00873               0.00     6000.00
00874            -160.00     5600.00
00875            -280.00     5800.00
00876            -200.00     6000.00
00877            -320.00     6000.00
00878            -360.00     6200.00
00879            -320.00     6200.00
00880            -200.00     6600.00
00881            -200.00     6200.00
00882            -120.00     6400.00
00883            -160.00     6600.00
00884            -280.00     6600.00
00885            -320.00     6600.00
00886            -320.00     6800.00
00887            -320.00     6800.00
00888            -320.00     6800.00
00889            -320.00     6800.00
00890            -360.00     7000.00
00891            -400.00     7000.00
00892            -320.00     7000.00
00893            -320.00     7200.00
00894            -360.00     7200.00
00895            -360.00     7200.00
00896            -400.00     7400.00
00897            -440.00     7400.00
00898            -520.00     7400.00
00899            -520.00     7400.00
00900            -520.00     7400.00
00901            -520.00     7400.00
00902            -480.00     7600.00
00903            -520.00     7600.00
00904            -520.00     7600.00
00905            -520.00     7600.00
00906            -520.00     7800.00
00907            -640.00     7600.00
00908            -760.00     7600.00
00909            -760.00     7600.00
00910            -760.00     7800.00
00911            -800.00     7600.00
00912            -800.00     7600.00
00913            -760.00     7600.00
00914            -800.00     7600.00
00915            -880.00     7600.00
00916            -920.00     7600.00
00917           -1000.00     7600.00
00918           -1000.00     7600.00
00919           -1080.00     7600.00
00920           -1000.00     7600.00
00921           -1040.00     7600.00
00922           -1120.00     7400.00
00923           -1160.00     7600.00
00924           -1160.00     7400.00
00925           -1160.00     7400.00
00926           -1160.00     7400.00
00927           -1240.00     7400.00
00928           -1160.00     7400.00
00929           -1160.00     7400.00
00930           -1160.00     7400.00
00931           -1240.00     7200.00
00932           -1160.00     7200.00
00933           -1240.00     7000.00
00934           -1160.00     7200.00
00935           -1160.00     7000.00
00936           -1080.00     7000.00
00937           -1080.00     6800.00
00938           -1080.00     7000.00
00939           -1000.00     6800.00
00940           -1000.00     6600.00
00941           -1000.00     6600.00
00942            -960.00     6600.00
00943            -840.00     6600.00
00944            -840.00     6200.00
00945            -840.00     6200.00
00946            -800.00     6200.00
00947            -720.00     6200.00
00948            -680.00     6000.00
00949            -680.00     6000.00
00950            -680.00     5800.00
00951            -680.00     5800.00
00952            -600.00     5600.00
00953            -520.00     5400.00
00954            -520.00     5600.00
00955            -520.00     5600.00
00956            -520.00     5200.00
00957            -480.00     5200.00
00958            -480.00     5000.00
00959            -400.00     5200.00
00960            -440.00     4800.00
00961            -360.00     4600.00
00962            -320.00     4600.00
00963            -360.00     4400.00
00964            -320.00     4400.00
00965            -320.00     4200.00
00966            -320.00     4200.00
00967            -280.00     4000.00
00968            -280.00     4000.00
00969            -280.00     3800.00
00970            -240.00     3600.00
00971            -200.00     3400.00
00972            -200.00     3400.00
00973            -200.00     3200.00
00974            -200.00     3200.00
00975            -200.00     3000.00
00976            -200.00     2800.00
00977            -160.00     2600.00
00978            -160.00     2400.00
00979            -160.00     2600.00
00980            -160.00     2200.00
00981            -160.00     2200.00
00982            -160.00     2000.00
00983            -160.00     1800.00
00984            -120.00     1800.00
00985            -120.00     1600.00
00986            -120.00     1400.00
00987             -80.00     1400.00
00988            -160.00     1200.00
00989            -120.00     1000.00
00990            -120.00     1000.00
00991             -80.00      800.00
00992             -40.00      600.00
00993            -120.00      600.00
00994             -80.00      200.00
00995             -40.00      200.00
00996             -40.00      200.00
00997             -40.00     -200.00
00998               0.00     -200.00
00999              40.00     -400.00
01000             120.00     -600.00
01001              80.00     -600.00
01002               0.00     -800.00
01003               0.00     -800.00
01004               0.00    -1000.00
01005               0.00    -1000.00
01006             320.00    -1200.00
01007             920.00    -1400.00
01008             800.00    -1800.00
01009            -200.00    -2000.00
01010           -1320.00    -2200.00
01011           -1760.00    -1800.00
01012            -200.00    -2200.00
01013             920.00    -2600.00
01014               0.00    -2200.00
01015             320.00    -2800.00
01016             600.00    -3000.00
01017             -40.00    -2200.00
01018             120.00    -3000.00
01019             -40.00    -3400.00
01020            -120.00    -3000.00
01021             440.00    -3400.00
01022               0.00    -3600.00
01023            -240.00    -3600.00
01024              80.00    -3800.00
01025             -80.00    -3800.00
01026             120.00    -4200.00
01027             280.00    -4000.00
01028               0.00    -4200.00
01029               0.00    -4600.00
01030             160.00    -4400.00
01031             280.00    -4600.00
01032               0.00    -4800.00
01033              40.00    -5000.00
01034             280.00    -4800.00
01035             160.00    -5000.00
01036              80.00    -5400.00
01037             120.00    -5200.00
01038             200.00    -5200.00
01039             160.00    -5400.00
01040             120.00    -5400.00
01041             200.00    -5600.00
01042             160.00    -5800.00
01043             160.00    -5800.00
01044             280.00    -6000.00
01045             200.00    -6000.00
01046             160.00    -6200.00
01047             240.00    -6200.00
01048             280.00    -6200.00
01049             200.00    -6600.00
01050             240.00    -6400.00
01051             320.00    -6600.00
01052             280.00    -6600.00
01053             280.00    -6800.00
01054             280.00    -6800.00
01055             320.00    -6800.00
01056             320.00    -7000.00
01057             360.00    -7000.00
01058             360.00    -7000.00
01059             320.00    -7000.00
01060             360.00    -7000.00
01061             400.00    -7000.00
01062             440.00    -7200.00
01063             400.00    -7400.00
01064             440.00    -7200.00
01065             440.00    -7200.00
01066             440.00    -7400.00
01067             480.00    -7400.00
01068             520.00    -7200.00
01069             480.00    -7600.00
01070             520.00    -7400.00
01071             520.00    -7600.00
01072             560.00    -7600.00
01073             600.00    -7600.00
01074             640.00    -7600.00
01075             640.00    -7600.00
01076             640.00    -7600.00
01077             680.00    -7600.00
01078             760.00    -7600.00
01079             760.00    -7600.00
01080             760.00    -7600.00
01081             840.00    -7600.00
01082             920.00    -7600.00
01083             920.00    -7600.00
01084             960.00    -7600.00
01085             960.00    -7400.00
01086             960.00    -7600.00
01087            1000.00    -7600.00
01088            1080.00    -7400.00
01089            1120.00    -7600.00
01090            1120.00    -7600.00
01091            1120.00    -7200.00
01092            1120.00    -7400.00
01093            1160.00    -7400.00
01094            1160.00    -7200.00
01095            1200.00    -7200.00
01096            1240.00    -7200.00
01097            1240.00    -7200.00
01098            1160.00    -7000.00
01099            1160.00    -7200.00
01100            1120.00    -7000.00
01101            1120.00    -6800.00
01102            1160.00    -7000.00
01103            1120.00    -6800.00
01104            1120.00    -6800.00
01105            1080.00    -6800.00
01106            1040.00    -6600.00
01107            1000.00    -6600.00
01108             960.00    -6600.00
01109             960.00    -6600.00
01110             920.00    -6200.00
01111             840.00    -6200.00
01112             800.00    -6200.00
01113             760.00    -6200.00
01114             760.00    -6000.00
01115             760.00    -6000.00
01116             640.00    -6000.00
01117             640.00    -5800.00
01118             600.00    -5800.00
01119             560.00    -5800.00
01120             600.00    -5600.00
01121             520.00    -5400.00
01122             480.00    -5400.00
01123             480.00    -5200.00
01124             440.00    -5000.00
01125             440.00    -5000.00
01126             440.00    -5000.00
01127             360.00    -4800.00
01128             360.00    -4600.00
01129             360.00    -4600.00
01130             320.00    -4400.00
01131             280.00    -4400.00
01132             280.00    -4200.00
01133             320.00    -4200.00
01134             320.00    -4000.00
01135             280.00    -3800.00
01136             280.00    -3800.00
01137             200.00    -3600.00
01138             200.00    -3400.00
01139             160.00    -3400.00
01140             200.00    -3200.00
01141             160.00    -3000.00
01142             160.00    -3000.00
01143             160.00    -2800.00
01144             160.00    -2600.00
01145             160.00    -2600.00
01146             120.00    -2400.00
01147             120.00    -2200.00
01148             120.00    -2200.00
01149             120.00    -2200.00
01150             120.00    -1800.00
01151              40.00    -1600.00
01152             120.00    -1800.00
01153              80.00    -1400.00
01154              40.00    -1400.00
01155              80.00    -1200.00
01156              80.00     -800.00
01157              80.00     -800.00
01158              40.00     -600.00
01159              40.00     -600.00
01160              40.00     -400.00
01161              40.00     -200.00
01162               0.00        0.00
01163              40.00        0.00
01164              40.00      200.00
01165              40.00      200.00
01166             120.00      400.00
01167             160.00      400.00
01168             120.00      600.00
01169             120.00      800.00
01170              40.00     1000.00
01171              40.00     1000.00
01172             120.00     1200.00
01173             520.00     1400.00
01174            1160.00     1800.00
01175             640.00     1800.00
01176            -760.00     1800.00
01177           -2120.00     1600.00
01178           -1400.00     2200.00
01179             960.00     2600.00
01180             600.00     2200.00
01181            -200.00     2600.00
01182             680.00     2200.00
01183             280.00     3000.00
01184            -480.00     3400.00
01185             -40.00     2600.00
01186            -120.00     3200.00
01187             280.00     3800.00
01188              40.00     2800.00
01189            -520.00     3600.00
01190             160.00     4000.00
01191            -160.00     3600.00
01192            -480.00     3800.00
01193             360.00     4200.00
01194             -40.00     4200.00
01195            -280.00     4400.00
01196               0.00     4200.00
01197             -40.00     4600.00
01198             -40.00     4600.00
01199            -280.00     4400.00
01200             -40.00     5400.00
01201             -40.00     4800.00
01202            -280.00     5200.00
01203            -120.00     5400.00
01204            -160.00     5600.00
01205            -120.00     5400.00
01206            -160.00     5200.00
01207            -200.00     5800.00
01208            -160.00     5800.00
01209            -320.00     5800.00
01210            -160.00     6200.00
01211            -160.00     5800.00
01212            -200.00     6000.00
01213            -200.00     6200.00
01214            -280.00     6200.00
01215            -240.00     6400.00
01216            -200.00     6200.00
01217            -160.00     6600.00
01218            -280.00     6600.00
01219            -320.00     6600.00
01220            -320.00     6600.00
01221            -280.00     6800.00
01222            -280.00     6800.00
01223            -320.00     6800.00
01224            -320.00     7000.00
01225            -440.00     6800.00
01226            -320.00     7000.00
01227            -320.00     7200.00
01228            -360.00     7200.00
01229            -440.00     7000.00
01230            -440.00     7400.00
01231            -440.00     7400.00
01232            -480.00     7400.00
01233            -480.00     7400.00
01234            -480.00     7400.00
01235            -480.00     7600.00
01236            -520.00     7600.00
01237            -520.00     7600.00
01238            -600.00     7600.00
01239            -600.00     7600.00
01240            -600.00     7600.00
01241            -600.00     7600.00
01242            -680.00     7600.00
01243            -680.00     7800.00
01244            -680.00     7600.00
01245            -720.00     7800.00
01246            -760.00     7600.00
01247            -800.00     7600.00
01248            -800.00     7600.00
01249            -840.00     7800.00
01250            -920.00     7800.00
01251            -920.00     7800.00
01252           -1000.00     7600.00
01253           -1000.00     7600.00
01254           -1000.00     7600.00
01255           -1000.00     7600.00
01256           -1080.00     7600.00
01257           -1120.00     7600.00
01258           -1120.00     7600.00
01259           -1160.00     7400.00
01260           -1160.00     7400.00
01261           -1160.00     7400.00
01262           -1200.00     7400.00
01263           -1200.00     7400.00
01264           -1160.00     7400.00
01265           -1200.00     7200.00
01266           -1240.00     7200.00
01267           -1240.00     7000.00
01268           -1160.00     7000.00
01269           -1160.00     7000.00
01270           -1160.00     7000.00
01271           -1120.00     7000.00
01272           -1160.00     6800.00
01273           -1080.00     6800.00
01274           -1000.00     6600.00
01275            -960.00     6800.00
01276            -960.00     6600.00
01277            -960.00     6400.00
01278            -920.00     6400.00
01279            -840.00     6200.00
01280            -840.00     6200.00
01281            -800.00     6200.00
01282            -760.00     6000.00
01283            -680.00     6000.00
01284            -680.00     5800.00
01285            -640.00     5800.00
01286            -640.00     5800.00
01287            -600.00     5600.00
01288            -520.00     5400.00
01289            -520.00     5400.00
01290            -480.00     5400.00
01291            -480.00     5200.00
01292            -480.00     5000.00
01293            -440.00     5000.00
01294            -400.00     4800.00
01295            -360.00     4600.00
01296            -360.00     4600.00
01297            -320.00     4600.00
01298            -360.00     4400.00
01299            -320.00     4200.00
01300            -320.00     4200.00
01301            -280.00     4000.00
01302            -280.00     3800.00
01303            -280.00     3800.00
01304            -240.00     3600.00
01305            -280.00     3600.00
01306            -200.00     3400.00
01307            -200.00     3400.00
01308            -200.00     3200.00
01309            -200.00     3000.00
01310            -160.00     3000.00
01311            -200.00     2800.00
01312            -160.00     2600.00
01313            -200.00     2600.00
01314            -200.00     2200.00
01315            -160.00     2200.00
01316            -160.00     2000.00
01317            -160.00     2000.00
01318            -160.00     1800.00
01319            -120.00     1600.00
01320             -40.00     1400.00
01321            -120.00     1400.00
01322             -80.00     1200.00
01323            -120.00     1000.00
01324            -120.00     1000.00
01325            -120.00      800.00
01326             -40.00      600.00
01327             -80.00      400.00
01328             -40.00      400.00
01329             -40.00      200.00
01330             -40.00      200.00
01331             -40.00        0.00
01332             -40.00     -200.00
01333               0.00     -400.00
01334              40.00     -400.00
01335              40.00     -600.00
01336               0.00     -800.00
01337               0.00    -1000.00
01338               0.00     -800.00
01339               0.00    -1200.00
01340             160.00     -800.00
01341             600.00    -1400.00
01342             960.00    -1800.00
01343             360.00    -1800.00
01344            -800.00    -2000.00
01345           -1760.00    -2000.00
01346           -1160.00    -1800.00
01347             640.00    -2400.00
01348             480.00    -2200.00
01349             -40.00    -2400.00
01350             560.00    -3200.00
01351             280.00    -2400.00
01352             -40.00    -2600.00
01353             120.00    -3400.00
01354            -200.00    -3000.00
01355             200.00    -3000.00
01356             320.00    -3600.00
01357            -280.00    -3600.00
01358             -40.00    -3600.00
01359              40.00    -3600.00
01360             -40.00    -4000.00
01361             280.00    -4400.00
01362             160.00    -4000.00
01363             -40.00    -4400.00
01364              40.00    -4400.00
01365             280.00    -4400.00
01366             160.00    -4600.00
01367               0.00    -4800.00
01368             160.00    -5000.00
01369             200.00    -4800.00
01370              80.00    -5200.00
01371              40.00    -5400.00
01372             160.00    -5000.00
01373             200.00    -5400.00
01374             160.00    -5600.00
01375             160.00    -5600.00
01376             200.00    -5800.00
01377             160.00    -5800.00
01378             240.00    -5800.00
01379             280.00    -5800.00
01380             160.00    -6200.00
01381             160.00    -6200.00
01382             280.00    -6200.00
01383             280.00    -6400.00
01384             280.00    -6600.00
01385             280.00    -6600.00
01386             280.00    -6600.00
01387             200.00    -6600.00
01388             280.00    -6800.00
01389             320.00    -6800.00
01390             320.00    -7000.00
01391             320.00    -6800.00
01392             360.00    -7000.00
01393             320.00    -7000.00
01394             320.00    -7000.00
01395             440.00    -7000.00
01396             440.00    -7000.00
01397             360.00    -7400.00
01398             440.00    -7200.00
01399             440.00    -7400.00
01400             360.00    -7400.00
01401             440.00    -7600.00
01402             480.00    -7400.00
01403             520.00    -7600.00
01404             480.00    -7600.00
01405             520.00    -7400.00
01406             560.00    -7400.00
01407             520.00    -7600.00
01408             600.00    -7600.00
01409             640.00    -7600.00
01410             640.00    -7600.00
01411             680.00    -7600.00
01412             720.00    -7600.00
01413             680.00    -7600.00
01414             760.00    -7600.00
01415             800.00    -7600.00
01416             920.00    -7600.00
01417             880.00    -7600.00
01418             920.00    -7600.00
01419             960.00    -7600.00
01420             960.00    -7600.00
01421             960.00    -7600.00
01422            1080.00    -7400.00
01423            1080.00    -7600.00
01424            1120.00    -7600.00
01425            1120.00    -7600.00
01426            1160.00    -7200.00
01427            1120.00    -7400.00
01428            1200.00    -7200.00
01429            1200.00    -7200.00
01430            1160.00    -7200.00
01431            1240.00    -7200.00
01432            1200.00    -7400.00
01433            1200.00    -7000.00
01434            1120.00    -7000.00
01435            1160.00    -7000.00
01436            1160.00    -7000.00
01437            1120.00    -6800.00
01438            1120.00    -6800.00
01439            1080.00    -6800.00
01440            1080.00    -6800.00
01441            1000.00    -6600.00
01442             960.00    -6600.00
01443             960.00    -6600.00
01444             960.00    -6600.00
01445             920.00    -6400.00
01446             840.00    -6200.00
01447             800.00    -6200.00
01448             760.00    -6200.00
01449             760.00    -6200.00
01450             720.00    -6000.00
01451             680.00    -5800.00
01452             640.00    -5800.00
01453             600.00    -5600.00
01454             520.00    -5400.00
01455             520.00    -5400.00
01456             520.00    -5400.00
01457             480.00    -5200.00
01458             480.00    -5200.00
01459             440.00    -5000.00
01460             400.00    -5000.00
01461             360.00    -4800.00
01462             360.00    -4600.00
01463             320.00    -4600.00
01464             320.00    -4600.00
01465             320.00    -4400.00
01466             280.00    -4200.00
01467             280.00    -4200.00
01468             280.00    -4200.00
01469             280.00    -3800.00
01470             280.00    -3800.00
01471             200.00    -3600.00
01472             200.00    -3400.00
01473             160.00    -3400.00
01474             160.00    -3400.00
01475             200.00    -3000.00
01476             160.00    -3000.00
01477             160.00    -2800.00
01478             120.00    -2800.00
01479             120.00    -2600.00
01480             120.00    -2400.00
01481             160.00    -2200.00
01482             160.00    -2200.00
01483             120.00    -2000.00
01484             120.00    -2000.00
01485             120.00    -1800.00
01486              80.00    -1600.00
01487             120.00    -1400.00
01488             120.00    -1400.00
01489              40.00    -1200.00
01490              40.00     -800.00
01491              40.00     -800.00
01492              40.00     -800.00
01493              40.00     -800.00
01494              40.00     -400.00
01495              40.00     -200.00
01496              40.00     -200.00
01497              40.00     -200.00
01498              80.00      200.00
01499               0.00      200.00
01500              80.00      400.00
01501             160.00      400.00
01502             160.00      600.00
01503             160.00      800.00
01504             120.00     1000.00
01505              40.00     1000.00
01506              40.00     1200.00
01507             200.00     1200.00
01508             960.00     1600.00
01509            1080.00     1800.00
01510              40.00     1800.00
01511           -1560.00     1400.00
01512           -2200.00     1800.00
01513            -120.00     2600.00
01514            1160.00     2200.00
01515            -120.00     2200.00
01516             200.00     2400.00
01517             760.00     2600.00
01518            -320.00     3400.00
01519            -280.00     3000.00
01520             -40.00     2800.00
01521               0.00     3800.00
01522             400.00     3200.00
01523            -440.00     3000.00
01524            -200.00     4200.00
01525             280.00     3800.00
01526            -520.00     3600.00
01527               0.00     4200.00
01528             280.00     4000.00
01529            -360.00     4400.00
01530            -120.00     4200.00
01531             -40.00     4200.00
01532             -40.00     5000.00
01533            -200.00     4200.00
01534            -200.00     5000.00
01535              40.00     5200.00
01536            -200.00     4800.00
01537            -200.00     5200.00
01538            -120.00     5200.00
01539            -160.00     5600.00
01540             -40.00     5400.00
01541            -200.00     5400.00
01542            -120.00     5800.00
01543            -200.00     5600.00
01544            -280.00     5800.00
01545            -120.00     5800.00
01546            -200.00     6000.00
01547            -200.00     6000.00
01548            -200.00     6200.00
01549            -240.00     6600.00
01550            -240.00     6200.00
01551            -200.00     6400.00
01552            -200.00     6600.00
01553            -320.00     6600.00
01554            -320.00     6600.00
01555            -320.00     6600.00
01556            -280.00     6800.00
01557            -320.00     6800.00
01558            -280.00     7000.00
01559            -360.00     7000.00
01560            -360.00     7000.00
01561            -320.00     7200.00
01562            -320.00     7200.00
01563            -360.00     7200.00
01564            -440.00     7400.00
01565            -400.00     7400.00
01566            -440.00     7400.00
01567            -480.00     7400.00
01568            -440.00     7400.00
01569            -520.00     7400.00
01570            -480.00     7400.00
01571            -480.00     7600.00
01572            -520.00     7600.00
01573            -600.00     7600.00
01574            -600.00     7600.00
01575            -560.00     7600.00
01576            -640.00     7600.00
01577            -680.00     7600.00
01578            -680.00     7600.00
01579            -760.00     7800.00
01580            -760.00     7600.00
01581            -800.00     7800.00
01582            -800.00     7600.00
01583            -840.00     7800.00
01584            -840.00     7600.00
01585            -920.00     7800.00
01586            -960.00     7600.00
01587           -1000.00     7600.00
01588           -1000.00     7600.00
01589           -1000.00     7600.00
01590           -1080.00     7600.00
01591           -1120.00     7800.00
01592           -1120.00     7400.00
01593           -1160.00     7600.00
01594           -1160.00     7400.00
01595           -1200.00     7400.00
01596           -1160.00     7400.00
01597           -1240.00     7400.00
01598           -1200.00     7400.00
01599           -1240.00     7200.00
01600           -1240.00     7200.00
01601           -1240.00     7000.00
01602           -1160.00     7000.00
01603           -1160.00     7000.00
01604           -1160.00     7000.00
01605           -1160.00     6800.00
01606           -1120.00     6800.00
01607           -1120.00     6800.00
01608           -1000.00     6600.00
01609           -1000.00     6600.00
01610            -960.00     6600.00
01611            -960.00     6400.00
01612            -920.00     6600.00
01613            -840.00     6200.00
01614            -840.00     6200.00
01615            -800.00     6200.00
01616            -720.00     6000.00
01617            -720.00     6000.00
01618            -680.00     6000.00
01619            -680.00     5800.00
01620            -640.00     5800.00
01621            -600.00     5600.00
01622            -560.00     5800.00
01623            -520.00     5600.00
01624            -480.00     5200.00
01625            -480.00     5200.00
01626            -440.00     5200.00
01627            -440.00     5200.00
01628            -440.00     5000.00
01629            -360.00     4800.00
01630            -360.00     4600.00
01631            -320.00     4600.00
01632            -320.00     4400.00
01633            -320.00     4200.00
01634            -280.00     4200.00
01635            -280.00     4200.00
01636            -280.00     4000.00
01637            -200.00     3800.00
01638            -280.00     3800.00
01639            -280.00     3600.00
01640            -200.00     3600.00
01641            -200.00     3400.00
01642            -200.00     3400.00
01643            -200.00     3200.00
01644            -200.00     3000.00
01645            -200.00     2800.00
01646            -160.00     2600.00
01647            -160.00     2800.00
01648            -200.00     2400.00
01649            -160.00     2200.00
01650            -160.00     2200.00
01651            -160.00     2000.00
01652            -160.00     1800.00
01653            -120.00     1600.00
01654            -120.00     1400.00
01655             -40.00     1400.00
01656             -40.00     1400.00
01657            -120.00     1200.00
01658            -120.00     1000.00
01659            -120.00     1000.00
01660            -120.00      600.00
01661            -120.00      600.00
01662             -80.00      400.00
01663             -40.00      400.00
01664             -40.00      200.00
01665             -40.00        0.00
01666             -40.00     -200.00
01667             -40.00     -200.00
01668              40.00     -400.00
01669             120.00     -400.00
01670              40.00     -600.00
01671               0.00     -600.00
01672               0.00     -800.00
01673               0.00    -1000.00
01674               0.00    -1200.00
01675             360.00    -1200.00
01676             920.00    -1600.00
01677             760.00    -1800.00
01678            -200.00    -2000.00
01679           -1320.00    -2000.00
01680           -1760.00    -2000.00
01681            -160.00    -2200.00
01682             880.00    -2600.00
01683               0.00    -2200.00
01684             280.00    -2800.00
01685             600.00    -2800.00
01686             -40.00    -2400.00
01687             120.00    -3000.00
01688             -40.00    -3400.00
01689             -80.00    -3000.00
01690             440.00    -3400.00
01691               0.00    -3600.00
01692            -200.00    -3400.00
01693              80.00    -3800.00
01694             -40.00    -3800.00
01695             120.00    -4400.00
01696             280.00    -4200.00
01697               0.00    -4200.00
01698               0.00    -4600.00
01699             160.00    -4400.00
01700             280.00    -4600.00
01701               0.00    -5000.00
01702              40.00    -4800.00
01703             280.00    -5000.00
01704             120.00    -5000.00
01705              40.00    -5400.00
01706             120.00    -5200.00
01707             200.00    -5200.00
01708             160.00    -5800.00
01709             160.00    -5600.00
01710             200.00    -5600.00
01711             160.00    -5800.00
01712             200.00    -6000.00
01713             280.00    -6000.00
01714             200.00    -6000.00
01715             160.00    -6200.00
01716             200.00    -6200.00
01717             280.00    -6200.00
01718             240.00    -6600.00
01719             280.00    -6600.00
01720             320.00    -6400.00
01721             280.00    -6600.00
01722             280.00    -6800.00
01723             320.00    -6800.00
01724             320.00    -6800.00
01725             320.00    -7000.00
01726             320.00    -7000.00
01727             320.00    -7000.00
01728             320.00    -7000.00
01729             360.00    -7000.00
01730             440.00    -7200.00
01731             440.00    -7200.00
01732             400.00    -7200.00
01733             440.00    -7400.00
01734             440.00    -7200.00
01735             440.00    -7400.00
01736             440.00    -7400.00
01737             520.00    -7400.00
01738             520.00    -7600.00
01739             520.00    -7600.00
01740             600.00    -7200.00
01741             600.00    -7600.00
01742             600.00    -7600.00
01743             640.00    -7600.00
01744             640.00    -7600.00
01745             680.00    -7600.00
01746             680.00    -7600.00
01747             760.00    -7400.00
01748             760.00    -7600.00
01749             760.00    -7600.00
01750             840.00    -7600.00
01751             920.00    -7600.00
01752             920.00    -7600.00
01753             960.00    -7600.00
01754             960.00    -7400.00
01755            1000.00    -7600.00
01756            1080.00    -7600.00
01757            1080.00    -7200.00
01758            1080.00    -7600.00
01759            1080.00    -7400.00
01760            1120.00    -7600.00
01761            1120.00    -7200.00
01762            1160.00    -7400.00
01763            1200.00    -7200.00
01764            1240.00    -7400.00
01765            1240.00    -7200.00
01766            1240.00    -7200.00
01767            1200.00    -7000.00
01768            1160.00    -7000.00
01769            1160.00    -7000.00
01770            1200.00    -7000.00
01771            1200.00    -6800.00
01772            1120.00    -7000.00
01773            1080.00    -6800.00
01774            1080.00    -6800.00
01775            1000.00    -6800.00
01776            1000.00    -6600.00
01777             960.00    -6600.00
01778             960.00    -6600.00
01779             920.00    -6400.00
01780             840.00    -6400.00
01781             840.00    -6200.00
01782             760.00    -6200.00
01783             800.00    -6000.00
01784             760.00    -6000.00
01785             680.00    -6000.00
01786             640.00    -6000.00
01787             600.00    -5800.00
01788             560.00    -5600.00
01789             520.00    -5400.00
01790             520.00    -5400.00
01791             520.00    -5400.00
01792             440.00    -5200.00
01793             440.00    -5000.00
01794             360.00    -5000.00
01795             400.00    -5000.00
01796             360.00    -4800.00
01797             360.00    -4600.00
01798             320.00    -4600.00
01799             320.00    -4400.00
01800             280.00    -4400.00
01801             280.00    -4200.00
01802             280.00    -4200.00
01803             280.00    -4200.00
01804             280.00    -3800.00
01805             280.00    -3600.00
01806             200.00    -3600.00
01807             160.00    -3400.00
01808             200.00    -3400.00
01809             160.00    -3000.00
01810             160.00    -3000.00
01811             200.00    -2800.00
01812             160.00    -2800.00
01813             160.00    -2600.00
01814             160.00    -2600.00
01815             120.00    -2400.00
01816             160.00    -2200.00
01817             120.00    -2000.00
01818             120.00    -2200.00
01819             120.00    -1800.00
01820             120.00    -1800.00
01821             120.00    -1800.00
01822             120.00    -1400.00
01823             120.00    -1400.00
01824             120.00    -1200.00
01825             120.00    -1000.00
01826              80.00     -800.00
01827              40.00     -800.00
01828              80.00     -600.00
01829              40.00     -400.00
01830              40.00     -400.00
01831              80.00     -200.00
01832              40.00      200.00
01833              40.00      200.00
01834              80.00      400.00
01835             120.00      400.00
01836             160.00      600.00
01837             160.00      600.00
01838             120.00      800.00
01839              80.00      800.00
01840              40.00     1000.00
01841             120.00     1200.00
01842             520.00     1400.00
01843            1160.00     1400.00
01844             680.00     1600.00
01845            -720.00     1800.00
01846           -2120.00     1600.00
01847           -1360.00     2200.00
01848             960.00     2600.00
01849             600.00     2200.00
01850            -200.00     2400.00
01851             680.00     2600.00
01852             280.00     2800.00
01853            -520.00     3400.00
01854             -40.00     2600.00
01855             -80.00     3200.00
01856             280.00     3800.00
01857              40.00     2800.00
01858            -560.00     3800.00
01859             200.00     4200.00
01860            -160.00     3400.00
01861            -480.00     4000.00
01862             360.00     4000.00
01863             -80.00     4200.00
01864            -320.00     4400.00
01865               0.00     4000.00
01866            -120.00     4800.00
01867            -120.00     4600.00
01868            -280.00     4400.00
01869             -40.00     5200.00
01870               0.00     4800.00
01871            -320.00     5200.00
01872            -120.00     5400.00
01873            -160.00     5400.00
01874            -120.00     5600.00
01875            -160.00     5200.00
01876            -200.00     5800.00
01877            -160.00     5800.00
01878            -280.00     5800.00
01879            -200.00     6000.00
01880            -160.00     6000.00
01881            -200.00     6200.00
01882            -200.00     6200.00
01883            -200.00     6200.00
01884            -280.00     6400.00
01885            -200.00     6200.00
01886            -160.00     6600.00
01887            -280.00     6600.00
01888            -320.00     6600.00
01889            -320.00     6800.00
01890            -280.00     6600.00
01891            -280.00     6800.00
01892            -320.00     7000.00
01893            -320.00     7000.00
01894            -360.00     7000.00
01895            -360.00     7000.00
01896            -320.00     7400.00
01897            -320.00     7000.00
01898            -360.00     7200.00
01899            -400.00     7400.00
01900            -440.00     7400.00
01901            -480.00     7400.00
01902            -480.00     7400.00
01903            -480.00     7600.00
01904            -480.00     7600.00
01905            -480.00     7400.00
01906            -520.00     7600.00
01907            -600.00     7600.00
01908            -600.00     7400.00
01909            -560.00     7600.00
01910            -600.00     7800.00
01911            -640.00     7600.00
01912            -680.00     7600.00
01913            -680.00     7800.00
01914            -760.00     7800.00
01915            -800.00     7600.00
01916            -800.00     7600.00
01917            -800.00     7800.00
01918            -840.00     7800.00
01919            -920.00     7600.00
01920            -920.00     7800.00
01921           -1000.00     7600.00
01922           -1080.00     7600.00
01923           -1000.00     7600.00
01924           -1040.00     7600.00
01925           -1120.00     7400.00
01926           -1120.00     7600.00
01927           -1120.00     7600.00
01928           -1160.00     7400.00
01929           -1160.00     7600.00
01930           -1200.00     7400.00
01931           -1200.00     7400.00
01932           -1240.00     7200.00
01933           -1160.00     7400.00
01934           -1240.00     7400.00
01935           -1240.00     7200.00
01936           -1160.00     7200.00
01937           -1160.00     7000.00
01938           -1120.00     7000.00
01939           -1120.00     7000.00
01940           -1160.00     6800.00
01941           -1120.00     6800.00
01942           -1080.00     6600.00
01943           -1000.00     6800.00
01944           -1000.00     6600.00
01945            -960.00     6400.00
01946            -920.00     6600.00
01947            -840.00     6600.00
01948            -840.00     6400.00
01949            -800.00     6200.00
01950            -760.00     6200.00
01951            -760.00     6000.00
01952            -680.00     6000.00
01953            -680.00     5800.00
01954            -640.00     5800.00
01955            -600.00     5800.00
01956            -520.00     5600.00
01957            -520.00     5400.00
01958            -480.00     5600.00
01959            -480.00     5400.00
01960            -480.00     5200.00
01961            -440.00     5200.00
01962            -440.00     5000.00
01963            -400.00     5000.00
01964            -360.00     4600.00
01965            -360.00     4600.00
01966            -320.00     4600.00
01967            -320.00     4400.00
01968            -280.00     4400.00
01969            -280.00     4200.00
01970            -280.00     4200.00
01971            -280.00     3800.00
01972            -280.00     3800.00
01973            -280.00     3600.00
01974            -240.00     3600.00
01975            -200.00     3400.00
01976            -200.00     3400.00
01977            -200.00     3200.00
01978            -200.00     3200.00
01979            -200.00     2800.00
01980            -200.00     2800.00
01981            -160.00     2600.00
01982            -160.00     2600.00
01983            -160.00     2200.00
01984            -160.00     2200.00
01985            -120.00     2000.00
01986            -200.00     1800.00
01987            -160.00     1800.00
01988            -160.00     1600.00
01989            -160.00     1400.00
01990            -120.00     1400.00
01991             -80.00     1200.00
01992            -120.00     1000.00
01993            -120.00     1000.00
01994            -120.00      600.00
01995            -120.00      600.00
01996            -120.00      600.00
01997            -120.00      400.00
01998             -80.00      200.00
01999             -40.00      200.00
02000             -40.00     -200.00
02001             -80.00     -200.00
02002              40.00     -400.00
02003             120.00     -600.00
02004             120.00     -600.00
02005              40.00     -600.00
02006               0.00    -1000.00
02007             -40.00     -800.00
02008               0.00    -1000.00
02009             120.00    -1200.00
02010             640.00    -1400.00
02011             960.00    -1800.00
02012             360.00    -1800.00
02013            -760.00    -2000.00
02014           -1760.00    -2000.00
02015           -1120.00    -1800.00
02016             640.00    -2400.00
02017             440.00    -2400.00
02018             -40.00    -2200.00
02019             600.00    -3000.00
02020             280.00    -2600.00
02021             -40.00    -2600.00
02022             120.00    -3400.00
02023            -160.00    -3000.00
02024             160.00    -3000.00
02025             360.00    -3600.00
02026            -280.00    -3600.00
02027             -40.00    -3600.00
02028              40.00    -3600.00
02029             -40.00    -4000.00
02030             280.00    -4200.00
02031             160.00    -4000.00
02032             -40.00    -4400.00
02033              40.00    -4400.00
02034             280.00    -4400.00
02035             160.00    -4600.00
02036             -40.00    -4800.00
02037             160.00    -5000.00
02038             200.00    -4800.00
02039              40.00    -5200.00
02040             120.00    -5400.00
02041             160.00    -5200.00
02042             240.00    -5400.00
02043             160.00    -5600.00
02044             200.00    -5400.00
02045             160.00    -5800.00
02046             120.00    -5800.00
02047             240.00    -6000.00
02048             280.00    -5800.00
02049             120.00    -6000.00
02050             160.00    -6200.00
02051             280.00    -6200.00
02052             200.00    -6400.00
02053             200.00    -6400.00
02054             280.00    -6600.00
02055             280.00    -6600.00
02056             280.00    -6600.00
02057             280.00    -6800.00
02058             320.00    -6800.00
02059             280.00    -7000.00
02060             320.00    -6800.00
02061             320.00    -7000.00
02062             280.00    -7000.00
02063             280.00    -7000.00
02064             360.00    -7000.00
02065             440.00    -7000.00
02066             400.00    -7400.00
02067             400.00    -7200.00
02068             440.00    -7400.00
02069             440.00    -7200.00
02070             440.00    -7600.00
02071             520.00    -7400.00
02072             480.00    -7400.00
02073             480.00    -7400.00
02074             520.00    -7400.00
02075             520.00    -7600.00
02076             520.00    -7400.00
02077             640.00    -7600.00
02078             640.00    -7800.00
02079             640.00    -7600.00
02080             640.00    -7600.00
02081             760.00    -7600.00
02082             760.00    -7600.00
02083             760.00    -7800.00
02084             800.00    -7600.00
02085             840.00    -7600.00
02086             920.00    -7600.00
02087             920.00    -7400.00
02088             960.00    -7600.00
02089             960.00    -7600.00
02090            1000.00    -7400.00
02091            1080.00    -7600.00
02092            1080.00    -7200.00
02093            1080.00    -7600.00
02094            1120.00    -7400.00
02095            1120.00    -7200.00
02096            1120.00    -7400.00
02097            1160.00    -7200.00
02098            1200.00    -7400.00
02099            1240.00    -7200.00
02100            1240.00    -7000.00
02101            1200.00    -7200.00
02102            1160.00    -7200.00
02103            1160.00    -7000.00
02104            1160.00    -7000.00
02105            1160.00    -7000.00
02106            1160.00    -7000.00
02107            1080.00    -6800.00
02108            1080.00    -6800.00
02109            1040.00    -6800.00
02110            1000.00    -6800.00
02111            1000.00    -6600.00
02112             960.00    -6600.00
02113             920.00    -6600.00
02114             880.00    -6600.00
02115             840.00    -6200.00
02116             800.00    -6200.00
02117             760.00    -6200.00
02118             720.00    -6000.00
02119             720.00    -6000.00
02120             640.00    -5800.00
02121             600.00    -5800.00
02122             600.00    -5800.00
02123             520.00    -5600.00
02124             520.00    -5600.00
02125             520.00    -5400.00
02126             480.00    -5400.00
02127             440.00    -5200.00
02128             440.00    -5000.00
02129             400.00    -5000.00
02130             360.00    -4800.00
02131             360.00    -4800.00
02132             320.00    -4600.00
02133             320.00    -4600.00
02134             320.00    -4400.00
02135             280.00    -4200.00
02136             280.00    -4200.00
02137             280.00    -4200.00
02138             280.00    -3800.00
02139             240.00    -3800.00
02140             200.00    -3600.00
02141             200.00    -3400.00
02142             200.00    -3400.00
02143             200.00    -3400.00
02144             160.00    -3200.00
02145             160.00    -3000.00
02146             160.00    -3000.00
02147             160.00    -2800.00
02148             160.00    -2600.00
02149             160.00    -2600.00
02150             120.00    -2200.00
02151             160.00    -2200.00
02152             120.00    -2000.00
02153             120.00    -2000.00
02154             120.00    -1800.00
02155             120.00    -1800.00
02156             120.00    -1400.00
02157             120.00    -1200.00
02158              80.00    -1200.00
02159             120.00    -1000.00
02160             120.00     -800.00
02161             120.00     -600.00
02162             120.00     -600.00
02163             120.00     -600.00
02164              40.00     -400.00
02165              40.00     -200.00
02166              40.00     -200.00
02167              40.00      200.00
02168               0.00      200.00
02169             120.00      600.00
02170             160.00      400.00
02171             160.00      600.00
02172             120.00      600.00
02173             120.00      600.00
02174              40.00     1000.00
02175              40.00     1200.00
02176             200.00     1200.00
02177             960.00     1600.00
02178            1080.00     1800.00
02179               0.00     1800.00
02180           -1560.00     1400.00
02181           -2120.00     1800.00
02182            -120.00     2600.00
02183            1160.00     2200.00
02184            -120.00     2200.00
02185             160.00     2400.00
02186             760.00     2600.00
02187            -360.00     3400.00
02188            -280.00     2800.00
02189             -40.00     2600.00
02190               0.00     3800.00
02191             360.00     3400.00
02192            -440.00     3000.00
02193            -280.00     4200.00
02194             280.00     3800.00
02195            -520.00     3400.00
02196             -40.00     4200.00
02197             320.00     3800.00
02198            -360.00     4400.00
02199            -120.00     4200.00
02200               0.00     4200.00
02201             -40.00     5000.00
02202            -200.00     4400.00
02203            -200.00     5000.00
02204              40.00     5200.00
02205            -200.00     4800.00
02206            -240.00     5200.00
02207            -120.00     5200.00
02208            -200.00     5600.00
02209             -80.00     5400.00
02210            -200.00     5400.00
02211            -120.00     6000.00
02212            -200.00     5800.00
02213            -240.00     6000.00
02214            -120.00     6000.00
02215            -200.00     6000.00
02216            -200.00     6200.00
02217            -200.00     6200.00
02218            -200.00     6400.00
02219            -280.00     6400.00
02220            -200.00     6200.00
02221            -160.00     6600.00
02222            -320.00     6600.00
02223            -320.00     6800.00
02224            -280.00     6800.00
02225            -280.00     6800.00
02226            -320.00     6800.00
02227            -280.00     7000.00
02228            -360.00     7000.00
02229            -400.00     7000.00
02230            -320.00     7200.00
02231            -320.00     7000.00
02232            -360.00     7200.00
02233            -440.00     7200.00
02234            -440.00     7400.00
02235            -440.00     7400.00
02236            -480.00     7400.00
02237            -440.00     7400.00
02238            -480.00     7400.00
02239            -520.00     7600.00
02240            -480.00     7600.00
02241            -520.00     7600.00
02242            -640.00     7600.00
02243            -600.00     7600.00
02244            -600.00     7800.00
02245            -640.00     7600.00
02246            -640.00     7800.00
02247            -680.00     7600.00
02248            -760.00     7800.00
02249            -800.00     7600.00
02250            -800.00     7600.00
02251            -840.00     7800.00
02252            -880.00     7600.00
02253            -920.00     7600.00
02254            -920.00     7600.00
02255            -960.00     7600.00
02256           -1000.00     7600.00
02257           -1040.00     7600.00
02258           -1040.00     7600.00
02259           -1120.00     7600.00
02260           -1120.00     7400.00
02261           -1120.00     7400.00
02262           -1120.00     7400.00
02263           -1160.00     7400.00
02264           -1200.00     7400.00
02265           -1240.00     7400.00
02266           -1280.00     7200.00
02267           -1240.00     7400.00
02268           -1160.00     7400.00
02269           -1240.00     7200.00
02270           -1240.00     7200.00
02271           -1200.00     7000.00
02272           -1160.00     7000.00
02273           -1160.00     7000.00
02274           -1160.00     7000.00
02275           -1120.00     6800.00
02276           -1120.00     6800.00
02277           -1000.00     6800.00
02278            -960.00     6600.00
02279            -960.00     6600.00
02280            -960.00     6600.00
02281            -960.00     6600.00
02282            -920.00     6400.00
02283            -840.00     6200.00
02284            -760.00     6200.00
02285            -760.00     6000.00
02286            -680.00     6000.00
02287            -680.00     6000.00
02288            -640.00     5800.00
02289            -640.00     5800.00
02290            -520.00     5800.00
02291            -520.00     5600.00
02292            -520.00     5400.00
02293            -520.00     5400.00
02294            -480.00     5400.00
02295            -480.00     5000.00
02296            -440.00     5000.00
02297            -440.00     5000.00
02298            -360.00     4800.00
02299            -360.00     4600.00
02300            -320.00     4600.00
02301            -320.00     4400.00
02302            -320.00     4200.00
02303            -320.00     4200.00
02304            -280.00     4200.00
02305            -280.00     4000.00
02306            -240.00     3800.00
02307            -200.00     3800.00
02308            -200.00     3600.00
02309            -240.00     3600.00
02310            -240.00     3400.00
02311            -200.00     3400.00
02312            -200.00     3000.00
02313            -200.00     3000.00
02314            -200.00     2800.00
02315            -200.00     2600.00
02316            -160.00     2600.00
02317            -160.00     2400.00
02318            -160.00     2200.00
02319            -160.00     2000.00
02320            -160.00     2000.00
02321            -160.00     1800.00
02322            -160.00     1600.00
02323            -120.00     1600.00
02324            -120.00     1400.00
02325            -160.00     1400.00
02326            -120.00     1000.00
02327            -120.00     1000.00
02328            -120.00      800.00
02329            -120.00      600.00
02330            -120.00      600.00
02331            -120.00      400.00
02332            -120.00      400.00
02333             -40.00      200.00
02334             -40.00     -200.00
02335             -80.00     -200.00
02336               0.00     -200.00
02337             120.00     -400.00
02338             120.00     -400.00
02339              40.00     -600.00
02340               0.00     -600.00
02341               0.00     -800.00
02342               0.00    -1200.00
02343               0.00    -1200.00
02344             320.00    -1200.00
02345             920.00    -1400.00
02346             720.00    -1800.00
02347            -200.00    -2000.00
02348           -1280.00    -2000.00
02349           -1720.00    -1800.00
02350            -160.00    -2000.00
02351             920.00    -2600.00
02352               0.00    -2200.00
02353             280.00    -2800.00
02354             600.00    -2800.00
02355             -40.00    -2400.00
02356             120.00    -3200.00
02357               0.00    -3400.00
02358            -120.00    -3000.00
02359             440.00    -3400.00
02360               0.00    -3400.00
02361            -240.00    -3600.00
02362             120.00    -3800.00
02363             -40.00    -3800.00
02364              40.00    -4200.00
02365             280.00    -4200.00
02366              40.00    -4000.00
02367               0.00    -4600.00
02368             160.00    -4400.00
02369             280.00    -4600.00
02370               0.00    -4800.00
02371              40.00    -5000.00
02372             280.00    -5000.00
02373             160.00    -5000.00
02374              40.00    -5200.00
02375              80.00    -5200.00
02376             160.00    -5200.00
02377             200.00    -5400.00
02378             160.00    -5600.00
02379             160.00    -5600.00
02380             160.00    -5800.00
02381             120.00    -6000.00
02382             280.00    -6000.00
02383             160.00    -6000.00
02384             120.00    -6000.00
02385             200.00    -6200.00
02386             280.00    -6200.00
02387             200.00    -6400.00
02388             280.00    -6400.00
02389             320.00    -6600.00
02390             240.00    -6600.00
02391             200.00    -6600.00
02392             280.00    -6800.00
02393             320.00    -6800.00
02394             280.00    -7000.00
02395             320.00    -6800.00
02396             320.00    -7000.00
02397             320.00    -7000.00
02398             320.00    -7200.00
02399             400.00    -7000.00
02400             400.00    -7200.00
02401             360.00    -7200.00
02402             440.00    -7200.00
02403             440.00    -7400.00
02404             440.00    -7400.00
02405             440.00    -7400.00
02406             520.00    -7200.00
02407             520.00    -7600.00
02408             520.00    -7400.00
02409             600.00    -7600.00
02410             520.00    -7400.00
02411             600.00    -7400.00
02412             640.00    -7600.00
02413             640.00    -7600.00
02414             640.00    -7600.00
02415             680.00    -7400.00
02416             760.00    -7600.00
02417             760.00    -7600.00
02418             760.00    -7600.00
02419             920.00    -7600.00
02420             840.00    -7800.00
02421             920.00    -7600.00
02422             960.00    -7400.00
02423             960.00    -7400.00
02424            1000.00    -7200.00
02425            1080.00    -7400.00
02426            1080.00    -7600.00
02427            1080.00    -7600.00
02428            1120.00    -7200.00
02429            1120.00    -7200.00
02430            1120.00    -7400.00
02431            1160.00    -7200.00
02432            1240.00    -7200.00
02433            1200.00    -7400.00
02434            1240.00    -7200.00
02435            1160.00    -7200.00
02436            1160.00    -7000.00
02437            1160.00    -7000.00
02438            1160.00    -7000.00
02439            1160.00    -7000.00
02440            1160.00    -7000.00
02441            1080.00    -7000.00
02442            1080.00    -6800.00
02443            1040.00    -6800.00
02444            1000.00    -6800.00
02445            1040.00    -6600.00
02446             960.00    -6600.00
02447             960.00    -6600.00
02448             880.00    -6200.00
02449             840.00    -6400.00
02450             800.00    -6200.00
02451             760.00    -6200.00
02452             760.00    -6200.00
02453             680.00    -6000.00
02454             640.00    -5800.00
02455             640.00    -5800.00
02456             640.00    -5800.00
02457             520.00    -5400.00
02458             520.00    -5600.00
02459             520.00    -5400.00
02460             480.00    -5200.00
02461             440.00    -5200.00
02462             440.00    -5200.00
02463             400.00    -5000.00
02464             360.00    -5000.00
02465             360.00    -4600.00
02466             360.00    -4600.00
02467             320.00    -4600.00
02468             320.00    -4400.00
02469             320.00    -4400.00
02470             280.00    -4200.00
02471             280.00    -4200.00
02472             280.00    -4200.00
02473             280.00    -3800.00
02474             240.00    -3800.00
02475             200.00    -3600.00
02476             200.00    -3400.00
02477             200.00    -3400.00
02478             160.00    -3200.00
02479             160.00    -3000.00
02480             160.00    -3000.00
02481             160.00    -2800.00
02482             120.00    -2600.00
02483             120.00    -2600.00
02484             120.00    -2400.00
02485             160.00    -2200.00
02486             160.00    -2200.00
02487             160.00    -2000.00
02488             120.00    -1800.00
02489             120.00    -1800.00
02490             120.00    -1600.00
02491              80.00    -1400.00
02492             120.00    -1400.00
02493             120.00    -1200.00
02494             120.00     -800.00
02495              40.00     -800.00
02496              80.00     -800.00
02497              40.00     -600.00
02498              40.00     -400.00
02499              40.00     -200.00
02500              40.00        0.00
02501              40.00        0.00
02502              40.00      200.00
02503              40.00      400.00
02504             120.00      400.00
02505             160.00      600.00
02506             160.00      800.00
02507             120.00      800.00
02508              40.00     1000.00
02509              40.00     1200.00
02510              40.00     1200.00
02511             480.00     1400.00
02512            1120.00     1600.00
02513             680.00     1800.00
02514            -760.00     1600.00
02515           -2200.00     1600.00
02516           -1400.00     2200.00
02517             960.00     2600.00
02518             600.00     2200.00
02519            -200.00     2200.00
02520             680.00     2200.00
02521             280.00     3000.00
02522            -480.00     3400.00
02523             -40.00     2600.00
02524            -120.00     3400.00
02525             280.00     3600.00
02526              40.00     2800.00
02527            -520.00     3600.00
02528             160.00     4200.00
02529            -160.00     3600.00
02530            -480.00     3800.00
02531             360.00     4000.00
02532            -120.00     4200.00
02533            -320.00     4400.00
02534               0.00     4200.00
02535             -80.00     5000.00
02536             -40.00     4600.00
02537            -280.00     4400.00
02538             -40.00     5200.00
02539               0.00     4800.00
02540            -280.00     5200.00
02541            -120.00     5200.00
02542            -160.00     5400.00
02543             -80.00     5600.00
02544            -120.00     5200.00
02545            -200.00     5800.00
02546            -160.00     5800.00
02547            -320.00     5800.00
02548            -160.00     6200.00
02549            -160.00     6000.00
02550            -200.00     6200.00
02551            -200.00     6200.00
02552            -240.00     6200.00
02553            -280.00     6600.00
02554            -200.00     6200.00
02555            -200.00     6600.00
02556            -280.00     6600.00
02557            -320.00     6800.00
02558            -320.00     6800.00
02559            -280.00     6800.00
02560            -280.00     6800.00
02561            -280.00     7000.00
02562            -320.00     7000.00
02563            -360.00     7200.00
02564            -360.00     7000.00
02565            -320.00     7400.00
02566            -360.00     7200.00
02567            -360.00     7400.00
02568            -440.00     7400.00
02569            -440.00     7400.00
02570            -480.00     7400.00
02571            -480.00     7400.00
02572            -480.00     7400.00
02573            -520.00     7400.00
02574            -520.00     7600.00
02575            -520.00     7600.00
02576            -600.00     7600.00
02577            -640.00     7600.00
02578            -600.00     7600.00
02579            -640.00     7800.00
02580            -680.00     7600.00
02581            -680.00     7600.00
02582            -680.00     7800.00
02583            -760.00     7600.00
02584            -800.00     7800.00
02585            -800.00     7600.00
02586            -840.00     7800.00
02587            -920.00     7600.00
02588            -920.00     7800.00
02589            -920.00     7600.00
02590           -1000.00     7800.00
02591           -1040.00     7600.00
02592           -1000.00     7600.00
02593           -1080.00     7600.00
02594           -1120.00     7600.00
02595           -1120.00     7600.00
02596           -1160.00     7400.00
02597           -1160.00     7400.00
02598           -1160.00     7400.00
02599           -1200.00     7400.00
02600           -1240.00     7400.00
02601           -1200.00     7400.00
02602           -1160.00     7400.00
02603           -1240.00     7400.00
02604           -1240.00     7000.00
02605           -1200.00     7000.00
02606           -1160.00     7000.00
02607           -1120.00     7000.00
02608           -1120.00     7000.00
02609           -1120.00     6800.00
02610           -1120.00     6800.00
02611           -1080.00     6800.00
02612           -1000.00     6800.00
02613           -1000.00     6600.00
02614            -960.00     6600.00
02615            -920.00     6600.00
02616            -840.00     6400.00
02617            -840.00     6400.00
02618            -800.00     6200.00
02619            -760.00     6200.00
02620            -760.00     6000.00
02621            -680.00     6200.00
02622            -680.00     6000.00
02623            -640.00     5800.00
02624            -600.00     5800.00
02625            -560.00     5800.00
02626            -520.00     5400.00
02627            -520.00     5600.00
02628            -480.00     5400.00
02629            -480.00     5200.00
02630            -480.00     5200.00
02631            -440.00     5000.00
02632            -440.00     4800.00
02633            -360.00     4600.00
02634            -360.00     4600.00
02635            -320.00     4600.00
02636            -320.00     4400.00
02637            -320.00     4200.00
02638            -320.00     4200.00
02639            -280.00     4000.00
02640            -280.00     4000.00
02641            -280.00     3800.00
02642            -280.00     3800.00
02643            -240.00     3600.00
02644            -240.00     3600.00
02645            -240.00     3400.00
02646            -200.00     3200.00
02647            -200.00     3000.00
02648            -200.00     2800.00
02649            -200.00     2800.00
02650            -160.00     2600.00
02651            -160.00     2400.00
02652            -160.00     2400.00
02653            -120.00     2200.00
02654            -160.00     2000.00
02655            -160.00     2000.00
02656            -160.00     1800.00
02657            -160.00     1600.00
02658            -120.00     1400.00
02659            -120.00     1200.00
02660            -120.00     1200.00
02661            -120.00     1200.00
02662            -120.00     1000.00
02663            -120.00      800.00
02664            -120.00      800.00
02665            -120.00      400.00
02666             -80.00      400.00
02667             -40.00      200.00
02668             -40.00      200.00
02669             -40.00        0.00
02670             -40.00     -200.00
02671              40.00     -400.00
02672              80.00     -400.00
02673              80.00     -600.00
02674              40.00     -600.00
02675               0.00    -1000.00
02676               0.00     -800.00
02677               0.00     -800.00
02678             160.00    -1200.00
02679             640.00    -1200.00
02680            1000.00    -1800.00
02681             320.00    -1800.00
02682            -760.00    -2000.00
02683           -1720.00    -1800.00
02684           -1120.00    -1600.00
02685             680.00    -2400.00
02686             480.00    -2400.00
02687               0.00    -2200.00
02688             600.00    -3000.00
02689             280.00    -2400.00
02690               0.00    -2600.00
02691             120.00    -3400.00
02692            -200.00    -3200.00
02693             200.00    -3000.00
02694             360.00    -3600.00
02695            -200.00    -3600.00
02696             -40.00    -3600.00
02697              40.00    -3600.00
02698             -40.00    -4000.00
02699             280.00    -4200.00
02700             160.00    -3800.00
02701             -40.00    -4400.00
02702              40.00    -4600.00
02703             240.00    -4400.00
02704             160.00    -4600.00
02705             -40.00    -4800.00
02706             200.00    -5000.00
02707             200.00    -4600.00
02708               0.00    -5200.00
02709              40.00    -5200.00
02710             160.00    -5200.00
02711             200.00    -5600.00
02712             160.00    -5400.00
02713             160.00    -5600.00
02714             200.00    -5800.00
02715             120.00    -5800.00
02716             200.00    -6000.00
02717             200.00    -6000.00
02718             120.00    -6000.00
02719             160.00    -6200.00
02720             240.00    -6200.00
02721             280.00    -6200.00
02722             200.00    -6600.00
02723             280.00    -6400.00
02724             280.00    -6600.00
02725             200.00    -6600.00
02726             280.00    -6800.00
02727             320.00    -6800.00
02728             320.00    -7000.00
02729             280.00    -7000.00
02730             320.00    -6800.00
02731             320.00    -7000.00
02732             320.00    -7000.00
02733             440.00    -7200.00
02734             440.00    -7000.00
02735             440.00    -7200.00
02736             400.00    -7400.00
02737             440.00    -7200.00
02738             400.00    -7200.00
02739             440.00    -7400.00
02740             480.00    -7200.00
02741             520.00    -7400.00
02742             520.00    -7600.00
02743             520.00    -7400.00
02744             560.00    -7600.00
02745             560.00    -7400.00
02746             600.00    -7600.00
02747             640.00    -7600.00
02748             680.00    -7600.00
02749             680.00    -7600.00
02750             760.00    -7600.00
02751             760.00    -7600.00
02752             760.00    -7600.00
02753             800.00    -7400.00
02754             840.00    -7600.00
02755             920.00    -7600.00
02756             920.00    -7600.00
02757             960.00    -7600.00
02758             960.00    -7200.00
02759            1000.00    -7600.00
02760            1080.00    -7400.00
02761            1120.00    -7400.00
02762            1120.00    -7600.00
02763            1120.00    -7400.00
02764            1160.00    -7200.00
02765            1160.00    -7400.00
02766            1160.00    -7200.00
02767            1240.00    -7200.00
02768            1240.00    -7200.00
02769            1200.00    -7200.00
02770            1200.00    -7400.00
02771            1160.00    -7200.00
02772            1160.00    -7000.00
02773            1160.00    -7000.00
02774            1120.00    -7000.00
02775            1120.00    -7000.00
02776            1120.00    -6800.00
02777            1080.00    -6800.00
02778            1000.00    -6800.00
02779            1000.00    -6600.00
02780            1000.00    -6800.00
02781             960.00    -6600.00
02782             960.00    -6400.00
02783             920.00    -6200.00
02784             840.00    -6200.00
02785             760.00    -6200.00
02786             760.00    -6200.00
02787             760.00    -6000.00
02788             680.00    -6000.00
02789             640.00    -6000.00
02790             640.00    -5600.00
02791             600.00    -5800.00
02792             520.00    -5600.00
02793             520.00    -5400.00
02794             480.00    -5400.00
02795             480.00    -5200.00
02796             480.00    -5200.00
02797             440.00    -5000.00
02798             440.00    -5000.00
02799             440.00    -4800.00
02800             360.00    -4800.00
02801             360.00    -4600.00
02802             360.00    -4600.00
02803             320.00    -4400.00
02804             320.00    -4200.00
02805             280.00    -4200.00
02806             280.00    -4200.00
02807             280.00    -3800.00
02808             280.00    -3800.00
02809             200.00    -3600.00
02810             200.00    -3600.00
02811             240.00    -3400.00
02812             280.00    -3400.00
02813             200.00    -3000.00
02814             160.00    -3000.00
02815             160.00    -2800.00
02816             160.00    -2800.00
02817             200.00    -2800.00
02818             160.00    -2400.00
02819             160.00    -2400.00
02820             120.00    -2200.00
02821             160.00    -2000.00
02822             200.00    -2200.00
02823             160.00    -1800.00
02824              80.00    -1600.00
02825             120.00    -1400.00
02826             120.00    -1200.00
02827             120.00    -1200.00
02828             120.00     -800.00
02829             160.00     -800.00
02830              80.00     -600.00
02831               0.00     -600.00
02832              40.00     -400.00
02833             120.00     -400.00
02834              40.00     -200.00
02835              40.00        0.00
02836              40.00      200.00
02837               0.00      200.00
02838              40.00      400.00
02839             160.00      400.00
02840             200.00      600.00
02841             160.00      800.00
02842              40.00     1000.00
02843               0.00     1000.00
02844               0.00     1200.00
02845             160.00     1400.00
02846             960.00     1400.00
02847            1120.00     1600.00
02848              40.00     1800.00
02849           -1560.00     1400.00
02850           -2120.00     1800.00
02851            -160.00     2600.00
02852            1160.00     2200.00
02853            -120.00     2200.00
02854             200.00     2600.00
02855             760.00     2400.00
02856            -320.00     3400.00
02857            -280.00     2800.00
02858               0.00     2800.00
02859               0.00     3800.00
02860             360.00     3200.00
02861            -400.00     3000.00
02862            -200.00     4200.00
02863             280.00     3600.00
02864            -520.00     3600.00
02865               0.00     4200.00
02866             280.00     3800.00
02867            -360.00     4400.00
02868            -120.00     4200.00
02869               0.00     4200.00
02870             -40.00     5000.00
02871            -200.00     4400.00
02872            -240.00     5000.00
02873              40.00     5200.00
02874            -200.00     4600.00
02875            -200.00     5400.00
02876            -120.00     5200.00
02877            -160.00     5800.00
02878            -120.00     5600.00
02879            -200.00     5400.00
02880            -120.00     6000.00
02881            -200.00     5800.00
02882            -240.00     5800.00
02883             -80.00     6000.00
02884            -200.00     6000.00
02885            -200.00     6200.00
02886            -200.00     6200.00
02887            -280.00     6400.00
02888            -200.00     6200.00
02889            -200.00     6400.00
02890            -200.00     6600.00
02891            -320.00     6600.00
02892            -320.00     6600.00
02893            -280.00     6800.00
02894            -280.00     6800.00
02895            -280.00     7000.00
02896            -280.00     6800.00
02897            -360.00     7000.00
02898            -360.00     7000.00
02899            -320.00     7000.00
02900            -320.00     7000.00
02901            -360.00     7200.00
02902            -440.00     7000.00
02903            -440.00     7400.00
02904            -480.00     7400.00
02905            -480.00     7400.00
02906            -480.00     7600.00
02907            -480.00     7400.00
02908            -520.00     7600.00
02909            -520.00     7400.00
02910            -520.00     7400.00
02911            -640.00     7600.00
02912            -600.00     7400.00
02913            -600.00     7800.00
02914            -640.00     7600.00
02915            -680.00     7600.00
02916            -720.00     7800.00
02917            -760.00     7800.00
02918            -760.00     7600.00
02919            -800.00     7600.00
02920            -800.00     7600.00
02921            -840.00     7800.00
02922            -920.00     7400.00
02923            -920.00     7600.00
02924            -960.00     7600.00
02925           -1040.00     7800.00
02926           -1000.00     7600.00
02927           -1000.00     7600.00
02928           -1080.00     7600.00
02929           -1120.00     7600.00
02930           -1160.00     7600.00
02931           -1160.00     7600.00
02932           -1160.00     7400.00
02933           -1160.00     7600.00
02934           -1160.00     7400.00
02935           -1200.00     7400.00
02936           -1160.00     7400.00
02937           -1240.00     7000.00
02938           -1240.00     7400.00
02939           -1240.00     7000.00
02940           -1160.00     7200.00
02941           -1120.00     7200.00
02942           -1120.00     7000.00
02943           -1080.00     7000.00
02944           -1120.00     6800.00
02945           -1080.00     7000.00
02946           -1080.00     6800.00
02947           -1000.00     6600.00
02948            -920.00     6600.00
02949            -920.00     6600.00
02950            -920.00     6600.00
02951            -920.00     6600.00
02952            -840.00     6200.00
02953            -800.00     6200.00
02954            -760.00     6200.00
02955            -680.00     6000.00
02956            -640.00     5800.00
02957            -680.00     5800.00
02958            -640.00     5800.00
02959            -600.00     5800.00
02960            -600.00     5600.00
02961            -520.00     5400.00
02962            -520.00     5200.00
02963            -480.00     5200.00
02964            -480.00     5000.00
02965            -440.00     5200.00
02966            -440.00     5000.00
02967            -440.00     4800.00
02968            -400.00     4600.00
02969            -360.00     4600.00
02970            -320.00     4400.00
02971            -360.00     4400.00
02972            -320.00     4200.00
02973            -280.00     4200.00
02974            -280.00     4000.00
02975            -280.00     3800.00
02976            -280.00     3800.00
02977            -240.00     3600.00
02978            -320.00     3400.00
02979            -200.00     3400.00
02980            -200.00     3400.00
02981            -200.00     3000.00
02982            -200.00     3000.00
02983            -200.00     2800.00
02984            -200.00     2600.00
02985            -160.00     2600.00
02986            -160.00     2400.00
02987            -160.00     2200.00
02988            -160.00     2200.00
02989            -200.00     2000.00
02990            -200.00     1800.00
02991            -160.00     1800.00
02992            -120.00     1400.00
02993             -40.00     1400.00
02994             -40.00     1200.00
02995            -120.00     1000.00
02996            -160.00     1000.00
02997            -120.00     1000.00
02998            -120.00      800.00
02999             -40.00      600.00
03000             -40.00      400.00
03001             -40.00      200.00
03002             -40.00      200.00
03003             -40.00        0.00
03004             -40.00        0.00
03005               0.00     -200.00
03006             120.00     -400.00
03007             120.00     -600.00
03008              40.00     -600.00
03009              40.00     -600.00
03010               0.00     -800.00
03011               0.00    -1000.00
03012              40.00    -1000.00
03013             360.00    -1200.00
03014             960.00    -1400.00
03015             800.00    -1800.00
03016            -160.00    -2000.00
03017           -1320.00    -2000.00
03018           -1760.00    -1800.00
03019            -200.00    -2000.00
03020             920.00    -2600.00
03021               0.00    -2200.00
03022             320.00    -2800.00
03023             640.00    -3000.00
03024               0.00    -2400.00
03025             120.00    -3000.00
03026             -40.00    -3400.00
03027            -120.00    -2800.00
03028             440.00    -3400.00
03029               0.00    -3600.00
03030            -200.00    -3600.00
03031             120.00    -3600.00
03032             -40.00    -3800.00
03033             120.00    -4200.00
03034             280.00    -4200.00
03035               0.00    -4200.00
03036             -40.00    -4600.00
03037             160.00    -4400.00
03038             240.00    -4600.00
03039               0.00    -5000.00
03040              40.00    -5000.00
03041             280.00    -4800.00
03042             120.00    -5000.00
03043              40.00    -5400.00
03044             120.00    -5200.00
03045             200.00    -5200.00
03046             160.00    -5600.00
03047             120.00    -5400.00
03048             160.00    -5600.00
03049             160.00    -5800.00
03050             160.00    -6000.00
03051             280.00    -6000.00
03052             200.00    -5800.00
03053             160.00    -6200.00
03054             200.00    -6200.00
03055             280.00    -6200.00
03056             200.00    -6600.00
03057             240.00    -6600.00
03058             320.00    -6600.00
03059             240.00    -6600.00
03060             240.00    -6800.00
03061             320.00    -6800.00
03062             320.00    -6800.00
03063             320.00    -7000.00
03064             320.00    -6800.00
03065             320.00    -7000.00
03066             280.00    -7000.00
03067             360.00    -7200.00
03068             360.00    -7200.00
03069             360.00    -7000.00
03070             360.00    -7200.00
03071             440.00    -7200.00
03072             440.00    -7400.00
03073             440.00    -7400.00
03074             480.00    -7400.00
03075             480.00    -7200.00
03076             520.00    -7600.00
03077             520.00    -7400.00
03078             600.00    -7600.00
03079             520.00    -7600.00
03080             600.00    -7600.00
03081             640.00    -7600.00
03082             680.00    -7600.00
03083             640.00    -7600.00
03084             680.00    -7800.00
03085             760.00    -7600.00
03086             760.00    -7800.00
03087             760.00    -7600.00
03088             840.00    -7600.00
03089             880.00    -7800.00
03090             880.00    -7600.00
03091             960.00    -7600.00
03092             960.00    -7600.00
03093             960.00    -7600.00
03094            1080.00    -7600.00
03095            1080.00    -7600.00
03096            1080.00    -7600.00
03097            1080.00    -7600.00
03098            1120.00    -7200.00
03099            1120.00    -7400.00
03100            1120.00    -7200.00
03101            1160.00    -7400.00
03102            1200.00    -7200.00
03103            1160.00    -7200.00
03104            1160.00    -7200.00
03105            1160.00    -7200.00
03106            1160.00    -7000.00
03107            1160.00    -7200.00
03108            1200.00    -7000.00
03109            1200.00    -7000.00
03110            1120.00    -7000.00
03111            1080.00    -6800.00
03112            1080.00    -6800.00
03113            1000.00    -6800.00
03114            1000.00    -6800.00
03115             960.00    -6600.00
03116             960.00    -6600.00
03117             920.00    -6600.00
03118             840.00    -6200.00
03119             800.00    -6200.00
03120             760.00    -6200.00
03121             760.00    -6200.00
03122             680.00    -6000.00
03123             680.00    -5800.00
03124             640.00    -5800.00
03125             600.00    -5800.00
03126             600.00    -5600.00
03127             520.00    -5400.00
03128             520.00    -5400.00
03129             480.00    -5200.00
03130             480.00    -5200.00
03131             440.00    -5000.00
03132             440.00    -5000.00
03133             400.00    -5000.00
03134             440.00    -4600.00
03135             360.00    -4800.00
03136             360.00    -4600.00
03137             320.00    -4400.00
03138             320.00    -4400.00
03139             280.00    -4200.00
03140             280.00    -4000.00
03141             280.00    -3800.00
03142             280.00    -3800.00
03143             280.00    -3600.00
03144             240.00    -3600.00
03145             200.00    -3400.00
03146             200.00    -3400.00
03147             200.00    -3200.00
03148             200.00    -3000.00
03149             200.00    -3000.00
03150             160.00    -2800.00
03151             160.00    -2600.00
03152             120.00    -2600.00
03153             160.00    -2200.00
03154             160.00    -2200.00
03155             120.00    -2000.00
03156             160.00    -2000.00
03157             120.00    -1800.00
03158             120.00    -1800.00
03159             120.00    -1600.00
03160             120.00    -1400.00
03161             120.00    -1400.00
03162             120.00    -1200.00
03163             120.00     -800.00
03164              40.00     -800.00
03165               0.00     -600.00
03166              40.00     -600.00
03167              80.00     -400.00
03168              40.00     -200.00
03169               0.00        0.00
03170              40.00     -200.00
03171               0.00      200.00
03172              40.00      400.00
03173             120.00      400.00
03174             160.00      600.00
03175             160.00      600.00
03176             120.00      800.00
03177              40.00      800.00
03178              40.00     1000.00
03179              40.00     1200.00
03180             520.00     1400.00
03181            1160.00     1800.00
03182             640.00     1600.00
03183            -760.00     1800.00
03184           -2200.00     1600.00
03185           -1400.00     2200.00
03186             960.00     2400.00
03187             600.00     2000.00
03188            -200.00     2600.00
03189             680.00     2400.00
03190             280.00     3000.00
03191            -520.00     3400.00
03192             -40.00     2600.00
03193             -80.00     3400.00
03194             280.00     3800.00
03195              40.00     2800.00
03196            -520.00     3600.00
03197             200.00     4000.00
03198            -120.00     3400.00
03199            -480.00     4200.00
03200             360.00     4200.00
03201             -40.00     4200.00
03202            -280.00     4400.00
03203               0.00     4200.00
03204             -40.00     4600.00
03205             -40.00     4800.00
03206            -280.00     4400.00
03207             -40.00     5400.00
03208               0.00     4800.00
03209            -280.00     5000.00
03210            -160.00     5400.00
03211            -160.00     5400.00
03212            -120.00     5600.00
03213            -120.00     5200.00
03214            -160.00     5800.00
03215            -160.00     5800.00
03216            -280.00     5800.00
03217            -160.00     6000.00
03218            -160.00     6000.00
03219            -200.00     6000.00
03220            -200.00     6200.00
03221            -200.00     6200.00
03222            -280.00     6200.00
03223            -200.00     6200.00
03224            -200.00     6600.00
03225            -280.00     6400.00
03226            -360.00     6600.00
03227            -320.00     6600.00
03228            -280.00     6800.00
03229            -320.00     6800.00
03230            -320.00     6800.00
03231            -320.00     7000.00
03232            -360.00     7000.00
03233            -360.00     7000.00
03234            -320.00     7200.00
03235            -360.00     7200.00
03236            -360.00     7400.00
03237            -360.00     7400.00
03238            -440.00     7400.00
03239            -480.00     7400.00
03240            -480.00     7400.00
03241            -480.00     7400.00
03242            -520.00     7400.00
03243            -520.00     7600.00
03244            -520.00     7600.00
03245            -600.00     7600.00
03246            -640.00     7600.00
03247            -640.00     7600.00
03248            -640.00     7600.00
03249            -680.00     7600.00
03250            -680.00     7800.00
03251            -680.00     7600.00
03252            -760.00     7600.00
03253            -800.00     7800.00
03254            -800.00     7800.00
03255            -840.00     7600.00
03256            -840.00     7600.00
03257            -880.00     7600.00
03258            -920.00     7600.00
03259           -1000.00     7800.00
03260           -1080.00     7600.00
03261           -1000.00     7600.00
03262           -1040.00     7600.00
03263           -1120.00     7600.00
03264           -1120.00     7400.00
03265           -1160.00     7400.00
03266           -1160.00     7600.00
03267           -1160.00     7600.00
03268           -1160.00     7600.00
03269           -1240.00     7400.00
03270           -1200.00     7400.00
03271           -1200.00     7400.00
03272           -1240.00     7200.00
03273           -1240.00     7200.00
03274           -1200.00     7200.00
03275           -1160.00     7000.00
03276           -1120.00     7000.00
03277           -1160.00     7000.00
03278           -1120.00     6800.00
03279           -1120.00     6800.00
03280           -1080.00     6800.00
03281           -1000.00     6800.00
03282            -960.00     6600.00
03283            -960.00     6600.00
03284            -920.00     6600.00
03285            -840.00     6600.00
03286            -840.00     6200.00
03287            -840.00     6200.00
03288            -760.00     6000.00
03289            -720.00     6200.00
03290            -680.00     5800.00
03291            -680.00     6000.00
03292            -680.00     5800.00
03293            -640.00     5800.00
03294            -600.00     5600.00
03295            -520.00     5600.00
03296            -520.00     5400.00
03297            -480.00     5400.00
03298            -480.00     5200.00
03299            -480.00     5200.00
03300            -440.00     5000.00
03301            -440.00     4800.00
03302            -360.00     4600.00
03303            -360.00     4600.00
03304            -320.00     4600.00
03305            -360.00     4400.00
03306            -320.00     4200.00
03307            -320.00     4200.00
03308            -280.00     4200.00
03309            -280.00     4000.00
03310            -280.00     3600.00
03311            -240.00     3800.00
03312            -280.00     3600.00
03313            -280.00     3400.00
03314            -200.00     3400.00
03315            -200.00     3400.00
03316            -200.00     3000.00
03317            -200.00     3000.00
03318            -200.00     2800.00
03319            -200.00     2600.00
03320            -160.00     2600.00
03321            -160.00     2200.00
03322            -160.00     2200.00
03323            -160.00     2000.00
03324            -120.00     1800.00
03325            -160.00     1800.00
03326            -160.00     1800.00
03327            -120.00     1400.00
03328            -120.00     1400.00
03329            -120.00     1200.00
03330             -40.00     1000.00
03331             -40.00     1000.00
03332            -120.00      800.00
03333             -80.00      600.00
03334             -80.00      600.00
03335             -40.00      400.00
03336             -40.00      200.00
03337             -40.00      200.00
03338               0.00        0.00
03339               0.00     -200.00
03340              40.00     -400.00
03341              80.00     -400.00
03342             120.00     -600.00
03343              40.00     -600.00
03344               0.00     -800.00
03345               0.00    -1000.00
03346               0.00    -1000.00
03347             120.00    -1200.00
03348             640.00    -1400.00
03349             960.00    -1600.00
03350             360.00    -1800.00
03351            -800.00    -2000.00
03352           -1720.00    -2000.00
03353           -1120.00    -1800.00
03354             640.00    -2400.00
03355             480.00    -2400.00
03356             -40.00    -2200.00
03357             600.00    -3000.00
03358             280.00    -2400.00
03359               0.00    -2800.00
03360             160.00    -3400.00
03361            -200.00    -3000.00
03362             200.00    -3000.00
03363             320.00    -3600.00
03364            -280.00    -3400.00
03365             -40.00    -3800.00
03366               0.00    -3600.00
03367               0.00    -3800.00
03368             280.00    -4200.00
03369             160.00    -3800.00
03370             -40.00    -4400.00
03371              40.00    -4400.00
03372             280.00    -4400.00
03373             160.00    -4600.00
03374             -40.00    -5000.00
03375             160.00    -5000.00
03376             200.00    -4800.00
03377               0.00    -5200.00
03378              40.00    -5400.00
03379             120.00    -5000.00
03380             240.00    -5600.00
03381             160.00    -5600.00
03382             160.00    -5400.00
03383             200.00    -5800.00
03384             120.00    -5800.00
03385             240.00    -6000.00
03386             280.00    -5800.00
03387             160.00    -6000.00
03388             160.00    -6200.00
03389             200.00    -6200.00
03390             280.00    -6400.00
03391             200.00    -6600.00
03392             280.00    -6400.00
03393             280.00    -6600.00
03394             280.00    -6600.00
03395             280.00    -6800.00
03396             320.00    -6800.00
03397             320.00    -7000.00
03398             320.00    -6800.00
03399             320.00    -6800.00
03400             320.00    -6800.00
03401             320.00    -7200.00
03402             440.00    -7000.00
03403             440.00    -7000.00
03404             440.00    -7200.00
03405             400.00    -7200.00
03406             440.00    -7200.00
03407             360.00    -7400.00
03408             440.00    -7200.00
03409             520.00    -7400.00
03410             520.00    -7200.00
03411             520.00    -7600.00
03412             560.00    -7200.00
03413             600.00    -7400.00
03414             520.00    -7400.00
03415             600.00    -7600.00
03416             640.00    -7600.00
03417             640.00    -7600.00
03418             680.00    -7600.00
03419             680.00    -7600.00
03420             760.00    -7400.00
03421             760.00    -7600.00
03422             800.00    -7600.00
03423             840.00    -7600.00
03424             920.00    -7800.00
03425             920.00    -7600.00
03426             960.00    -7600.00
03427            1000.00    -7600.00
03428             960.00    -7600.00
03429            1040.00    -7600.00
03430            1080.00    -7200.00
03431            1120.00    -7400.00
03432            1080.00    -7400.00
03433            1120.00    -7200.00
03434            1120.00    -7400.00
03435            1160.00    -7200.00
03436            1160.00    -7200.00
03437            1200.00    -7400.00
03438            1200.00    -7200.00
03439            1160.00    -7200.00
03440            1160.00    -7000.00
03441            1120.00    -7000.00
03442            1160.00    -7000.00
03443            1160.00    -6800.00
03444            1120.00    -7000.00
03445            1080.00    -7000.00
03446            1080.00    -6800.00
03447            1000.00    -6600.00
03448            1000.00    -6800.00
03449            1000.00    -6600.00
03450             960.00    -6600.00
03451             960.00    -6600.00
03452             840.00    -6400.00
03453             800.00    -6200.00
03454             800.00    -6200.00
03455             760.00    -6200.00
03456             760.00    -6000.00
03457             720.00    -6000.00
03458             640.00    -5800.00
03459             640.00    -5800.00
03460             600.00    -5600.00
03461             560.00    -5600.00
03462             560.00    -5400.00
03463             520.00    -5400.00
03464             520.00    -5200.00
03465             440.00    -5200.00
03466             440.00    -5000.00
03467             440.00    -5000.00
03468             360.00    -5000.00
03469             360.00    -4600.00
03470             360.00    -4600.00
03471             320.00    -4400.00
03472             320.00    -4400.00
03473             280.00    -4200.00
03474             280.00    -4200.00
03475             280.00    -4000.00
03476             280.00    -3800.00
03477             280.00    -3800.00
03478             200.00    -3600.00
03479             200.00    -3600.00
03480             200.00    -3400.00
03481             200.00    -3200.00
03482             200.00    -3000.00
03483             160.00    -3000.00
03484             160.00    -2800.00
03485             160.00    -2600.00
03486             160.00    -2600.00
03487             120.00    -2400.00
03488             120.00    -2400.00
03489             120.00    -2200.00
03490             160.00    -2200.00
03491             120.00    -2000.00
03492             120.00    -1800.00
03493             120.00    -1800.00
03494              80.00    -1400.00
03495             120.00    -1400.00
03496             120.00    -1200.00
03497              80.00    -1200.00
03498              40.00     -800.00
03499              40.00     -800.00
03500              40.00     -600.00
03501              40.00     -600.00
03502              40.00     -200.00
03503              40.00     -200.00
03504              40.00        0.00
03505              40.00      200.00
03506               0.00      200.00
03507              40.00      400.00
03508             160.00      400.00
03509             120.00      600.00
03510             120.00      600.00
03511              80.00     1000.00
03512              40.00     1000.00
03513              40.00     1200.00
03514             200.00     1400.00
03515             960.00     1600.00
03516            1080.00     1400.00
03517              40.00     1600.00
03518           -1560.00     1800.00
03519           -2200.00     1800.00
03520            -160.00     2600.00
03521            1160.00     2200.00
03522            -120.00     2200.00
03523             200.00     2400.00
03524             760.00     2600.00
03525            -320.00     3400.00
03526            -280.00     3000.00
03527               0.00     2800.00
03528               0.00     3800.00
03529             400.00     3400.00
03530            -400.00     3000.00
03531            -280.00     4200.00
03532             280.00     3800.00
03533            -520.00     3600.00
03534               0.00     4200.00
03535             320.00     4000.00
03536            -320.00     4400.00
03537            -120.00     4200.00
03538               0.00     4400.00
03539             -40.00     5000.00
03540            -160.00     4400.00
03541            -200.00     5000.00
03542              40.00     5200.00
03543            -200.00     4800.00
03544            -200.00     5400.00
03545            -120.00     5400.00
03546            -160.00     5600.00
03547            -120.00     5600.00
03548            -200.00     5400.00
03549            -120.00     6000.00
03550            -200.00     5800.00
03551            -280.00     6000.00
03552            -120.00     6000.00
03553            -200.00     6000.00
03554            -200.00     6200.00
03555            -200.00     6200.00
03556            -240.00     6400.00
03557            -240.00     6200.00
03558            -200.00     6600.00
03559            -200.00     6800.00
03560            -320.00     6400.00
03561            -320.00     6800.00
03562            -280.00     6800.00
03563            -320.00     6800.00
03564            -320.00     7000.00
03565            -280.00     7000.00
03566            -360.00     7000.00
03567            -440.00     7000.00
03568            -320.00     7400.00
03569            -320.00     7200.00
03570            -360.00     7200.00
03571            -440.00     7200.00
03572            -400.00     7400.00
03573            -480.00     7400.00
03574            -520.00     7400.00
03575            -480.00     7400.00
03576            -480.00     7400.00
03577            -520.00     7400.00
03578            -520.00     7600.00
03579            -520.00     7600.00
03580            -640.00     7600.00
03581            -600.00     7600.00
03582            -560.00     7800.00
03583            -640.00     7800.00
03584            -640.00     7800.00
03585            -680.00     7800.00
03586            -760.00     7800.00
03587            -760.00     7800.00
03588            -800.00     7800.00
03589            -840.00     7600.00
03590            -840.00     7600.00
03591            -920.00     7800.00
03592            -840.00     7800.00
03593            -960.00     7600.00
03594           -1000.00     7600.00
03595           -1000.00     7600.00
03596           -1000.00     7600.00
03597           -1080.00     7600.00
03598           -1120.00     7400.00
03599           -1120.00     7600.00
03600           -1160.00     7600.00
03601           -1160.00     7400.00
03602           -1160.00     7400.00
03603           -1160.00     7400.00
03604           -1200.00     7400.00
03605           -1160.00     7400.00
03606           -1200.00     7400.00
03607           -1160.00     7000.00
03608           -1200.00     7200.00
03609           -1160.00     7000.00
03610           -1160.00     7200.00
03611           -1160.00     7000.00
03612           -1120.00     7000.00
03613           -1120.00     7000.00
03614           -1080.00     6800.00
03615           -1080.00     6800.00
03616           -1000.00     6800.00
03617            -960.00     6600.00
03618            -960.00     6600.00
03619            -960.00     6600.00
03620            -880.00     6400.00
03621            -840.00     6200.00
03622            -800.00     6200.00
03623            -760.00     6000.00
03624            -720.00     6000.00
03625            -680.00     5800.00
03626            -680.00     5800.00
03627            -640.00     5800.00
03628            -600.00     5800.00
03629            -520.00     5600.00
03630            -520.00     5400.00
03631            -520.00     5600.00
03632            -480.00     5200.00
03633            -480.00     5200.00
03634            -440.00     5000.00
03635            -440.00     5000.00
03636            -360.00     4800.00
03637            -360.00     4600.00
03638            -360.00     4600.00
03639            -360.00     4600.00
03640            -360.00     4400.00
03641            -320.00     4200.00
03642            -320.00     4200.00
03643            -240.00     4200.00
03644            -280.00     3800.00
03645            -280.00     3800.00
03646            -280.00     3600.00
03647            -280.00     3400.00
03648            -200.00     3400.00
03649            -200.00     3400.00
03650            -200.00     3200.00
03651            -200.00     3000.00
03652            -200.00     2800.00
03653            -160.00     2800.00
03654            -160.00     2600.00
03655            -200.00     2400.00
03656            -120.00     2200.00
03657            -160.00     2000.00
03658            -160.00     2000.00
03659            -160.00     1800.00
03660            -160.00     1800.00
03661            -120.00     1800.00
03662            -120.00     1400.00
03663             -80.00     1400.00
03664            -120.00     1200.00
03665            -120.00     1200.00
03666            -120.00     1000.00
03667             -80.00      600.00
03668             -80.00      600.00
03669             -80.00      600.00
03670             -40.00      400.00
03671             -40.00      200.00
03672             -40.00      200.00
03673             -40.00     -200.00
03674               0.00     -200.00
03675             120.00     -400.00
03676             120.00     -600.00
03677              40.00     -600.00
03678               0.00     -800.00
03679               0.00    -1000.00
03680               0.00     -800.00
03681              40.00    -1200.00
03682             320.00    -1200.00
03683             920.00    -1600.00
03684             800.00    -1800.00
03685            -200.00    -1800.00
03686           -1320.00    -2000.00
03687           -1760.00    -1800.00
03688            -200.00    -1800.00
03689             880.00    -2600.00
03690               0.00    -2200.00
03691             280.00    -2800.00
03692             600.00    -2800.00
03693               0.00    -2400.00
03694             120.00    -3000.00
03695             -40.00    -3200.00
03696            -120.00    -2800.00
03697             440.00    -3400.00
03698               0.00    -3600.00
03699            -200.00    -3600.00
03700              40.00    -3800.00
03701             -40.00    -3600.00
03702              80.00    -4200.00
03703             280.00    -4000.00
03704              40.00    -4200.00
03705             -40.00    -4400.00
03706             160.00    -4600.00
03707             280.00    -4400.00
03708               0.00    -4800.00
03709              40.00    -5000.00
03710             280.00    -5000.00
03711             120.00    -5000.00
03712              40.00    -5400.00
03713             120.00    -5200.00
03714             240.00    -5400.00
03715             200.00    -5600.00
03716             120.00    -5400.00
03717             200.00    -5600.00
03718             160.00    -5800.00
03719             160.00    -6000.00
03720             280.00    -6000.00
03721             200.00    -6000.00
03722             160.00    -6200.00
03723             200.00    -6200.00
03724             280.00    -6200.00
03725             200.00    -6200.00
03726             280.00    -6400.00
03727             320.00    -6600.00
03728             280.00    -6600.00
03729             240.00    -6800.00
03730             320.00    -6800.00
03731             320.00    -6800.00
03732             320.00    -7000.00
03733             360.00    -7000.00
03734             320.00    -7000.00
03735             320.00    -7000.00
03736             360.00    -7000.00
03737             440.00    -7000.00
03738             440.00    -7200.00
03739             440.00    -7200.00
03740             440.00    -7200.00
03741             440.00    -7400.00
03742             440.00    -7400.00
03743             480.00    -7200.00
03744             520.00    -7400.00
03745             480.00    -7600.00
03746             520.00    -7600.00
03747             520.00    -7600.00
03748             520.00    -7400.00
03749             560.00    -7600.00
03750             640.00    -7600.00
03751             640.00    -7600.00
03752             640.00    -7600.00
03753             680.00    -7800.00
03754             680.00    -7600.00
03755             760.00    -7600.00
03756             760.00    -7600.00
03757             800.00    -7800.00
03758             880.00    -7800.00
03759             880.00    -7600.00
03760             960.00    -7600.00
03761             960.00    -7600.00
03762             960.00    -7600.00
03763            1000.00    -7600.00
03764            1080.00    -7200.00
03765            1080.00    -7400.00
03766            1120.00    -7400.00
03767            1120.00    -7400.00
03768            1120.00    -7400.00
03769            1120.00    -7200.00
03770            1160.00    -7200.00
03771            1200.00    -7200.00
03772            1200.00    -7200.00
03773            1160.00    -7000.00
03774            1240.00    -7200.00
03775            1160.00    -7000.00
03776            1160.00    -7000.00
03777            1160.00    -7000.00
03778            1160.00    -7000.00
03779            1120.00    -7000.00
03780            1080.00    -6800.00
03781            1080.00    -6800.00
03782            1000.00    -6800.00
03783            1000.00    -6800.00
03784             960.00    -6600.00
03785             960.00    -6600.00
03786             920.00    -6400.00
03787             840.00    -6400.00
03788             800.00    -6200.00
03789             760.00    -6000.00
03790             760.00    -6000.00
03791             720.00    -6000.00
03792             680.00    -6000.00
03793             640.00    -6000.00
03794             600.00    -5800.00
03795             600.00    -5600.00
03796             600.00    -5400.00
03797             520.00    -5400.00
03798             520.00    -5400.00
03799             480.00    -5200.00
03800             440.00    -5200.00
03801             440.00    -5000.00
03802             360.00    -4800.00
03803             360.00    -4800.00
03804             360.00    -4600.00
03805             360.00    -4600.00
03806             320.00    -4600.00
03807             320.00    -4400.00
03808             320.00    -4200.00
03809             280.00    -4200.00
03810             240.00    -4200.00
03811             280.00    -3800.00
03812             280.00    -3600.00
03813             200.00    -3600.00
03814             200.00    -3400.00
03815             200.00    -3400.00
03816             160.00    -3200.00
03817             160.00    -3000.00
03818             160.00    -2800.00
03819             160.00    -2800.00
03820             160.00    -2600.00
03821             160.00    -2600.00
03822             120.00    -2200.00
03823             120.00    -2200.00
03824             120.00    -2000.00
03825             120.00    -2000.00
03826             120.00    -1800.00
03827             120.00    -1800.00
03828             120.00    -1600.00
03829             120.00    -1400.00
03830             120.00    -1400.00
03831              40.00     -800.00
03832              40.00     -800.00
03833              40.00     -800.00
03834              80.00     -800.00
03835              40.00     -600.00
03836              40.00     -400.00
03837              40.00     -200.00
03838              40.00        0.00
03839              40.00      200.00
03840              40.00      200.00
03841              80.00      400.00
03842             160.00      400.00
03843             160.00      400.00
03844             160.00      800.00
03845             120.00      800.00
03846              40.00     1000.00
03847               0.00     1000.00
03848              40.00     1200.00
03849             520.00     1400.00
03850            1160.00     1800.00
03851             680.00     1800.00
03852            -680.00     1800.00
03853           -2160.00     1600.00
03854           -1400.00     2200.00
03855             920.00     2200.00
03856             600.00     2200.00
03857            -200.00     2400.00
03858             680.00     2200.00
03859             280.00     3000.00
03860            -480.00     3400.00
03861             -40.00     2600.00
03862            -120.00     3400.00
03863             280.00     3800.00
03864              80.00     2800.00
03865            -520.00     3600.00
03866             160.00     4200.00
03867            -160.00     3600.00
03868            -480.00     3800.00
03869             360.00     4200.00
03870             -40.00     4200.00
03871            -320.00     4400.00
03872               0.00     4200.00
03873             -40.00     4600.00
03874             -40.00     4600.00
03875            -280.00     4400.00
03876             -40.00     5200.00
03877             -40.00     4800.00
03878            -320.00     5000.00
03879            -120.00     5200.00
03880            -160.00     5400.00
03881            -120.00     5600.00
03882            -160.00     5200.00
03883            -200.00     5800.00
03884            -160.00     5800.00
03885            -320.00     5600.00
03886            -200.00     6200.00
03887            -160.00     5800.00
03888            -200.00     6200.00
03889            -200.00     6200.00
03890            -240.00     6200.00
03891            -240.00     6400.00
03892            -240.00     6200.00
03893            -160.00     6600.00
03894            -280.00     6600.00
03895            -320.00     6600.00
03896            -320.00     6800.00
03897            -320.00     6800.00
03898            -320.00     6800.00
03899            -320.00     6800.00
03900            -360.00     7000.00
03901            -440.00     7000.00
03902            -360.00     7000.00
03903            -320.00     7200.00
03904            -360.00     7200.00
03905            -400.00     7000.00
03906            -440.00     7400.00
03907            -440.00     7400.00
03908            -480.00     7400.00
03909            -440.00     7400.00
03910            -480.00     7600.00
03911            -480.00     7400.00
03912            -520.00     7400.00
03913            -520.00     7600.00
03914            -600.00     7600.00
03915            -640.00     7400.00
03916            -560.00     7800.00
03917            -600.00     7600.00
03918            -640.00     7600.00
03919            -640.00     7800.00
03920            -680.00     7800.00
03921            -760.00     7800.00
03922            -800.00     7800.00
03923            -800.00     7600.00
03924            -840.00     7800.00
03925            -840.00     7800.00
03926            -840.00     7600.00
03927            -920.00     7600.00
03928           -1000.00     7600.00
03929           -1000.00     7600.00
03930           -1000.00     7600.00
03931           -1080.00     7600.00
03932           -1080.00     7600.00
03933           -1080.00     7600.00
03934           -1160.00     7600.00
03935           -1160.00     7400.00
03936           -1160.00     7400.00
03937           -1160.00     7400.00
03938           -1160.00     7600.00
03939           -1240.00     7400.00
03940           -1160.00     7400.00
03941           -1240.00     7400.00
03942           -1160.00     7200.00
03943           -1240.00     7000.00
03944           -1200.00     7200.00
03945           -1160.00     7000.00
03946           -1120.00     7000.00
03947           -1160.00     7000.00
03948           -1120.00     6800.00
03949           -1080.00     6800.00
03950           -1000.00     6600.00
03951           -1000.00     6600.00
03952            -960.00     6600.00
03953            -920.00     6600.00
03954            -920.00     6400.00
03955            -840.00     6200.00
03956            -840.00     6200.00
03957            -800.00     6200.00
03958            -720.00     6000.00
03959            -680.00     6000.00
03960            -680.00     6000.00
03961            -640.00     5800.00
03962            -640.00     5800.00
03963            -520.00     5600.00
03964            -520.00     5800.00
03965            -520.00     5400.00
03966            -520.00     5200.00
03967            -480.00     5200.00
03968            -480.00     5200.00
03969            -440.00     5000.00
03970            -360.00     5000.00
03971            -360.00     4600.00
03972            -360.00     4600.00
03973            -320.00     4600.00
03974            -320.00     4400.00
03975            -320.00     4200.00
03976            -320.00     4200.00
03977            -280.00     4000.00
03978            -280.00     3800.00
03979            -280.00     3800.00
03980            -200.00     3600.00
03981            -200.00     3400.00
03982            -200.00     3600.00
03983            -200.00     3400.00
03984            -160.00     3000.00
03985            -200.00     3000.00
03986            -160.00     3000.00
03987            -200.00     2800.00
03988            -160.00     2600.00
03989            -160.00     2600.00
03990            -120.00     2200.00
03991            -160.00     2200.00
03992            -160.00     2200.00
03993            -160.00     2000.00
03994            -120.00     1800.00
03995            -120.00     1800.00
03996            -120.00     1600.00
03997             -80.00     1400.00
03998            -120.00     1200.00
03999            -120.00     1000.00
04000             -40.00     1000.00
04001             -80.00      800.00
04002             -40.00      600.00
04003            -120.00      600.00
04004             -40.00      400.00
04005             -40.00      200.00
04006             -40.00      200.00
04007             -40.00        0.00
04008               0.00     -200.00
04009               0.00     -400.00
04010             120.00     -400.00
04011              40.00     -600.00
04012              40.00     -800.00
04013               0.00     -800.00
04014               0.00     -800.00
04015               0.00    -1000.00
04016             160.00    -1200.00
04017             640.00    -1400.00
04018             960.00    -1800.00
04019             320.00    -1800.00
04020            -760.00    -2000.00
04021           -1760.00    -2000.00
04022           -1160.00    -1800.00
04023             640.00    -2200.00
04024             440.00    -2400.00
04025             -40.00    -2200.00
04026             600.00    -3000.00
04027             320.00    -2600.00
04028             -40.00    -2600.00
04029             120.00    -3400.00
04030            -200.00    -3000.00
04031             200.00    -3200.00
04032             320.00    -3800.00
04033            -200.00    -3400.00
04034               0.00    -3600.00
04035              40.00    -3800.00
04036             -40.00    -3800.00
04037             200.00    -4200.00
04038             160.00    -4000.00
04039             -40.00    -4400.00
04040              40.00    -4600.00
04041             280.00    -4400.00
04042             160.00    -4800.00
04043             -40.00    -4800.00
04044             160.00    -5000.00
04045             200.00    -5000.00
04046             120.00    -5200.00
04047             120.00    -5400.00
04048             160.00    -5000.00
04049             240.00    -5400.00
04050             160.00    -5600.00
04051             200.00    -5400.00
04052             200.00    -5800.00
04053             120.00    -5800.00
04054             200.00    -6000.00
04055             280.00    -6000.00
04056             160.00    -6000.00
04057             160.00    -6200.00
04058             280.00    -6200.00
04059             240.00    -6400.00
04060             280.00    -6600.00
04061             320.00    -6600.00
04062             280.00    -6600.00
04063             280.00    -6600.00
04064             320.00    -6800.00
04065             320.00    -6800.00
04066             320.00    -6800.00
04067             280.00    -7000.00
04068             280.00    -6800.00
04069             200.00    -7000.00
04070             280.00    -7000.00
04071             440.00    -7000.00
04072             520.00    -7000.00
04073             520.00    -7400.00
04074             480.00    -7200.00
04075             440.00    -7200.00
04076             280.00    -7200.00
04077             280.00    -7600.00
04078             440.00    -7200.00
04079             520.00    -7400.00
04080             600.00    -7600.00
04081             600.00    -7600.00
04082             640.00    -7600.00
04083             600.00    -7400.00
04084             640.00    -7600.00
04085             640.00    -7600.00
04086             600.00    -7200.00
04087             600.00    -7800.00
04088             640.00    -7600.00
04089             680.00    -7600.00
04090             760.00    -7600.00
04091             840.00    -7600.00
04092             920.00    -7600.00
04093             920.00    -7600.00
04094             960.00    -7600.00
04095            1000.00    -7600.00
04096             960.00    -7600.00
04097             960.00    -7400.00
04098            1000.00    -7600.00
04099            1040.00    -7600.00
04100            1080.00    -7600.00
04101            1120.00    -7200.00
04102            1200.00    -7400.00
04103            1240.00    -7200.00
04104            1240.00    -7400.00
04105            1240.00    -7200.00
04106            1160.00    -7200.00
04107            1160.00    -7200.00
04108            1120.00    -7000.00
04109            1120.00    -7000.00
04110            1160.00    -7000.00
04111            1200.00    -7000.00
04112            1240.00    -7000.00
04113            1240.00    -7000.00
04114            1160.00    -6800.00
04115            1080.00    -6800.00
04116            1080.00    -6600.00
04117            1000.00    -6800.00
04118            1000.00    -6600.00
04119             960.00    -6600.00
04120             960.00    -6400.00
04121             880.00    -6400.00
04122             800.00    -6200.00
04123             800.00    -6200.00
04124             760.00    -6000.00
04125             720.00    -6000.00
04126             760.00    -6000.00
04127             640.00    -5800.00
04128             640.00    -5800.00
04129             600.00    -5800.00
04130             520.00    -5600.00
04131             520.00    -5400.00
04132             520.00    -5200.00
04133             520.00    -5200.00
04134             480.00    -5200.00
04135             440.00    -5200.00
04136             440.00    -5000.00
04137             400.00    -4800.00
04138             360.00    -4600.00
04139             360.00    -4600.00
04140             320.00    -4600.00
04141             320.00    -4400.00
04142             320.00    -4200.00
04143             280.00    -4200.00
04144             280.00    -4200.00
04145             280.00    -3800.00
04146             240.00    -3600.00
04147             200.00    -3600.00
04148             200.00    -3600.00
04149             200.00    -3400.00
04150             200.00    -3400.00
04151             200.00    -3200.00
04152             160.00    -3000.00
04153             160.00    -2800.00
04154             160.00    -2800.00
04155             160.00    -2600.00
04156             160.00    -2600.00
04157             160.00    -2200.00
04158             120.00    -2200.00
04159             120.00    -2200.00
04160             120.00    -2000.00
04161             120.00    -1800.00
04162             120.00    -1800.00
04163              80.00    -1400.00
04164             120.00    -1200.00
04165             120.00    -1200.00
04166             120.00    -1200.00
04167              80.00     -800.00
04168              80.00     -600.00
04169              40.00     -600.00
04170              40.00     -600.00
04171              40.00     -400.00
04172              40.00     -200.00
04173              40.00        0.00
04174              40.00        0.00
04175              40.00      200.00
04176             120.00      400.00
04177             160.00      400.00
04178             160.00      600.00
04179             160.00      600.00
04180             120.00     1000.00
04181             120.00     1000.00
04182              40.00     1200.00
04183             160.00     1400.00
04184             880.00     1600.00
04185            1080.00     1600.00
04186              40.00     1800.00
04187           -1480.00     1800.00
04188           -2120.00     1800.00
04189            -160.00     2600.00
04190            1160.00     2200.00
04191            -120.00     2200.00
04192             200.00     2600.00
04193             760.00     2400.00
04194            -320.00     3400.00
04195            -280.00     2800.00
04196               0.00     2800.00
04197               0.00     3800.00
04198             400.00     3200.00
04199            -360.00     3000.00
04200            -280.00     4200.00
04201             280.00     3600.00
04202            -520.00     3600.00
04203               0.00     4200.00
04204             320.00     4000.00
04205            -360.00     4400.00
04206            -120.00     4200.00
04207             -40.00     4400.00
04208             -40.00     5000.00
04209            -160.00     4400.00
04210            -200.00     4800.00
04211              40.00     5200.00
04212            -200.00     4800.00
04213            -200.00     5200.00
04214            -120.00     5200.00
04215            -160.00     5600.00
04216             -40.00     5400.00
04217            -200.00     5200.00
04218            -120.00     6000.00
04219            -200.00     5600.00
04220            -280.00     6000.00
04221            -120.00     6000.00
04222            -200.00     5800.00
04223            -200.00     6200.00
04224            -200.00     6000.00
04225            -280.00     6400.00
04226            -280.00     6200.00
04227            -200.00     6400.00
04228            -200.00     6600.00
04229            -320.00     6600.00
04230            -320.00     6800.00
04231            -280.00     6800.00
04232            -280.00     6800.00
04233            -280.00     6800.00
04234            -320.00     7000.00
04235            -360.00     7000.00
04236            -360.00     6800.00
04237            -320.00     7200.00
04238            -320.00     7400.00
04239            -360.00     7200.00
04240            -440.00     7200.00
04241            -400.00     7400.00
04242            -440.00     7400.00
04243            -480.00     7400.00
04244            -440.00     7400.00
04245            -440.00     7400.00
04246            -480.00     7600.00
04247            -480.00     7600.00
04248            -520.00     7400.00
04249            -600.00     7600.00
04250            -600.00     7600.00
04251            -640.00     7800.00
04252            -640.00     7800.00
04253            -680.00     7600.00
04254            -680.00     7800.00
04255            -680.00     7600.00
04256            -760.00     7600.00
04257            -760.00     7800.00
04258            -800.00     7800.00
04259            -840.00     7600.00
04260            -880.00     7800.00
04261            -920.00     7800.00
04262            -960.00     7600.00
04263           -1000.00     7600.00
04264           -1000.00     7600.00
04265           -1000.00     7600.00
04266           -1080.00     7600.00
04267           -1080.00     7600.00
04268           -1120.00     7400.00
04269           -1160.00     7600.00
04270           -1160.00     7400.00
04271           -1240.00     7400.00
04272           -1240.00     7400.00
04273           -1200.00     7400.00
04274           -1200.00     7400.00
04275           -1240.00     7200.00
04276           -1160.00     7400.00
04277           -1240.00     7200.00
04278           -1160.00     7000.00
04279           -1160.00     7000.00
04280           -1160.00     7000.00
04281           -1120.00     6800.00
04282           -1160.00     7000.00
04283           -1120.00     6800.00
04284           -1000.00     6800.00
04285           -1000.00     6600.00
04286           -1000.00     6600.00
04287            -920.00     6600.00
04288            -920.00     6600.00
04289            -920.00     6400.00
04290            -840.00     6200.00
04291            -760.00     6200.00
04292            -800.00     6200.00
04293            -760.00     6000.00
04294            -680.00     6000.00
04295            -640.00     5800.00
04296            -640.00     5800.00
04297            -600.00     5800.00
04298            -520.00     5600.00
04299            -520.00     5400.00
04300            -520.00     5600.00
04301            -480.00     5200.00
04302            -440.00     5200.00
04303            -440.00     5000.00
04304            -440.00     5000.00
04305            -360.00     5000.00
04306            -360.00     4600.00
04307            -320.00     4600.00
04308            -320.00     4400.00
04309            -320.00     4400.00
04310            -320.00     4200.00
04311            -280.00     4200.00
04312            -280.00     4000.00
04313            -280.00     3800.00
04314            -240.00     3600.00
04315            -200.00     3600.00
04316            -200.00     3400.00
04317            -200.00     3400.00
04318            -200.00     3400.00
04319            -200.00     3000.00
04320            -200.00     3000.00
04321            -200.00     2800.00
04322            -200.00     2600.00
04323            -200.00     2600.00
04324            -160.00     2400.00
04325            -120.00     2200.00
04326            -160.00     2200.00
04327            -160.00     2000.00
04328            -160.00     2000.00
04329            -120.00     1800.00
04330            -160.00     1600.00
04331            -120.00     1800.00
04332            -120.00     1400.00
04333            -120.00     1200.00
04334             -80.00     1000.00
04335            -120.00      800.00
04336            -120.00      800.00
04337            -120.00      600.00
04338            -120.00      600.00
04339             -80.00      400.00
04340             -40.00      200.00
04341             -40.00      200.00
04342             -40.00     -200.00
04343             -40.00     -200.00
04344              40.00     -400.00
04345             120.00     -400.00
04346              40.00     -600.00
04347              40.00     -600.00
04348               0.00     -800.00
04349               0.00    -1000.00
04350               0.00    -1200.00
04351             320.00    -1200.00
04352             920.00    -1600.00
04353             760.00    -1800.00
04354            -200.00    -2000.00
04355           -1280.00    -2000.00
04356           -1760.00    -1800.00
04357            -200.00    -2000.00
04358             840.00    -2600.00
04359               0.00    -2200.00
04360             280.00    -2800.00
04361             600.00    -3000.00
04362               0.00    -2400.00
04363             120.00    -3000.00
04364               0.00    -3400.00
04365            -120.00    -2800.00
04366             440.00    -3400.00
04367               0.00    -3600.00
04368            -200.00    -3400.00
04369             120.00    -3800.00
04370             -40.00    -3600.00
04371             120.00    -4200.00
04372             320.00    -4000.00
04373               0.00    -4200.00
04374               0.00    -4400.00
04375             200.00    -4400.00
04376             280.00    -4400.00
04377               0.00    -4800.00
04378              40.00    -4800.00
04379             280.00    -5000.00
04380             120.00    -4800.00
04381              80.00    -5400.00
04382             120.00    -5200.00
04383             200.00    -5200.00
04384             200.00    -5400.00
04385             160.00    -5400.00
04386             160.00    -5800.00
04387             160.00    -5800.00
04388             160.00    -6000.00
04389             280.00    -6000.00
04390             200.00    -6000.00
04391             160.00    -6200.00
04392             200.00    -6200.00
04393             320.00    -6200.00
04394             200.00    -6600.00
04395             280.00    -6600.00
04396             320.00    -6600.00
04397             280.00    -6800.00
04398             200.00    -6800.00
04399             320.00    -6800.00
04400             320.00    -6800.00
04401             280.00    -7000.00
04402             320.00    -7000.00
04403             320.00    -6800.00
04404             320.00    -7000.00
04405             320.00    -7000.00
04406             440.00    -7000.00
04407             440.00    -7200.00
04408             440.00    -7200.00
04409             440.00    -7400.00
04410             440.00    -7200.00
04411             360.00    -7200.00
04412             480.00    -7400.00
04413             520.00    -7200.00
04414             480.00    -7400.00
04415             520.00    -7600.00
04416             520.00    -7600.00
04417             560.00    -7400.00
04418             600.00    -7600.00
04419             640.00    -7600.00
04420             640.00    -7400.00
04421             640.00    -7600.00
04422             680.00    -7800.00
04423             760.00    -7600.00
04424             720.00    -7600.00
04425             760.00    -7800.00
04426             800.00    -7400.00
04427             880.00    -7600.00
04428             920.00    -7800.00
04429             960.00    -7600.00
04430            1000.00    -7400.00
04431             960.00    -7600.00
04432            1000.00    -7600.00
04433            1080.00    -7600.00
04434            1080.00    -7600.00
04435            1080.00    -7200.00
04436            1120.00    -7400.00
04437            1160.00    -7400.00
04438            1160.00    -7200.00
04439            1240.00    -7400.00
04440            1240.00    -7200.00
04441            1200.00    -7200.00
04442            1240.00    -7200.00
04443            1160.00    -7200.00
04444            1160.00    -7200.00
04445            1160.00    -7000.00
04446            1160.00    -7000.00
04447            1160.00    -7000.00
04448            1120.00    -6800.00
04449            1080.00    -7000.00
04450            1080.00    -6800.00
04451            1080.00    -6600.00
04452            1000.00    -6600.00
04453            1000.00    -6600.00
04454             960.00    -6400.00
04455             920.00    -6600.00
04456             840.00    -6200.00
04457             840.00    -6200.00
04458             760.00    -6200.00
04459             760.00    -6000.00
04460             760.00    -6000.00
04461             680.00    -5800.00
04462             640.00    -5800.00
04463             600.00    -5600.00
04464             600.00    -5600.00
04465             520.00    -5400.00
04466             520.00    -5400.00
04467             480.00    -5200.00
04468             480.00    -5200.00
04469             440.00    -5000.00
04470             440.00    -5000.00
04471             400.00    -5000.00
04472             360.00    -5000.00
04473             360.00    -4600.00
04474             320.00    -4600.00
04475             320.00    -4400.00
04476             280.00    -4400.00
04477             280.00    -4200.00
04478             280.00    -4200.00
04479             280.00    -4200.00
04480             280.00    -3800.00
04481             280.00    -3800.00
04482             160.00    -3600.00
04483             200.00    -3400.00
04484             160.00    -3400.00
04485             160.00    -3400.00
04486             160.00    -3000.00
04487             160.00    -3000.00
04488             160.00    -2800.00
04489             160.00    -2800.00
04490             120.00    -2600.00
04491             120.00    -2400.00
04492             120.00    -2200.00
04493             160.00    -2200.00
04494             120.00    -2000.00
04495             120.00    -1800.00
04496             120.00    -1600.00
04497              80.00    -1400.00
04498             120.00    -1400.00
04499              80.00    -1400.00
04500             120.00    -1200.00
04501             120.00     -800.00
04502              40.00     -800.00
04503              80.00     -600.00
04504              40.00     -600.00
04505              40.00     -400.00
04506              80.00     -400.00
04507              40.00     -200.00
04508              40.00        0.00
04509              40.00      200.00
04510             120.00      200.00
04511             120.00      400.00
04512             160.00      400.00
04513             160.00      600.00
04514             120.00      600.00
04515             120.00     1000.00
04516              40.00     1000.00
04517              80.00     1200.00
04518             520.00     1400.00
04519            1160.00     1800.00
04520             640.00     1800.00
04521            -680.00     1800.00
04522           -2120.00     1600.00
04523           -1440.00     2000.00
04524             960.00     2600.00
04525             600.00     2000.00
04526            -200.00     2400.00
04527             680.00     2200.00
04528             280.00     2800.00
04529            -480.00     3400.00
04530             -80.00     2600.00
04531            -120.00     3400.00
04532             280.00     3800.00
04533              40.00     3000.00
04534            -520.00     3800.00
04535             160.00     4200.00
04536            -120.00     3400.00
04537            -480.00     4000.00
04538             360.00     4000.00
04539             -80.00     4200.00
04540            -320.00     4600.00
04541             -40.00     4200.00
04542             -80.00     4800.00
04543             -40.00     4600.00
04544            -280.00     4400.00
04545             -40.00     5400.00
04546             -40.00     5000.00
04547            -280.00     5000.00
04548            -160.00     5200.00
04549            -160.00     5400.00
04550            -120.00     5600.00
04551            -160.00     5400.00
04552            -160.00     5800.00
04553            -160.00     5800.00
04554            -320.00     5600.00
04555            -160.00     6000.00
04556            -160.00     5800.00
04557            -240.00     6200.00
04558            -200.00     6200.00
04559            -240.00     6200.00
04560            -280.00     6400.00
04561            -200.00     6200.00
04562            -160.00     6600.00
04563            -280.00     6400.00
04564            -320.00     6600.00
04565            -320.00     6800.00
04566            -280.00     6800.00
04567            -280.00     6800.00
04568            -280.00     7000.00
04569            -320.00     7000.00
04570            -440.00     7000.00
04571            -320.00     7000.00
04572            -320.00     7200.00
04573            -320.00     7400.00
04574            -360.00     7200.00
04575            -360.00     7400.00
04576            -440.00     7400.00
04577            -480.00     7400.00
04578            -480.00     7400.00
04579            -480.00     7600.00
04580            -480.00     7600.00
04581            -480.00     7600.00
04582            -520.00     7400.00
04583            -600.00     7600.00
04584            -640.00     7600.00
04585            -600.00     7600.00
04586            -600.00     7800.00
04587            -640.00     7600.00
04588            -680.00     7600.00
04589            -680.00     7800.00
04590            -760.00     7600.00
04591            -760.00     7800.00
04592            -800.00     7800.00
04593            -800.00     7800.00
04594            -840.00     7800.00
04595            -920.00     7800.00
04596            -960.00     7600.00
04597           -1000.00     7600.00
04598           -1040.00     7600.00
04599           -1080.00     7600.00
04600           -1080.00     7600.00
04601           -1120.00     7600.00
04602           -1120.00     7600.00
04603           -1120.00     7400.00
04604           -1160.00     7600.00
04605           -1160.00     7400.00
04606           -1200.00     7400.00
04607           -1240.00     7400.00
04608           -1240.00     7400.00
04609           -1240.00     7400.00
04610           -1240.00     7200.00
04611           -1240.00     7200.00
04612           -1200.00     7000.00
04613           -1160.00     7000.00
04614           -1120.00     7200.00
04615           -1160.00     6800.00
04616           -1120.00     7000.00
04617           -1120.00     6800.00
04618           -1080.00     6800.00
04619           -1040.00     6800.00
04620           -1000.00     6600.00
04621            -960.00     6600.00
04622            -960.00     6600.00
04623            -880.00     6600.00
04624            -840.00     6200.00
04625            -800.00     6200.00
04626            -760.00     6200.00
04627            -760.00     6000.00
04628            -680.00     6000.00
04629            -680.00     5800.00
04630            -640.00     5800.00
04631            -640.00     5800.00
04632            -600.00     5600.00
04633            -520.00     5400.00
04634            -520.00     5400.00
04635            -480.00     5200.00
04636            -480.00     5200.00
04637            -480.00     5200.00
04638            -440.00     5000.00
04639            -440.00     5000.00
04640            -360.00     4600.00
04641            -360.00     4600.00
04642            -320.00     4600.00
04643            -320.00     4400.00
04644            -320.00     4200.00
04645            -280.00     4200.00
04646            -280.00     4200.00
04647            -280.00     3800.00
04648            -200.00     3800.00
04649            -280.00     3600.00
04650            -280.00     3600.00
04651            -200.00     3400.00
04652            -200.00     3400.00
04653            -200.00     3000.00
04654            -200.00     3000.00
04655            -200.00     2800.00
04656            -200.00     2800.00
04657            -160.00     2600.00
04658            -200.00     2600.00
04659            -160.00     2200.00
04660            -160.00     2000.00
04661            -160.00     2000.00
04662            -160.00     1800.00
04663            -160.00     1800.00
04664            -120.00     1600.00
04665            -120.00     1600.00
04666            -120.00     1400.00
04667             -80.00     1200.00
04668            -120.00     1000.00
04669            -120.00     1000.00
04670            -120.00      800.00
04671            -120.00      600.00
04672            -120.00      600.00
04673             -80.00      400.00
04674             -40.00      200.00
04675             -40.00      200.00
04676             -40.00        0.00
04677             -40.00     -200.00
04678              40.00     -400.00
04679              80.00     -400.00
04680             120.00     -400.00
04681               0.00     -600.00
04682               0.00     -800.00
04683               0.00    -1000.00
04684               0.00     -800.00
04685             120.00    -1200.00
04686             640.00    -1400.00
04687            1000.00    -1800.00
04688             360.00    -1800.00
04689            -800.00    -2000.00
04690           -1760.00    -2000.00
04691           -1160.00    -1800.00
04692             640.00    -2600.00
04693             440.00    -2200.00
04694             -40.00    -2200.00
04695             600.00    -3000.00
04696             280.00    -2400.00
04697               0.00    -2600.00
04698             120.00    -3400.00
04699            -160.00    -3000.00
04700             200.00    -3200.00
04701             360.00    -3600.00
04702            -200.00    -3400.00
04703             -40.00    -3600.00
04704              40.00    -3800.00
04705               0.00    -3800.00
04706             280.00    -4200.00
04707             200.00    -4000.00
04708             -40.00    -4400.00
04709              40.00    -4600.00
04710             240.00    -4400.00
04711             160.00    -4600.00
04712             -40.00    -4800.00
04713             200.00    -5000.00
04714             280.00    -5000.00
04715              40.00    -5000.00
04716              40.00    -5400.00
04717             160.00    -5000.00
04718             200.00    -5400.00
04719             200.00    -5600.00
04720             200.00    -5400.00
04721             200.00    -5800.00
04722             160.00    -6000.00
04723             200.00    -6000.00
04724             280.00    -6000.00
04725             160.00    -6000.00
04726             160.00    -6200.00
04727             280.00    -6200.00
04728             280.00    -6400.00
04729             200.00    -6600.00
04730             280.00    -6600.00
04731             280.00    -6600.00
04732             200.00    -6600.00
04733             240.00    -6800.00
04734             320.00    -6800.00
04735             320.00    -6800.00
04736             320.00    -7000.00
04737             320.00    -6800.00
04738             320.00    -7000.00
04739             280.00    -7000.00
04740             440.00    -7000.00
04741             440.00    -7200.00
04742             400.00    -7400.00
04743             360.00    -7200.00
04744             440.00    -7200.00
04745             360.00    -7400.00
04746             440.00    -7400.00
04747             480.00    -7400.00
04748             520.00    -7400.00
04749             520.00    -7600.00
04750             520.00    -7600.00
04751             520.00    -7600.00
04752             560.00    -7600.00
04753             600.00    -7600.00
04754             640.00    -7600.00
04755             640.00    -7600.00
04756             640.00    -7600.00
04757             760.00    -7600.00
04758             800.00    -7600.00
04759             800.00    -7600.00
04760             800.00    -7600.00
04761             840.00    -7600.00
04762             880.00    -7600.00
04763             920.00    -7400.00
04764             960.00    -7800.00
04765            1000.00    -7600.00
04766            1000.00    -7600.00
04767            1080.00    -7200.00
04768            1080.00    -7400.00
04769            1120.00    -7600.00
04770            1120.00    -7200.00
04771            1120.00    -7600.00
04772            1120.00    -7400.00
04773            1160.00    -7200.00
04774            1160.00    -7200.00
04775            1160.00    -7200.00
04776            1240.00    -7000.00
04777            1240.00    -7200.00
04778            1160.00    -7200.00
04779            1120.00    -7000.00
04780            1160.00    -7000.00
04781            1160.00    -7000.00
04782            1120.00    -6800.00
04783            1120.00    -6800.00
04784            1080.00    -6800.00
04785            1080.00    -6800.00
04786            1040.00    -6800.00
04787            1000.00    -6600.00
04788             960.00    -6600.00
04789             960.00    -6600.00
04790             840.00    -6200.00
04791             840.00    -6200.00
04792             800.00    -6200.00
04793             760.00    -6000.00
04794             760.00    -6200.00
04795             720.00    -6000.00
04796             640.00    -5800.00
04797             600.00    -5800.00
04798             600.00    -5800.00
04799             600.00    -5600.00
04800             520.00    -5400.00
04801             480.00    -5400.00
04802             480.00    -5200.00
04803             440.00    -5000.00
04804             440.00    -5000.00
04805             440.00    -5000.00
04806             400.00    -4600.00
04807             360.00    -4800.00
04808             360.00    -4600.00
04809             320.00    -4600.00
04810             320.00    -4600.00
04811             320.00    -4200.00
04812             320.00    -4200.00
04813             280.00    -4000.00
04814             280.00    -3800.00
04815             280.00    -3800.00
04816             200.00    -3800.00
04817             240.00    -3400.00
04818             200.00    -3400.00
04819             200.00    -3200.00
04820             200.00    -3000.00
04821             200.00    -3000.00
04822             160.00    -2800.00
04823             160.00    -2800.00
04824             160.00    -2800.00
04825             120.00    -2400.00
04826             160.00    -2200.00
04827             160.00    -2200.00
04828             160.00    -2000.00
04829             120.00    -2000.00
04830              80.00    -1800.00
04831             120.00    -1600.00
04832             120.00    -1400.00
04833             120.00    -1200.00
04834             120.00    -1200.00
04835             120.00     -800.00
04836             120.00     -800.00
04837              80.00     -600.00
04838              40.00     -600.00
04839              40.00     -600.00
04840              80.00     -200.00
04841             120.00     -400.00
04842              40.00     -200.00
04843              40.00      200.00
04844              40.00      400.00
04845             120.00      400.00
04846             160.00      400.00
04847             160.00      600.00
04848             160.00      600.00
04849             120.00     1000.00
04850              40.00     1000.00
04851              40.00     1200.00
04852             200.00     1400.00
04853             920.00     1800.00
04854            1080.00     1600.00
04855              40.00     1800.00
04856           -1560.00     1600.00
04857           -2200.00     1800.00
04858            -160.00     2600.00
04859            1160.00     2200.00
04860            -120.00     2200.00
04861             200.00     2200.00
04862             760.00     2400.00
04863            -320.00     3400.00
04864            -280.00     2800.00
04865               0.00     2800.00
04866             -40.00     3800.00
04867             360.00     3000.00
04868            -440.00     3000.00
04869            -280.00     4200.00
04870             280.00     3600.00
04871            -520.00     3600.00
04872               0.00     4200.00
04873             280.00     4000.00
04874            -360.00     4400.00
04875            -160.00     4200.00
04876             -40.00     4400.00
04877             -40.00     5000.00
04878            -200.00     4400.00
04879            -200.00     4800.00
04880              40.00     5200.00
04881            -200.00     4600.00
04882            -200.00     5200.00
04883            -160.00     5200.00
04884            -200.00     5600.00
04885             -40.00     5400.00
04886            -160.00     5600.00
04887            -160.00     6000.00
04888            -200.00     5600.00
04889            -280.00     6000.00
04890            -120.00     6000.00
04891            -200.00     6000.00
04892            -200.00     6200.00
04893            -200.00     6200.00
04894            -200.00     6400.00
04895            -280.00     6400.00
04896            -200.00     6400.00
04897            -200.00     6600.00
04898            -280.00     6600.00
04899            -320.00     6600.00
04900            -280.00     6800.00
04901            -280.00     6800.00
04902            -320.00     6800.00
04903            -320.00     7000.00
04904            -320.00     7000.00
04905            -400.00     7000.00
04906            -320.00     7000.00
04907            -320.00     7200.00
04908            -360.00     7400.00
04909            -360.00     7400.00
04910            -360.00     7400.00
04911            -440.00     7400.00
04912            -480.00     7400.00
04913            -480.00     7600.00
04914            -480.00     7600.00
04915            -480.00     7400.00
04916            -480.00     7400.00
04917            -520.00     7600.00
04918            -640.00     7600.00
04919            -600.00     7600.00
04920            -560.00     7800.00
04921            -640.00     7600.00
04922            -680.00     7600.00
04923            -680.00     7600.00
04924            -720.00     7600.00
04925            -800.00     7600.00
04926            -800.00     7800.00
04927            -800.00     7600.00
04928            -840.00     7600.00
04929            -920.00     7600.00
04930            -920.00     7800.00
04931            -960.00     7600.00
04932           -1000.00     7600.00
04933           -1000.00     7600.00
04934           -1000.00     7600.00
04935           -1080.00     7600.00
04936           -1160.00     7400.00
04937           -1120.00     7600.00
04938           -1160.00     7400.00
04939           -1160.00     7400.00
04940           -1200.00     7400.00
04941           -1200.00     7400.00
04942           -1160.00     7400.00
04943           -1240.00     7400.00
04944           -1240.00     7400.00
04945           -1240.00     7400.00
04946           -1240.00     7200.00
04947           -1160.00     7000.00
04948           -1160.00     7000.00
04949           -1160.00     7000.00
04950           -1120.00     7000.00
04951           -1120.00     6800.00
04952           -1080.00     6800.00
04953           -1040.00     6800.00
04954           -1000.00     6600.00
04955           -1000.00     6600.00
04956            -960.00     6600.00
04957            -920.00     6600.00
04958            -840.00     6200.00
04959            -840.00     6200.00
04960            -800.00     6200.00
04961            -680.00     6000.00
04962            -680.00     6200.00
04963            -680.00     6000.00
04964            -640.00     5800.00
04965            -640.00     5800.00
04966            -600.00     5600.00
04967            -520.00     5600.00
04968            -520.00     5600.00
04969            -520.00     5600.00
04970            -480.00     5400.00
04971            -480.00     5200.00
04972            -440.00     5000.00
04973            -360.00     5000.00
04974            -400.00     4800.00
04975            -360.00     4600.00
04976            -320.00     4600.00
04977            -320.00     4400.00
04978            -320.00     4400.00
04979            -320.00     4200.00
04980            -280.00     4200.00
04981            -240.00     4000.00
04982            -280.00     4000.00
04983            -280.00     3800.00
04984            -280.00     3600.00
04985            -240.00     3600.00
04986            -200.00     3400.00
04987            -200.00     3400.00
04988            -200.00     3000.00
04989            -200.00     3000.00
04990            -160.00     2800.00
04991            -200.00     2800.00
04992            -160.00     2600.00
04993            -160.00     2400.00
04994            -160.00     2200.00
04995            -160.00     2000.00
04996            -160.00     2000.00
04997            -160.00     2000.00
04998            -160.00     1800.00
04999            -120.00     1400.00
05000            -120.00     1400.00
