Unit:(mV)
                     CH1         CH2
Frequency              ? 299.044 kHz
00001              80.00    -1600.00
00002             480.00    -1600.00
00003             900.00    -2200.00
00004             400.00    -2200.00
00005            -480.00    -2200.00
00006            -960.00    -2600.00
00007           -1060.00    -2400.00
00008            -160.00    -2600.00
00009             640.00    -3200.00
00010             -80.00    -3000.00
00011             100.00    -3400.00
00012             360.00    -3600.00
00013            -100.00    -3200.00
00014             180.00    -3800.00
00015              20.00    -4200.00
00016               0.00    -4200.00
00017             320.00    -4600.00
00018             -20.00    -4400.00
00019            -160.00    -5000.00
00020             -20.00    -4800.00
00021              60.00    -5000.00
00022              80.00    -5400.00
00023              20.00    -5000.00
00024             100.00    -5600.00
00025             -40.00    -5400.00
00026              80.00    -5800.00
00027             160.00    -6200.00
00028               0.00    -6000.00
00029              60.00    -6400.00
00030              80.00    -6200.00
00031              80.00    -6600.00
00032              20.00    -6800.00
00033               0.00    -6800.00
00034             140.00    -7000.00
00035             100.00    -7000.00
00036              60.00    -7400.00
00037              80.00    -7200.00
00038             100.00    -7400.00
00039             100.00    -7600.00
00040              80.00    -7800.00
00041              80.00    -7800.00
00042              60.00    -8000.00
00043              80.00    -8000.00
00044             140.00    -8200.00
00045             100.00    -8200.00
00046              60.00    -8400.00
00047             120.00    -8400.00
00048             100.00    -8600.00
00049              60.00    -8800.00
00050             140.00    -9000.00
00051             160.00    -8800.00
00052             120.00    -9000.00
00053              80.00    -9000.00
00054             100.00    -9000.00
00055             100.00    -9200.00
00056             140.00    -9200.00
00057             180.00    -9400.00
00058             160.00    -9400.00
00059              80.00    -9400.00
00060              80.00    -9400.00
00061             160.00    -9400.00
00062             140.00    -9600.00
00063             100.00    -9600.00
00064             140.00    -9800.00
00065             160.00    -9800.00
00066             120.00    -9800.00
00067             140.00    -9800.00
00068             160.00   -10000.00
00069             160.00    -9800.00
00070             140.00    -9800.00
00071             160.00    -9800.00
00072             160.00    -9800.00
00073             160.00    -9800.00
00074             140.00    -9800.00
00075             140.00   -10000.00
00076             140.00    -9800.00
00077             140.00    -9800.00
00078             160.00    -9800.00
00079             160.00    -9800.00
00080             200.00    -9800.00
00081             140.00   -10000.00
00082             140.00    -9800.00
00083             160.00    -9800.00
00084             160.00    -9800.00
00085             160.00    -9800.00
00086             160.00    -9800.00
00087             180.00    -9600.00
00088             160.00    -9800.00
00089             160.00    -9800.00
00090             160.00    -9600.00
00091             160.00    -9400.00
00092             160.00    -9400.00
00093             140.00    -9400.00
00094             160.00    -9400.00
00095             160.00    -9400.00
00096             160.00    -9400.00
00097             140.00    -9200.00
00098             160.00    -9200.00
00099             140.00    -9200.00
00100             140.00    -9000.00
00101             160.00    -8800.00
00102             160.00    -8800.00
00103             160.00    -8600.00
00104             160.00    -8600.00
00105             140.00    -8600.00
00106             140.00    -8400.00
00107             140.00    -8400.00
00108             140.00    -8200.00
00109             140.00    -7800.00
00110             160.00    -8000.00
00111             160.00    -7800.00
00112             140.00    -7600.00
00113             140.00    -7600.00
00114             140.00    -7200.00
00115             140.00    -7400.00
00116             160.00    -7200.00
00117             140.00    -7000.00
00118             140.00    -7000.00
00119             120.00    -6800.00
00120             140.00    -6600.00
00121             120.00    -6600.00
00122             140.00    -6400.00
00123             160.00    -6200.00
00124             160.00    -6000.00
00125             140.00    -5800.00
00126             140.00    -5800.00
00127             100.00    -5800.00
00128             120.00    -5400.00
00129             140.00    -5400.00
00130             140.00    -5200.00
00131             140.00    -5000.00
00132             120.00    -5000.00
00133             100.00    -4600.00
00134             120.00    -4600.00
00135             100.00    -4400.00
00136             100.00    -4200.00
00137             140.00    -4200.00
00138             120.00    -3800.00
00139              80.00    -3600.00
00140              80.00    -3400.00
00141             100.00    -3400.00
00142              80.00    -3000.00
00143              80.00    -2800.00
00144              80.00    -2800.00
00145             100.00    -2600.00
00146              80.00    -2400.00
00147              60.00    -2200.00
00148              80.00    -2200.00
00149              80.00    -1800.00
00150              80.00    -1800.00
00151              60.00    -1400.00
00152              60.00    -1400.00
00153              60.00    -1000.00
00154              60.00     -800.00
00155              60.00     -600.00
00156              60.00     -600.00
00157              60.00     -400.00
00158              60.00     -200.00
00159              60.00     -200.00
00160              60.00      200.00
00161              80.00      400.00
00162             120.00      600.00
00163             160.00      600.00
00164             160.00      800.00
00165             140.00     1000.00
00166             100.00     1400.00
00167             100.00     1400.00
00168             220.00     1400.00
00169             820.00     1800.00
00170            1020.00     2000.00
00171             100.00     2200.00
00172            -960.00     2200.00
00173           -1500.00     2200.00
00174            -640.00     3000.00
00175             940.00     3000.00
00176             220.00     2800.00
00177            -160.00     3400.00
00178             480.00     3000.00
00179            -140.00     3600.00
00180             -80.00     4200.00
00181              60.00     3400.00
00182             -60.00     4200.00
00183             460.00     4400.00
00184            -180.00     3800.00
00185            -240.00     5000.00
00186             160.00     4600.00
00187            -240.00     5000.00
00188              60.00     5200.00
00189              80.00     5000.00
00190               0.00     5800.00
00191             -80.00     5400.00
00192            -100.00     5800.00
00193             140.00     6000.00
00194            -140.00     5800.00
00195             -60.00     6400.00
00196               0.00     6000.00
00197             -60.00     6600.00
00198             -80.00     6600.00
00199            -140.00     6600.00
00200               0.00     7000.00
00201             -60.00     6800.00
00202               0.00     7400.00
00203             -60.00     7200.00
00204             -80.00     7400.00
00205            -100.00     7400.00
00206             -60.00     7800.00
00207             -20.00     7800.00
00208            -100.00     7800.00
00209             -60.00     7800.00
00210            -100.00     8200.00
00211             -80.00     8200.00
00212             -80.00     8400.00
00213             -60.00     8400.00
00214            -100.00     8600.00
00215            -160.00     8600.00
00216            -100.00     8600.00
00217            -100.00     8600.00
00218             -80.00     8800.00
00219            -100.00     9000.00
00220            -140.00     9200.00
00221            -140.00     9200.00
00222            -100.00     9200.00
00223             -80.00     9200.00
00224            -100.00     9400.00
00225            -120.00     9200.00
00226            -140.00     9600.00
00227            -140.00     9600.00
00228            -160.00     9600.00
00229            -140.00     9400.00
00230            -120.00     9800.00
00231            -100.00     9800.00
00232            -100.00     9800.00
00233            -140.00     9800.00
00234            -160.00     9800.00
00235            -160.00     9800.00
00236            -140.00     9800.00
00237            -100.00    10000.00
00238            -140.00     9800.00
00239            -160.00    10000.00
00240            -140.00    10000.00
00241            -140.00    10000.00
00242            -160.00     9800.00
00243            -140.00    10000.00
00244            -160.00    10000.00
00245            -160.00    10000.00
00246            -140.00    10000.00
00247            -140.00    10000.00
00248            -160.00    10000.00
00249            -160.00    10000.00
00250            -140.00     9800.00
00251            -140.00    10000.00
00252            -140.00     9800.00
00253            -160.00     9800.00
00254            -160.00     9800.00
00255            -160.00     9800.00
00256            -160.00     9800.00
00257            -140.00     9800.00
00258            -160.00     9600.00
00259            -140.00     9400.00
00260            -160.00     9400.00
00261            -160.00     9400.00
00262            -160.00     9400.00
00263            -140.00     9200.00
00264            -140.00     9200.00
00265            -140.00     9000.00
00266            -160.00     9000.00
00267            -160.00     9000.00
00268            -160.00     8600.00
00269            -160.00     8800.00
00270            -140.00     8600.00
00271            -140.00     8600.00
00272            -140.00     8400.00
00273            -140.00     8400.00
00274            -140.00     8400.00
00275            -160.00     8200.00
00276            -140.00     8200.00
00277            -140.00     8000.00
00278            -140.00     7800.00
00279            -140.00     7800.00
00280            -160.00     7600.00
00281            -160.00     7600.00
00282            -140.00     7400.00
00283            -140.00     7200.00
00284            -140.00     7000.00
00285            -140.00     7000.00
00286            -160.00     6800.00
00287            -140.00     6600.00
00288            -140.00     6600.00
00289            -140.00     6600.00
00290            -140.00     6200.00
00291            -140.00     6000.00
00292            -140.00     5800.00
00293            -140.00     5800.00
00294            -140.00     5800.00
00295            -140.00     5400.00
00296            -140.00     5600.00
00297            -100.00     5200.00
00298            -140.00     5000.00
00299            -120.00     5000.00
00300            -140.00     4600.00
00301            -100.00     4600.00
00302            -100.00     4400.00
00303            -100.00     4200.00
00304            -100.00     4200.00
00305            -100.00     3800.00
00306            -100.00     3600.00
00307             -80.00     3600.00
00308            -100.00     3400.00
00309            -100.00     3200.00
00310             -80.00     3000.00
00311             -60.00     3000.00
00312            -100.00     2800.00
00313            -140.00     2600.00
00314            -100.00     2400.00
00315             -80.00     2200.00
00316             -60.00     2000.00
00317             -60.00     1800.00
00318             -60.00     1800.00
00319             -80.00     1400.00
00320            -100.00     1200.00
00321             -60.00     1000.00
00322             -20.00     1000.00
00323             -60.00      600.00
00324             -60.00      400.00
00325             -20.00      400.00
00326             -60.00      200.00
00327             -60.00        0.00
00328             -20.00     -200.00
00329              60.00     -400.00
00330             100.00     -600.00
00331              80.00     -600.00
00332              40.00    -1000.00
00333              20.00     -800.00
00334              20.00    -1200.00
00335              60.00    -1400.00
00336             300.00    -1600.00
00337             820.00    -2000.00
00338             720.00    -2200.00
00339            -160.00    -2200.00
00340            -820.00    -2600.00
00341           -1060.00    -2600.00
00342            -680.00    -2200.00
00343             540.00    -3000.00
00344             240.00    -3200.00
00345            -100.00    -3000.00
00346             400.00    -3800.00
00347               0.00    -3600.00
00348              40.00    -3600.00
00349             160.00    -4200.00
00350            -100.00    -4000.00
00351             240.00    -4600.00
00352             180.00    -4200.00
00353            -160.00    -4600.00
00354            -100.00    -5000.00
00355               0.00    -4600.00
00356             100.00    -5400.00
00357              20.00    -5200.00
00358              80.00    -5400.00
00359              20.00    -5800.00
00360             -20.00    -5600.00
00361             180.00    -6200.00
00362              40.00    -6000.00
00363               0.00    -6200.00
00364              80.00    -6400.00
00365             100.00    -6200.00
00366              60.00    -6800.00
00367               0.00    -6800.00
00368              80.00    -6800.00
00369             100.00    -7000.00
00370              60.00    -7000.00
00371              60.00    -7400.00
00372              80.00    -7200.00
00373             100.00    -7600.00
00374             100.00    -7600.00
00375             100.00    -7800.00
00376              60.00    -8000.00
00377              60.00    -8000.00
00378             120.00    -8200.00
00379             140.00    -8400.00
00380             120.00    -8400.00
00381             140.00    -8400.00
00382             100.00    -8600.00
00383              60.00    -8600.00
00384              80.00    -8600.00
00385             120.00    -8800.00
00386             140.00    -9000.00
00387             140.00    -9000.00
00388             100.00    -9000.00
00389              80.00    -9200.00
00390              80.00    -9200.00
00391             160.00    -9400.00
00392             160.00    -9400.00
00393             140.00    -9400.00
00394             120.00    -9400.00
00395             140.00    -9400.00
00396             140.00    -9400.00
00397             140.00    -9600.00
00398             140.00    -9600.00
00399             140.00    -9800.00
00400             140.00    -9800.00
00401             160.00    -9800.00
00402             160.00    -9800.00
00403             140.00    -9800.00
00404             140.00    -9800.00
00405             140.00    -9800.00
00406             160.00    -9800.00
00407             140.00   -10000.00
00408             140.00   -10000.00
00409             140.00   -10000.00
00410             140.00   -10000.00
00411             160.00    -9800.00
00412             160.00    -9800.00
00413             140.00   -10000.00
00414             140.00    -9800.00
00415             140.00    -9800.00
00416             140.00    -9800.00
00417             140.00    -9800.00
00418             160.00    -9800.00
00419             160.00    -9800.00
00420             160.00    -9800.00
00421             140.00    -9800.00
00422             140.00    -9600.00
00423             160.00    -9400.00
00424             160.00    -9800.00
00425             160.00    -9400.00
00426             160.00    -9400.00
00427             140.00    -9400.00
00428             140.00    -9400.00
00429             160.00    -9400.00
00430             160.00    -9200.00
00431             160.00    -9200.00
00432             160.00    -9200.00
00433             160.00    -9000.00
00434             160.00    -9000.00
00435             160.00    -8800.00
00436             160.00    -8600.00
00437             160.00    -8600.00
00438             160.00    -8600.00
00439             160.00    -8600.00
00440             160.00    -8600.00
00441             160.00    -8200.00
00442             140.00    -8200.00
00443             140.00    -8200.00
00444             160.00    -7800.00
00445             160.00    -7800.00
00446             160.00    -7800.00
00447             140.00    -7600.00
00448             140.00    -7400.00
00449             140.00    -7200.00
00450             140.00    -7200.00
00451             160.00    -7200.00
00452             140.00    -6800.00
00453             140.00    -6800.00
00454             140.00    -6600.00
00455             140.00    -6600.00
00456             140.00    -6600.00
00457             140.00    -6200.00
00458             140.00    -6200.00
00459             140.00    -6000.00
00460             140.00    -5800.00
00461             100.00    -5600.00
00462             140.00    -5400.00
00463             140.00    -5400.00
00464             140.00    -5200.00
00465             140.00    -5000.00
00466             140.00    -5000.00
00467             100.00    -4800.00
00468             100.00    -4400.00
00469             100.00    -4400.00
00470             120.00    -4200.00
00471             120.00    -4200.00
00472             100.00    -3800.00
00473             100.00    -3800.00
00474              80.00    -3600.00
00475             100.00    -3400.00
00476              80.00    -3200.00
00477             100.00    -3000.00
00478             100.00    -2800.00
00479              80.00    -2800.00
00480              60.00    -2600.00
00481              80.00    -2200.00
00482              60.00    -2000.00
00483              80.00    -2200.00
00484              60.00    -1800.00
00485              80.00    -1800.00
00486              80.00    -1400.00
00487              60.00    -1200.00
00488              60.00     -800.00
00489              60.00     -600.00
00490              60.00     -600.00
00491              60.00     -400.00
00492              60.00     -400.00
00493              60.00     -200.00
00494              60.00      200.00
00495              60.00      400.00
00496             100.00      400.00
00497             160.00      600.00
00498             160.00      800.00
00499             140.00     1000.00
00500             100.00     1000.00
00501             100.00     1200.00
00502             140.00     1400.00
00503             540.00     1800.00
00504            1100.00     2000.00
00505             560.00     2200.00
00506            -600.00     2200.00
00507           -1360.00     2200.00
00508           -1220.00     2600.00
00509             480.00     3000.00
00510             720.00     2800.00
00511            -260.00     3000.00
00512             320.00     3200.00
00513             160.00     3400.00
00514            -260.00     4200.00
00515             140.00     3800.00
00516            -100.00     3800.00
00517             320.00     4600.00
00518             160.00     4000.00
00519            -400.00     4600.00
00520             140.00     5000.00
00521            -100.00     4600.00
00522            -100.00     5200.00
00523             140.00     5000.00
00524               0.00     5600.00
00525               0.00     5600.00
00526            -180.00     5400.00
00527             100.00     6200.00
00528               0.00     5800.00
00529            -140.00     6200.00
00530              60.00     6400.00
00531             -60.00     6200.00
00532             -60.00     6800.00
00533            -120.00     6400.00
00534             -20.00     7000.00
00535             -20.00     6800.00
00536             -60.00     7000.00
00537             -20.00     7400.00
00538            -100.00     7200.00
00539             -80.00     7600.00
00540            -100.00     7400.00
00541             -20.00     7800.00
00542            -100.00     7800.00
00543            -100.00     8000.00
00544            -120.00     8200.00
00545            -100.00     8200.00
00546             -60.00     8400.00
00547             -80.00     8200.00
00548             -80.00     8400.00
00549            -160.00     8600.00
00550            -100.00     8600.00
00551            -100.00     9000.00
00552             -80.00     8800.00
00553            -100.00     9000.00
00554            -100.00     9000.00
00555            -160.00     9200.00
00556            -160.00     9200.00
00557             -80.00     9200.00
00558            -100.00     9400.00
00559            -120.00     9400.00
00560            -140.00     9400.00
00561            -140.00     9400.00
00562            -160.00     9400.00
00563            -140.00     9600.00
00564            -120.00     9600.00
00565            -140.00     9800.00
00566            -100.00     9800.00
00567            -140.00     9800.00
00568            -140.00     9800.00
00569            -160.00     9800.00
00570            -140.00    10000.00
00571            -100.00    10000.00
00572            -160.00     9800.00
00573            -160.00    10000.00
00574            -140.00     9800.00
00575            -160.00    10000.00
00576            -160.00    10000.00
00577            -140.00    10000.00
00578            -140.00    10200.00
00579            -140.00    10000.00
00580            -140.00    10000.00
00581            -140.00    10000.00
00582            -160.00    10000.00
00583            -160.00    10000.00
00584            -160.00    10000.00
00585            -140.00     9800.00
00586            -140.00     9800.00
00587            -160.00     9800.00
00588            -160.00     9800.00
00589            -160.00     9600.00
00590            -160.00     9800.00
00591            -140.00     9600.00
00592            -160.00     9400.00
00593            -140.00     9600.00
00594            -160.00     9400.00
00595            -180.00     9400.00
00596            -160.00     9400.00
00597            -140.00     9200.00
00598            -160.00     9200.00
00599            -140.00     9200.00
00600            -140.00     9200.00
00601            -160.00     9200.00
00602            -160.00     9000.00
00603            -140.00     9000.00
00604            -140.00     8600.00
00605            -160.00     8600.00
00606            -160.00     8600.00
00607            -160.00     8400.00
00608            -160.00     8400.00
00609            -160.00     8200.00
00610            -160.00     8200.00
00611            -160.00     8200.00
00612            -160.00     7800.00
00613            -140.00     7800.00
00614            -140.00     7600.00
00615            -160.00     7600.00
00616            -160.00     7400.00
00617            -160.00     7400.00
00618            -140.00     7200.00
00619            -140.00     7000.00
00620            -160.00     6800.00
00621            -140.00     6800.00
00622            -140.00     6600.00
00623            -140.00     6600.00
00624            -140.00     6200.00
00625            -140.00     6200.00
00626            -140.00     6000.00
00627            -140.00     5800.00
00628            -140.00     5800.00
00629            -140.00     5800.00
00630            -120.00     5400.00
00631            -140.00     5400.00
00632            -140.00     5200.00
00633            -120.00     5200.00
00634            -100.00     5000.00
00635            -100.00     4600.00
00636            -100.00     4400.00
00637            -100.00     4200.00
00638            -100.00     4200.00
00639            -100.00     4000.00
00640            -100.00     3800.00
00641            -100.00     3600.00
00642            -100.00     3400.00
00643            -100.00     3200.00
00644             -80.00     3000.00
00645            -100.00     3000.00
00646            -100.00     2800.00
00647             -80.00     2600.00
00648            -100.00     2600.00
00649            -100.00     2200.00
00650             -60.00     2000.00
00651             -60.00     2000.00
00652             -80.00     1600.00
00653             -60.00     1400.00
00654             -60.00     1400.00
00655             -60.00     1000.00
00656             -80.00     1000.00
00657             -60.00      800.00
00658             -60.00      600.00
00659             -60.00      400.00
00660             -60.00      200.00
00661             -20.00        0.00
00662             -20.00     -200.00
00663              20.00     -400.00
00664             100.00     -400.00
00665             100.00     -600.00
00666              60.00    -1000.00
00667               0.00    -1000.00
00668               0.00    -1200.00
00669              20.00    -1400.00
00670             140.00    -1600.00
00671             640.00    -1800.00
00672             880.00    -2200.00
00673             220.00    -2200.00
00674            -660.00    -2600.00
00675           -1040.00    -2600.00
00676           -1000.00    -2400.00
00677             140.00    -2600.00
00678             560.00    -3400.00
00679            -160.00    -3000.00
00680             220.00    -3400.00
00681             240.00    -3600.00
00682            -100.00    -3400.00
00683             240.00    -4200.00
00684             -40.00    -4200.00
00685              60.00    -4200.00
00686             300.00    -4600.00
00687            -100.00    -4400.00
00688            -140.00    -5000.00
00689             -20.00    -4600.00
00690              80.00    -5000.00
00691              60.00    -5400.00
00692              60.00    -5200.00
00693              80.00    -5800.00
00694             -40.00    -5600.00
00695             140.00    -5800.00
00696             140.00    -6000.00
00697               0.00    -6000.00
00698              60.00    -6600.00
00699             100.00    -6200.00
00700              80.00    -6600.00
00701              20.00    -6800.00
00702              20.00    -6800.00
00703             140.00    -7000.00
00704              80.00    -7000.00
00705              80.00    -7400.00
00706              80.00    -7200.00
00707             100.00    -7400.00
00708             100.00    -7600.00
00709             120.00    -7800.00
00710              80.00    -7800.00
00711              60.00    -7800.00
00712              80.00    -8000.00
00713             140.00    -8200.00
00714             100.00    -8400.00
00715             100.00    -8400.00
00716             140.00    -8600.00
00717             100.00    -8600.00
00718              80.00    -8600.00
00719             140.00    -8600.00
00720             140.00    -9000.00
00721             100.00    -9000.00
00722             120.00    -9000.00
00723             100.00    -9000.00
00724             100.00    -9000.00
00725             100.00    -9200.00
00726             160.00    -9200.00
00727             140.00    -9400.00
00728             100.00    -9400.00
00729             100.00    -9400.00
00730             140.00    -9400.00
00731             140.00    -9600.00
00732             140.00    -9400.00
00733             160.00    -9600.00
00734             160.00    -9800.00
00735             140.00    -9800.00
00736             140.00    -9800.00
00737             120.00    -9800.00
00738             120.00    -9800.00
00739             140.00   -10000.00
00740             160.00    -9800.00
00741             140.00   -10000.00
00742             160.00   -10000.00
00743             140.00   -10000.00
00744             140.00   -10000.00
00745             160.00   -10000.00
00746             160.00   -10000.00
00747             160.00    -9800.00
00748             160.00    -9800.00
00749             140.00   -10000.00
00750             140.00    -9800.00
00751             140.00    -9800.00
00752             160.00    -9800.00
00753             160.00    -9800.00
00754             160.00    -9800.00
00755             160.00    -9800.00
00756             160.00    -9600.00
00757             160.00    -9800.00
00758             140.00    -9600.00
00759             160.00    -9600.00
00760             160.00    -9400.00
00761             160.00    -9400.00
00762             160.00    -9400.00
00763             160.00    -9200.00
00764             160.00    -9200.00
00765             140.00    -9200.00
00766             160.00    -9000.00
00767             180.00    -9200.00
00768             160.00    -9000.00
00769             160.00    -8800.00
00770             140.00    -8800.00
00771             160.00    -8800.00
00772             160.00    -8600.00
00773             160.00    -8600.00
00774             160.00    -8400.00
00775             160.00    -8200.00
00776             160.00    -8200.00
00777             160.00    -8000.00
00778             160.00    -7800.00
00779             160.00    -7800.00
00780             160.00    -7800.00
00781             160.00    -7600.00
00782             140.00    -7400.00
00783             140.00    -7200.00
00784             140.00    -7200.00
00785             160.00    -7000.00
00786             160.00    -7000.00
00787             160.00    -6800.00
00788             140.00    -6600.00
00789             140.00    -6800.00
00790             140.00    -6600.00
00791             140.00    -6200.00
00792             140.00    -6200.00
00793             140.00    -6000.00
00794             160.00    -5800.00
00795             100.00    -5800.00
00796             140.00    -5800.00
00797             120.00    -5400.00
00798             140.00    -5200.00
00799             100.00    -5200.00
00800             140.00    -5000.00
00801             100.00    -5000.00
00802             100.00    -4600.00
00803             100.00    -4600.00
00804             100.00    -4200.00
00805             100.00    -4200.00
00806             100.00    -4000.00
00807             100.00    -3800.00
00808              80.00    -3600.00
00809             100.00    -3400.00
00810              80.00    -3400.00
00811              80.00    -3000.00
00812              80.00    -2800.00
00813              80.00    -2800.00
00814              80.00    -2600.00
00815              80.00    -2400.00
00816              60.00    -2200.00
00817              60.00    -2000.00
00818              80.00    -2000.00
00819              80.00    -1800.00
00820              80.00    -1400.00
00821              60.00    -1200.00
00822              40.00    -1200.00
00823              60.00     -800.00
00824              60.00     -600.00
00825              60.00     -600.00
00826              60.00     -400.00
00827              80.00     -200.00
00828              60.00      200.00
00829              60.00      200.00
00830              80.00      400.00
00831             140.00      600.00
00832             160.00      800.00
00833             160.00     1000.00
00834             100.00     1000.00
00835              80.00     1200.00
00836             100.00     1200.00
00837             300.00     1600.00
00838             960.00     1800.00
00839             940.00     2000.00
00840            -160.00     2200.00
00841           -1120.00     2200.00
00842           -1480.00     2200.00
00843            -260.00     3000.00
00844            1000.00     3000.00
00845             -20.00     2800.00
00846              20.00     3400.00
00847             420.00     3000.00
00848            -260.00     3800.00
00849               0.00     4000.00
00850               0.00     3400.00
00851              60.00     4600.00
00852             440.00     4200.00
00853            -320.00     4200.00
00854             -80.00     5000.00
00855              80.00     4600.00
00856            -240.00     5000.00
00857             100.00     5000.00
00858              20.00     5200.00
00859               0.00     5800.00
00860            -120.00     5400.00
00861             -20.00     6000.00
00862             140.00     6000.00
00863            -160.00     6000.00
00864             -20.00     6400.00
00865               0.00     6200.00
00866             -40.00     6600.00
00867            -100.00     6600.00
00868            -100.00     6800.00
00869               0.00     7000.00
00870             -80.00     6800.00
00871             -20.00     7200.00
00872             -80.00     7000.00
00873            -100.00     7600.00
00874            -100.00     7400.00
00875             -40.00     7800.00
00876             -60.00     7600.00
00877            -100.00     7800.00
00878            -100.00     8200.00
00879            -100.00     8200.00
00880             -60.00     8200.00
00881            -100.00     8400.00
00882             -60.00     8400.00
00883            -120.00     8600.00
00884            -140.00     8600.00
00885            -100.00     8600.00
00886            -100.00     8800.00
00887             -80.00     9000.00
00888            -100.00     9000.00
00889            -160.00     9200.00
00890            -160.00     9200.00
00891            -100.00     9200.00
00892            -100.00     9400.00
00893            -120.00     9200.00
00894            -140.00     9400.00
00895            -140.00     9400.00
00896            -140.00     9400.00
00897            -160.00     9600.00
00898            -100.00     9800.00
00899            -120.00     9800.00
00900            -100.00     9800.00
00901            -120.00     9800.00
00902            -140.00    10000.00
00903            -160.00     9800.00
00904            -140.00     9800.00
00905            -100.00    10000.00
00906            -140.00    10000.00
00907            -160.00    10000.00
00908            -140.00     9800.00
00909            -140.00    10000.00
00910            -160.00    10000.00
00911            -160.00    10000.00
00912            -140.00    10000.00
00913            -140.00    10000.00
00914            -140.00    10200.00
00915            -140.00    10000.00
00916            -160.00    10000.00
00917            -160.00    10000.00
00918            -160.00    10000.00
00919            -140.00    10000.00
00920            -140.00     9800.00
00921            -140.00     9800.00
00922            -160.00     9800.00
00923            -160.00     9800.00
00924            -160.00     9800.00
00925            -160.00     9800.00
00926            -160.00     9600.00
00927            -160.00     9600.00
00928            -140.00     9400.00
00929            -160.00     9400.00
00930            -160.00     9200.00
00931            -160.00     9200.00
00932            -160.00     9200.00
00933            -140.00     9200.00
00934            -160.00     9200.00
00935            -160.00     9000.00
00936            -160.00     9000.00
00937            -160.00     8800.00
00938            -160.00     8600.00
00939            -160.00     8600.00
00940            -140.00     8600.00
00941            -160.00     8400.00
00942            -160.00     8400.00
00943            -160.00     8400.00
00944            -180.00     8200.00
00945            -160.00     8200.00
00946            -140.00     7800.00
00947            -140.00     7800.00
00948            -160.00     7800.00
00949            -160.00     7600.00
00950            -160.00     7400.00
00951            -160.00     7400.00
00952            -140.00     7400.00
00953            -140.00     7000.00
00954            -140.00     7000.00
00955            -140.00     6800.00
00956            -140.00     6800.00
00957            -140.00     6600.00
00958            -120.00     6400.00
00959            -140.00     6200.00
00960            -140.00     6200.00
00961            -140.00     6000.00
00962            -160.00     5800.00
00963            -140.00     5800.00
00964            -140.00     5400.00
00965            -100.00     5400.00
00966            -100.00     5200.00
00967            -100.00     5000.00
00968            -100.00     5000.00
00969            -100.00     4600.00
00970            -100.00     4600.00
00971            -100.00     4400.00
00972            -120.00     4200.00
00973            -100.00     3800.00
00974            -100.00     3800.00
00975            -100.00     3800.00
00976            -100.00     3600.00
00977            -100.00     3400.00
00978            -100.00     3200.00
00979             -80.00     3000.00
00980             -80.00     2800.00
00981             -80.00     2600.00
00982            -100.00     2400.00
00983            -100.00     2200.00
00984             -80.00     2200.00
00985             -60.00     2000.00
00986             -60.00     1800.00
00987             -60.00     1600.00
00988             -80.00     1400.00
00989             -60.00     1200.00
00990             -60.00     1000.00
00991             -60.00      600.00
00992             -60.00      600.00
00993             -60.00      400.00
00994             -60.00      400.00
00995             -60.00      200.00
00996             -20.00     -200.00
00997               0.00     -200.00
00998              60.00     -600.00
00999             100.00     -600.00
01000              60.00     -800.00
01001              20.00    -1000.00
01002               0.00     -800.00
01003              20.00    -1200.00
01004              80.00    -1400.00
01005             380.00    -1600.00
01006             880.00    -2000.00
01007             560.00    -2400.00
01008            -340.00    -2400.00
01009            -920.00    -2800.00
01010           -1100.00    -2600.00
01011            -420.00    -2400.00
01012             640.00    -3000.00
01013              60.00    -3000.00
01014             -20.00    -3000.00
01015             400.00    -3800.00
01016             -60.00    -3400.00
01017             140.00    -3800.00
01018             100.00    -4200.00
01019             -80.00    -3800.00
01020             320.00    -4400.00
01021              80.00    -4400.00
01022            -160.00    -4800.00
01023             -60.00    -5000.00
01024              20.00    -4800.00
01025             100.00    -5400.00
01026              40.00    -5200.00
01027             100.00    -5400.00
01028             -20.00    -5800.00
01029              40.00    -5600.00
01030             180.00    -6000.00
01031              20.00    -5800.00
01032              20.00    -6400.00
01033             100.00    -6400.00
01034             100.00    -6200.00
01035              40.00    -6800.00
01036              20.00    -6800.00
01037             120.00    -7000.00
01038             100.00    -7000.00
01039              80.00    -7400.00
01040              80.00    -7200.00
01041              80.00    -7400.00
01042              80.00    -7600.00
01043             100.00    -7600.00
01044             100.00    -7800.00
01045              60.00    -7800.00
01046              60.00    -8200.00
01047             140.00    -8200.00
01048             140.00    -8400.00
01049             100.00    -8400.00
01050             140.00    -8600.00
01051             100.00    -8600.00
01052              60.00    -8600.00
01053             100.00    -8600.00
01054             140.00    -8800.00
01055             140.00    -9000.00
01056             100.00    -9000.00
01057             100.00    -9000.00
01058             100.00    -9000.00
01059             100.00    -9200.00
01060             160.00    -9400.00
01061             140.00    -9400.00
01062             100.00    -9400.00
01063             100.00    -9400.00
01064             100.00    -9600.00
01065             120.00    -9400.00
01066             140.00    -9600.00
01067             160.00    -9800.00
01068             160.00    -9800.00
01069             140.00    -9800.00
01070             140.00    -9800.00
01071             140.00    -9800.00
01072             120.00    -9800.00
01073             140.00   -10000.00
01074             160.00    -9800.00
01075             140.00    -9800.00
01076             100.00   -10000.00
01077             120.00    -9800.00
01078             140.00   -10000.00
01079             140.00    -9800.00
01080             160.00    -9800.00
01081             160.00   -10000.00
01082             160.00    -9800.00
01083             140.00    -9800.00
01084             140.00    -9800.00
01085             140.00    -9800.00
01086             140.00    -9800.00
01087             160.00    -9800.00
01088             180.00    -9800.00
01089             160.00    -9800.00
01090             160.00    -9600.00
01091             160.00    -9600.00
01092             140.00    -9800.00
01093             160.00    -9600.00
01094             160.00    -9600.00
01095             160.00    -9400.00
01096             160.00    -9400.00
01097             160.00    -9200.00
01098             140.00    -9400.00
01099             140.00    -9200.00
01100             180.00    -9200.00
01101             160.00    -9000.00
01102             160.00    -9000.00
01103             140.00    -9000.00
01104             160.00    -8800.00
01105             160.00    -8600.00
01106             140.00    -8600.00
01107             180.00    -8400.00
01108             160.00    -8400.00
01109             160.00    -8400.00
01110             140.00    -8200.00
01111             140.00    -8200.00
01112             140.00    -8200.00
01113             160.00    -7800.00
01114             160.00    -7800.00
01115             160.00    -7800.00
01116             140.00    -7600.00
01117             140.00    -7200.00
01118             140.00    -7200.00
01119             140.00    -7200.00
01120             160.00    -7000.00
01121             160.00    -7000.00
01122             140.00    -6800.00
01123             140.00    -6800.00
01124             120.00    -6600.00
01125             140.00    -6600.00
01126             140.00    -6200.00
01127             140.00    -6000.00
01128             140.00    -6000.00
01129             100.00    -5800.00
01130             100.00    -5800.00
01131             100.00    -5400.00
01132             100.00    -5400.00
01133             140.00    -5200.00
01134             140.00    -5000.00
01135             120.00    -5000.00
01136             100.00    -4800.00
01137             100.00    -4600.00
01138             100.00    -4400.00
01139             100.00    -4200.00
01140             100.00    -4000.00
01141             100.00    -3800.00
01142             100.00    -3800.00
01143              80.00    -3600.00
01144              80.00    -3400.00
01145              80.00    -3000.00
01146              80.00    -3000.00
01147             100.00    -2800.00
01148              80.00    -2600.00
01149              80.00    -2600.00
01150              60.00    -2200.00
01151              80.00    -2200.00
01152              80.00    -2000.00
01153              80.00    -2000.00
01154              60.00    -1600.00
01155              80.00    -1200.00
01156              60.00    -1200.00
01157              60.00     -800.00
01158              60.00     -800.00
01159              40.00     -600.00
01160              60.00     -400.00
01161              60.00     -200.00
01162              60.00     -200.00
01163              60.00      200.00
01164              60.00      400.00
01165             140.00      400.00
01166             160.00      600.00
01167             160.00      800.00
01168             140.00     1000.00
01169             100.00     1000.00
01170             100.00     1400.00
01171             160.00     1400.00
01172             700.00     1800.00
01173            1120.00     2000.00
01174             340.00     2200.00
01175            -800.00     2000.00
01176           -1440.00     2200.00
01177            -960.00     2800.00
01178             780.00     3000.00
01179             460.00     2800.00
01180            -260.00     3400.00
01181             460.00     3000.00
01182               0.00     3600.00
01183            -200.00     4200.00
01184             100.00     3400.00
01185            -100.00     4200.00
01186             420.00     4400.00
01187               0.00     3800.00
01188            -340.00     4600.00
01189             160.00     4600.00
01190            -220.00     4800.00
01191             -20.00     5400.00
01192             100.00     4600.00
01193             -20.00     5800.00
01194             -40.00     5400.00
01195            -160.00     5600.00
01196             140.00     6200.00
01197             -80.00     5800.00
01198            -100.00     6200.00
01199              20.00     6200.00
01200             -80.00     6600.00
01201             -60.00     6600.00
01202            -140.00     6600.00
01203             -20.00     7000.00
01204             -40.00     6600.00
01205             -60.00     7200.00
01206             -20.00     7200.00
01207             -80.00     7400.00
01208            -100.00     7800.00
01209            -100.00     7400.00
01210             -20.00     8000.00
01211            -100.00     7600.00
01212            -100.00     8000.00
01213            -100.00     8200.00
01214            -100.00     8200.00
01215             -60.00     8200.00
01216             -60.00     8200.00
01217            -100.00     8600.00
01218            -180.00     8600.00
01219            -100.00     9000.00
01220            -100.00     8800.00
01221             -60.00     9000.00
01222            -100.00     8800.00
01223            -140.00     9000.00
01224            -180.00     9200.00
01225            -120.00     9200.00
01226             -80.00     9400.00
01227            -100.00     9400.00
01228            -140.00     9200.00
01229            -140.00     9400.00
01230            -140.00     9600.00
01231            -140.00     9600.00
01232            -140.00     9800.00
01233            -100.00     9800.00
01234            -100.00     9800.00
01235            -100.00     9800.00
01236            -140.00    10000.00
01237            -160.00    10000.00
01238            -160.00     9800.00
01239            -120.00     9800.00
01240            -100.00    10000.00
01241            -160.00    10000.00
01242            -160.00    10000.00
01243            -160.00    10000.00
01244            -140.00    10000.00
01245            -140.00    10000.00
01246            -140.00    10000.00
01247            -140.00    10000.00
01248            -160.00    10000.00
01249            -160.00    10000.00
01250            -140.00    10000.00
01251            -160.00    10000.00
01252            -160.00     9800.00
01253            -140.00     9800.00
01254            -140.00     9800.00
01255            -140.00     9800.00
01256            -160.00     9800.00
01257            -160.00     9800.00
01258            -160.00     9800.00
01259            -160.00     9800.00
01260            -160.00     9600.00
01261            -160.00     9600.00
01262            -160.00     9400.00
01263            -160.00     9600.00
01264            -160.00     9400.00
01265            -160.00     9200.00
01266            -160.00     9200.00
01267            -140.00     9200.00
01268            -160.00     9200.00
01269            -160.00     9000.00
01270            -160.00     8800.00
01271            -160.00     8600.00
01272            -160.00     8600.00
01273            -140.00     8600.00
01274            -160.00     8600.00
01275            -160.00     8400.00
01276            -160.00     8400.00
01277            -160.00     8200.00
01278            -160.00     8200.00
01279            -160.00     8200.00
01280            -140.00     8200.00
01281            -140.00     7800.00
01282            -140.00     7600.00
01283            -160.00     7600.00
01284            -160.00     7400.00
01285            -160.00     7400.00
01286            -120.00     7000.00
01287            -140.00     7000.00
01288            -140.00     6800.00
01289            -160.00     6800.00
01290            -140.00     6800.00
01291            -140.00     6600.00
01292            -100.00     6600.00
01293            -100.00     6200.00
01294            -120.00     6200.00
01295            -140.00     6000.00
01296            -140.00     5800.00
01297            -140.00     5800.00
01298            -140.00     5600.00
01299            -120.00     5400.00
01300            -100.00     5200.00
01301            -100.00     5000.00
01302            -120.00     5000.00
01303            -120.00     5000.00
01304            -100.00     4600.00
01305            -140.00     4600.00
01306            -100.00     4200.00
01307             -80.00     4200.00
01308            -100.00     3800.00
01309            -100.00     3800.00
01310            -100.00     3600.00
01311            -100.00     3400.00
01312            -100.00     3200.00
01313            -100.00     3000.00
01314             -80.00     3000.00
01315             -80.00     2800.00
01316            -100.00     2600.00
01317            -100.00     2200.00
01318             -80.00     2000.00
01319             -80.00     2000.00
01320             -80.00     1800.00
01321             -80.00     1600.00
01322             -80.00     1400.00
01323             -80.00     1200.00
01324             -80.00     1000.00
01325             -80.00     1000.00
01326             -80.00      800.00
01327             -60.00      600.00
01328             -60.00      400.00
01329             -20.00      200.00
01330             -40.00        0.00
01331             -20.00     -200.00
01332              20.00     -400.00
01333              80.00     -600.00
01334              60.00     -600.00
01335              20.00    -1000.00
01336               0.00    -1000.00
01337              20.00    -1200.00
01338              60.00    -1200.00
01339             200.00    -1600.00
01340             720.00    -1800.00
01341             820.00    -2200.00
01342               0.00    -2400.00
01343            -740.00    -2600.00
01344           -1040.00    -2600.00
01345            -860.00    -2400.00
01346             360.00    -2800.00
01347             400.00    -3200.00
01348            -180.00    -2800.00
01349             340.00    -3600.00
01350             140.00    -3400.00
01351             -20.00    -3400.00
01352             220.00    -4200.00
01353            -100.00    -3800.00
01354             180.00    -4400.00
01355             240.00    -4400.00
01356            -160.00    -4600.00
01357            -100.00    -5000.00
01358               0.00    -4800.00
01359             100.00    -5200.00
01360              60.00    -5200.00
01361              80.00    -5400.00
01362              60.00    -5800.00
01363             -40.00    -5600.00
01364             160.00    -6000.00
01365              80.00    -6000.00
01366               0.00    -6200.00
01367              80.00    -6600.00
01368             100.00    -6200.00
01369              80.00    -6600.00
01370              20.00    -6800.00
01371              80.00    -6800.00
01372             160.00    -7000.00
01373              80.00    -7000.00
01374              80.00    -7400.00
01375              80.00    -7200.00
01376             100.00    -7600.00
01377             100.00    -7800.00
01378             100.00    -7800.00
01379              80.00    -7800.00
01380              60.00    -7800.00
01381             100.00    -8200.00
01382             140.00    -8200.00
01383             100.00    -8400.00
01384             140.00    -8600.00
01385             140.00    -8400.00
01386              80.00    -8600.00
01387             100.00    -8600.00
01388             140.00    -8800.00
01389             140.00    -9000.00
01390             100.00    -9000.00
01391             100.00    -9000.00
01392             100.00    -9200.00
01393             100.00    -9200.00
01394             140.00    -9200.00
01395             160.00    -9200.00
01396             140.00    -9400.00
01397             100.00    -9600.00
01398             100.00    -9400.00
01399             120.00    -9400.00
01400             100.00    -9600.00
01401             140.00    -9800.00
01402             160.00    -9600.00
01403             140.00    -9800.00
01404             140.00    -9800.00
01405             140.00    -9800.00
01406             140.00    -9800.00
01407             140.00    -9800.00
01408             160.00    -9800.00
01409             140.00   -10000.00
01410             120.00   -10000.00
01411             140.00    -9800.00
01412             140.00    -9800.00
01413             140.00   -10000.00
01414             140.00    -9800.00
01415             160.00    -9800.00
01416             140.00    -9800.00
01417             140.00    -9800.00
01418             160.00    -9800.00
01419             160.00   -10000.00
01420             140.00    -9800.00
01421             140.00    -9800.00
01422             180.00    -9800.00
01423             160.00    -9800.00
01424             140.00    -9800.00
01425             160.00    -9600.00
01426             160.00    -9400.00
01427             140.00    -9400.00
01428             160.00    -9400.00
01429             160.00    -9400.00
01430             160.00    -9400.00
01431             160.00    -9400.00
01432             140.00    -9200.00
01433             140.00    -9200.00
01434             160.00    -9200.00
01435             180.00    -9000.00
01436             160.00    -9200.00
01437             160.00    -9000.00
01438             140.00    -8800.00
01439             140.00    -8800.00
01440             160.00    -8800.00
01441             160.00    -8600.00
01442             160.00    -8400.00
01443             180.00    -8600.00
01444             140.00    -8400.00
01445             160.00    -8200.00
01446             140.00    -8000.00
01447             160.00    -8000.00
01448             160.00    -7800.00
01449             140.00    -7800.00
01450             140.00    -7600.00
01451             140.00    -7200.00
01452             140.00    -7400.00
01453             140.00    -7200.00
01454             140.00    -7000.00
01455             140.00    -7000.00
01456             100.00    -7000.00
01457             100.00    -6800.00
01458             120.00    -6600.00
01459             120.00    -6400.00
01460             140.00    -6200.00
01461             140.00    -6000.00
01462             160.00    -6200.00
01463             160.00    -5800.00
01464             100.00    -5800.00
01465             100.00    -5800.00
01466             100.00    -5400.00
01467             100.00    -5400.00
01468             100.00    -5000.00
01469             100.00    -5000.00
01470             100.00    -5000.00
01471             100.00    -4600.00
01472             100.00    -4400.00
01473             100.00    -4400.00
01474             100.00    -4200.00
01475             100.00    -4000.00
01476             100.00    -3600.00
01477              80.00    -3600.00
01478              80.00    -3400.00
01479              80.00    -3200.00
01480              60.00    -3000.00
01481              80.00    -2800.00
01482             100.00    -2800.00
01483             100.00    -2600.00
01484              80.00    -2200.00
01485              80.00    -2200.00
01486              80.00    -2200.00
01487              60.00    -1800.00
01488              60.00    -1800.00
01489              80.00    -1400.00
01490              80.00    -1400.00
01491              80.00    -1200.00
01492              80.00     -800.00
01493              60.00     -600.00
01494              60.00     -400.00
01495              60.00     -400.00
01496              60.00     -200.00
01497              60.00      200.00
01498              60.00      200.00
01499             100.00      400.00
01500             160.00      600.00
01501             160.00      600.00
01502             140.00     1000.00
01503             120.00     1000.00
01504             100.00     1200.00
01505             140.00     1400.00
01506             400.00     1600.00
01507            1060.00     2000.00
01508             740.00     2200.00
01509            -400.00     2200.00
01510           -1220.00     2000.00
01511           -1380.00     2600.00
01512             160.00     3000.00
01513             880.00     2800.00
01514            -220.00     3000.00
01515             220.00     3400.00
01516             320.00     3200.00
01517            -300.00     4200.00
01518             100.00     3600.00
01519             -80.00     3600.00
01520             180.00     4600.00
01521             300.00     3800.00
01522            -400.00     4400.00
01523              40.00     5000.00
01524             -20.00     4600.00
01525            -220.00     5200.00
01526             140.00     4800.00
01527               0.00     5400.00
01528               0.00     5800.00
01529            -160.00     5200.00
01530              20.00     6200.00
01531              80.00     5800.00
01532            -180.00     6000.00
01533               0.00     6200.00
01534             -20.00     6200.00
01535             -60.00     6600.00
01536            -100.00     6600.00
01537             -80.00     7000.00
01538               0.00     7000.00
01539             -60.00     6800.00
01540             -40.00     7200.00
01541            -100.00     7200.00
01542            -100.00     7600.00
01543            -100.00     7400.00
01544             -20.00     7800.00
01545             -80.00     7600.00
01546             -80.00     7800.00
01547            -100.00     8200.00
01548            -120.00     8200.00
01549             -60.00     8200.00
01550             -60.00     8400.00
01551             -60.00     8400.00
01552            -140.00     8400.00
01553            -120.00     8600.00
01554            -100.00     9000.00
01555            -100.00     8800.00
01556             -80.00     9000.00
01557            -100.00     9200.00
01558            -140.00     9000.00
01559            -140.00     9200.00
01560            -100.00     9200.00
01561            -100.00     9200.00
01562            -100.00     9200.00
01563            -140.00     9400.00
01564            -120.00     9600.00
01565            -140.00     9400.00
01566            -160.00     9400.00
01567            -120.00     9600.00
01568            -140.00     9800.00
01569            -100.00     9800.00
01570            -120.00     9800.00
01571            -140.00     9800.00
01572            -160.00    10000.00
01573            -140.00     9800.00
01574            -100.00     9800.00
01575            -140.00     9800.00
01576            -160.00    10000.00
01577            -140.00    10000.00
01578            -160.00    10000.00
01579            -160.00    10000.00
01580            -140.00     9800.00
01581            -140.00    10000.00
01582            -160.00    10000.00
01583            -140.00    10000.00
01584            -160.00    10000.00
01585            -160.00    10000.00
01586            -160.00     9800.00
01587            -160.00     9800.00
01588            -160.00    10000.00
01589            -160.00     9800.00
01590            -160.00     9800.00
01591            -160.00     9800.00
01592            -160.00     9800.00
01593            -160.00     9800.00
01594            -160.00     9800.00
01595            -160.00     9600.00
01596            -160.00     9600.00
01597            -140.00     9400.00
01598            -160.00     9400.00
01599            -160.00     9400.00
01600            -160.00     9400.00
01601            -140.00     9200.00
01602            -140.00     9200.00
01603            -160.00     9000.00
01604            -160.00     9000.00
01605            -160.00     9000.00
01606            -160.00     8800.00
01607            -160.00     8600.00
01608            -160.00     8600.00
01609            -140.00     8600.00
01610            -160.00     8400.00
01611            -160.00     8400.00
01612            -160.00     8400.00
01613            -160.00     8200.00
01614            -160.00     8000.00
01615            -140.00     7800.00
01616            -140.00     7800.00
01617            -160.00     7600.00
01618            -160.00     7600.00
01619            -160.00     7400.00
01620            -140.00     7400.00
01621            -140.00     7200.00
01622            -140.00     7000.00
01623            -160.00     6800.00
01624            -140.00     6800.00
01625            -160.00     6600.00
01626            -140.00     6600.00
01627            -140.00     6400.00
01628            -100.00     6200.00
01629            -120.00     6200.00
01630            -140.00     6000.00
01631            -140.00     5800.00
01632            -140.00     5800.00
01633            -120.00     5400.00
01634            -140.00     5200.00
01635            -120.00     5200.00
01636            -100.00     5000.00
01637            -100.00     4800.00
01638            -100.00     4600.00
01639            -100.00     4400.00
01640            -100.00     4400.00
01641            -100.00     4200.00
01642            -100.00     4000.00
01643            -100.00     3800.00
01644            -100.00     3600.00
01645            -100.00     3400.00
01646            -100.00     3400.00
01647             -80.00     3400.00
01648            -100.00     3000.00
01649            -100.00     3000.00
01650            -100.00     2600.00
01651            -120.00     2200.00
01652            -100.00     2200.00
01653             -80.00     2000.00
01654             -80.00     1800.00
01655             -60.00     1800.00
01656             -80.00     1400.00
01657             -80.00     1200.00
01658            -100.00     1000.00
01659             -80.00     1000.00
01660             -80.00      600.00
01661             -60.00      600.00
01662             -60.00      400.00
01663             -60.00      200.00
01664             -60.00        0.00
01665             -40.00     -200.00
01666               0.00     -200.00
01667              80.00     -600.00
01668              80.00     -800.00
01669              60.00     -600.00
01670              20.00    -1000.00
01671               0.00    -1200.00
01672               0.00    -1200.00
01673             100.00    -1400.00
01674             500.00    -1600.00
01675             900.00    -2000.00
01676             380.00    -2200.00
01677            -500.00    -2200.00
01678            -980.00    -2600.00
01679           -1080.00    -2200.00
01680            -140.00    -2600.00
01681             640.00    -3200.00
01682             -80.00    -2800.00
01683             140.00    -3400.00
01684             320.00    -3800.00
01685            -100.00    -3200.00
01686             200.00    -4000.00
01687               0.00    -4200.00
01688               0.00    -3800.00
01689             340.00    -4600.00
01690             -20.00    -4400.00
01691            -140.00    -5000.00
01692             -20.00    -4600.00
01693              60.00    -4800.00
01694              80.00    -5400.00
01695              60.00    -5000.00
01696              80.00    -5400.00
01697             -20.00    -5600.00
01698              80.00    -5800.00
01699             160.00    -6200.00
01700               0.00    -6000.00
01701              60.00    -6200.00
01702             100.00    -6400.00
01703              80.00    -6600.00
01704              20.00    -6800.00
01705              40.00    -6800.00
01706             140.00    -6800.00
01707             100.00    -7000.00
01708              80.00    -7400.00
01709              80.00    -7200.00
01710              80.00    -7400.00
01711             100.00    -7600.00
01712             100.00    -7600.00
01713              80.00    -7800.00
01714              60.00    -8000.00
01715              80.00    -8000.00
01716             120.00    -8200.00
01717             100.00    -8400.00
01718             100.00    -8400.00
01719             120.00    -8400.00
01720              80.00    -8600.00
01721              80.00    -8600.00
01722             100.00    -8800.00
01723             140.00    -8800.00
01724             100.00    -9200.00
01725              80.00    -9000.00
01726             100.00    -9000.00
01727              80.00    -9200.00
01728             140.00    -9200.00
01729             140.00    -9200.00
01730             140.00    -9400.00
01731             100.00    -9600.00
01732             100.00    -9400.00
01733             100.00    -9400.00
01734             100.00    -9600.00
01735             140.00    -9600.00
01736             160.00    -9800.00
01737             140.00    -9800.00
01738             140.00    -9800.00
01739             140.00    -9800.00
01740             140.00    -9800.00
01741             140.00    -9800.00
01742             160.00    -9800.00
01743             160.00    -9800.00
01744             140.00    -9800.00
01745             140.00    -9800.00
01746             140.00    -9800.00
01747             140.00   -10000.00
01748             140.00   -10000.00
01749             160.00   -10000.00
01750             160.00    -9800.00
01751             160.00   -10000.00
01752             160.00   -10000.00
01753             140.00    -9800.00
01754             140.00    -9800.00
01755             140.00    -9800.00
01756             160.00    -9800.00
01757             180.00    -9800.00
01758             160.00    -9800.00
01759             160.00    -9800.00
01760             140.00    -9600.00
01761             140.00    -9400.00
01762             160.00    -9600.00
01763             180.00    -9400.00
01764             160.00    -9400.00
01765             140.00    -9400.00
01766             160.00    -9400.00
01767             140.00    -9200.00
01768             160.00    -9000.00
01769             180.00    -9200.00
01770             180.00    -9000.00
01771             160.00    -9000.00
01772             140.00    -9000.00
01773             140.00    -8600.00
01774             160.00    -8600.00
01775             160.00    -8600.00
01776             160.00    -8600.00
01777             160.00    -8400.00
01778             140.00    -8400.00
01779             140.00    -8200.00
01780             160.00    -8200.00
01781             140.00    -8200.00
01782             160.00    -8000.00
01783             160.00    -7800.00
01784             140.00    -7800.00
01785             140.00    -7600.00
01786             140.00    -7600.00
01787             140.00    -7200.00
01788             140.00    -7200.00
01789             140.00    -7000.00
01790             140.00    -7000.00
01791             140.00    -6800.00
01792             140.00    -6800.00
01793             140.00    -6600.00
01794             140.00    -6400.00
01795             140.00    -6200.00
01796             140.00    -6200.00
01797             140.00    -6000.00
01798             100.00    -5800.00
01799             100.00    -5800.00
01800             100.00    -5600.00
01801             100.00    -5400.00
01802             140.00    -5200.00
01803             140.00    -5000.00
01804             120.00    -5000.00
01805             100.00    -4600.00
01806             100.00    -4600.00
01807             100.00    -4400.00
01808             100.00    -4200.00
01809             100.00    -4200.00
01810             100.00    -3800.00
01811              80.00    -3600.00
01812              80.00    -3600.00
01813              80.00    -3400.00
01814              80.00    -3000.00
01815             100.00    -3000.00
01816             100.00    -2800.00
01817              80.00    -2600.00
01818              80.00    -2400.00
01819              80.00    -2200.00
01820              80.00    -2000.00
01821              80.00    -1800.00
01822              80.00    -1800.00
01823              80.00    -1400.00
01824              80.00    -1400.00
01825              60.00    -1200.00
01826              60.00    -1000.00
01827              80.00     -600.00
01828              60.00     -600.00
01829              60.00     -400.00
01830              60.00     -200.00
01831              60.00     -200.00
01832              60.00      200.00
01833              60.00      400.00
01834             140.00      400.00
01835             160.00      600.00
01836             160.00      800.00
01837             140.00     1000.00
01838             100.00     1200.00
01839             100.00     1400.00
01840             220.00     1400.00
01841             860.00     1800.00
01842            1040.00     2000.00
01843              80.00     2200.00
01844            -980.00     2000.00
01845           -1500.00     2200.00
01846            -620.00     3000.00
01847             960.00     3000.00
01848             160.00     2800.00
01849            -160.00     3400.00
01850             480.00     3000.00
01851            -160.00     3600.00
01852            -100.00     4200.00
01853              60.00     3400.00
01854             -60.00     4200.00
01855             460.00     4400.00
01856            -220.00     3800.00
01857            -220.00     5200.00
01858             140.00     4400.00
01859            -260.00     5000.00
01860              80.00     5200.00
01861              60.00     5200.00
01862               0.00     5800.00
01863            -100.00     5200.00
01864            -100.00     5800.00
01865             140.00     6000.00
01866            -140.00     5600.00
01867             -60.00     6200.00
01868               0.00     6200.00
01869             -80.00     6600.00
01870             -80.00     6600.00
01871            -120.00     6600.00
01872               0.00     7200.00
01873             -20.00     6800.00
01874             -20.00     7200.00
01875             -80.00     7200.00
01876             -80.00     7400.00
01877            -100.00     7600.00
01878             -60.00     7600.00
01879             -20.00     7800.00
01880            -120.00     7800.00
01881             -80.00     8200.00
01882            -100.00     8200.00
01883             -80.00     8200.00
01884             -60.00     8200.00
01885             -60.00     8400.00
01886            -100.00     8600.00
01887            -160.00     8400.00
01888             -80.00     8600.00
01889            -100.00     8800.00
01890             -80.00     9000.00
01891            -100.00     9000.00
01892            -140.00     9200.00
01893            -140.00     9200.00
01894            -100.00     9000.00
01895             -80.00     9400.00
01896            -100.00     9400.00
01897            -100.00     9400.00
01898            -120.00     9600.00
01899            -100.00     9400.00
01900            -140.00     9600.00
01901            -120.00     9600.00
01902            -100.00     9600.00
01903            -100.00     9800.00
01904            -100.00     9800.00
01905            -140.00     9800.00
01906            -160.00     9800.00
01907            -160.00     9800.00
01908            -120.00     9800.00
01909            -140.00    10000.00
01910            -160.00    10000.00
01911            -160.00    10000.00
01912            -140.00     9800.00
01913            -160.00    10000.00
01914            -160.00     9800.00
01915            -160.00    10000.00
01916            -140.00     9800.00
01917            -160.00     9800.00
01918            -160.00    10000.00
01919            -160.00    10000.00
01920            -160.00     9800.00
01921            -160.00     9800.00
01922            -140.00    10000.00
01923            -140.00     9800.00
01924            -160.00     9800.00
01925            -160.00    10000.00
01926            -160.00     9800.00
01927            -160.00     9800.00
01928            -160.00     9800.00
01929            -160.00     9400.00
01930            -160.00     9600.00
01931            -160.00     9400.00
01932            -160.00     9400.00
01933            -160.00     9400.00
01934            -160.00     9200.00
01935            -160.00     9200.00
01936            -140.00     9200.00
01937            -140.00     9200.00
01938            -160.00     9000.00
01939            -160.00     9000.00
01940            -160.00     8800.00
01941            -160.00     8600.00
01942            -140.00     8600.00
01943            -120.00     8600.00
01944            -140.00     8600.00
01945            -160.00     8400.00
01946            -160.00     8200.00
01947            -160.00     8200.00
01948            -160.00     8200.00
01949            -140.00     8200.00
01950            -140.00     7800.00
01951            -140.00     7800.00
01952            -160.00     7600.00
01953            -160.00     7600.00
01954            -160.00     7400.00
01955            -120.00     7400.00
01956            -100.00     7000.00
01957            -140.00     7000.00
01958            -160.00     6600.00
01959            -160.00     6800.00
01960            -140.00     6600.00
01961            -140.00     6400.00
01962            -100.00     6200.00
01963            -100.00     6000.00
01964            -100.00     6000.00
01965            -140.00     5800.00
01966            -160.00     5800.00
01967            -140.00     5600.00
01968            -120.00     5400.00
01969            -100.00     5200.00
01970            -120.00     5200.00
01971            -160.00     5000.00
01972            -140.00     4600.00
01973             -80.00     4600.00
01974             -80.00     4400.00
01975            -120.00     4200.00
01976            -140.00     4000.00
01977            -100.00     3800.00
01978            -140.00     3800.00
01979            -100.00     3600.00
01980             -80.00     3400.00
01981            -100.00     3200.00
01982            -100.00     3000.00
01983            -100.00     2800.00
01984             -80.00     2800.00
01985            -100.00     2600.00
01986            -100.00     2200.00
01987             -80.00     2200.00
01988             -80.00     1800.00
01989             -80.00     1800.00
01990            -100.00     1400.00
01991             -60.00     1400.00
01992             -60.00     1200.00
01993             -80.00     1000.00
01994             -80.00      800.00
01995             -80.00      600.00
01996             -60.00      400.00
01997             -60.00      400.00
01998             -60.00      200.00
01999             -20.00        0.00
02000             -20.00     -400.00
02001              60.00     -400.00
02002             100.00     -600.00
02003              80.00     -800.00
02004               0.00     -800.00
02005               0.00    -1000.00
02006              20.00    -1200.00
02007              80.00    -1400.00
02008             300.00    -1600.00
02009             800.00    -1800.00
02010             700.00    -2200.00
02011            -180.00    -2200.00
02012            -860.00    -2600.00
02013           -1060.00    -2600.00
02014            -640.00    -2400.00
02015             580.00    -2800.00
02016             220.00    -3000.00
02017            -100.00    -3000.00
02018             400.00    -3600.00
02019              20.00    -3400.00
02020              60.00    -3600.00
02021             180.00    -4200.00
02022            -100.00    -4000.00
02023             260.00    -4400.00
02024             160.00    -4400.00
02025            -180.00    -4600.00
02026             -60.00    -5000.00
02027               0.00    -4600.00
02028             140.00    -5200.00
02029              40.00    -5200.00
02030              80.00    -5400.00
02031               0.00    -5800.00
02032               0.00    -5600.00
02033             180.00    -6000.00
02034              60.00    -6000.00
02035               0.00    -6200.00
02036             100.00    -6600.00
02037             100.00    -6200.00
02038              60.00    -6600.00
02039               0.00    -6600.00
02040             100.00    -7000.00
02041             140.00    -7000.00
02042              80.00    -7200.00
02043              60.00    -7400.00
02044              80.00    -7200.00
02045              80.00    -7600.00
02046              80.00    -7800.00
02047             100.00    -7600.00
02048              60.00    -8000.00
02049              60.00    -8000.00
02050             100.00    -8200.00
02051             140.00    -8200.00
02052              80.00    -8400.00
02053             100.00    -8400.00
02054             100.00    -8600.00
02055              80.00    -8600.00
02056             100.00    -8800.00
02057             120.00    -9000.00
02058             140.00    -9000.00
02059             100.00    -9000.00
02060              80.00    -9000.00
02061              80.00    -9200.00
02062             100.00    -9200.00
02063             140.00    -9200.00
02064             140.00    -9200.00
02065             140.00    -9400.00
02066             120.00    -9400.00
02067             120.00    -9400.00
02068             120.00    -9600.00
02069             120.00    -9600.00
02070             160.00    -9400.00
02071             140.00    -9800.00
02072             140.00    -9800.00
02073             120.00    -9800.00
02074             140.00    -9800.00
02075             140.00    -9800.00
02076             160.00    -9800.00
02077             200.00    -9800.00
02078             180.00    -9800.00
02079             160.00    -9800.00
02080             140.00    -9800.00
02081             100.00    -9800.00
02082              80.00   -10000.00
02083              80.00    -9800.00
02084             140.00   -10000.00
02085             160.00    -9800.00
02086             220.00    -9800.00
02087             240.00    -9800.00
02088             220.00    -9800.00
02089             180.00    -9800.00
02090             140.00    -9800.00
02091             100.00    -9800.00
02092              80.00    -9800.00
02093              80.00    -9800.00
02094             120.00    -9600.00
02095             180.00    -9600.00
02096             220.00    -9600.00
02097             220.00    -9400.00
02098             180.00    -9400.00
02099             180.00    -9400.00
02100             160.00    -9400.00
02101             120.00    -9200.00
02102             100.00    -9200.00
02103             160.00    -9000.00
02104             140.00    -9200.00
02105             160.00    -9000.00
02106             160.00    -9000.00
02107             160.00    -8800.00
02108             160.00    -9000.00
02109             160.00    -8600.00
02110             160.00    -8600.00
02111             160.00    -8600.00
02112             120.00    -8400.00
02113             100.00    -8400.00
02114             140.00    -8200.00
02115             140.00    -8200.00
02116             160.00    -8000.00
02117             180.00    -7800.00
02118             180.00    -7800.00
02119             160.00    -7600.00
02120             140.00    -7400.00
02121             100.00    -7200.00
02122             100.00    -7200.00
02123             100.00    -7000.00
02124             100.00    -7000.00
02125             140.00    -6800.00
02126             140.00    -6600.00
02127             160.00    -6600.00
02128             140.00    -6400.00
02129             140.00    -6200.00
02130             140.00    -6200.00
02131             100.00    -6000.00
02132             100.00    -6000.00
02133             100.00    -5800.00
02134             100.00    -5400.00
02135             100.00    -5200.00
02136             140.00    -5400.00
02137             140.00    -5000.00
02138             120.00    -5000.00
02139             100.00    -4800.00
02140              80.00    -4600.00
02141             100.00    -4600.00
02142             100.00    -4200.00
02143             120.00    -4000.00
02144             100.00    -3800.00
02145             100.00    -3800.00
02146             100.00    -3600.00
02147              80.00    -3400.00
02148              80.00    -3000.00
02149             100.00    -3000.00
02150              80.00    -2800.00
02151             100.00    -2800.00
02152              80.00    -2600.00
02153              80.00    -2200.00
02154              80.00    -2200.00
02155              60.00    -2000.00
02156              80.00    -1800.00
02157              80.00    -1600.00
02158              60.00    -1400.00
02159              80.00    -1200.00
02160              60.00    -1000.00
02161              60.00     -600.00
02162              60.00     -600.00
02163              60.00     -400.00
02164              60.00     -200.00
02165              60.00     -200.00
02166              60.00      200.00
02167              60.00      200.00
02168             120.00      400.00
02169             160.00      600.00
02170             180.00      800.00
02171             140.00     1000.00
02172             100.00     1000.00
02173              80.00     1200.00
02174             140.00     1400.00
02175             540.00     1800.00
02176            1120.00     2000.00
02177             540.00     2000.00
02178            -640.00     2200.00
02179           -1380.00     2200.00
02180           -1200.00     2600.00
02181             520.00     3000.00
02182             700.00     2800.00
02183            -280.00     3200.00
02184             380.00     3200.00
02185             160.00     3000.00
02186            -260.00     4200.00
02187             100.00     3400.00
02188            -140.00     3800.00
02189             320.00     4600.00
02190             160.00     3800.00
02191            -400.00     4600.00
02192             100.00     5000.00
02193            -100.00     4400.00
02194            -100.00     5200.00
02195             120.00     4600.00
02196             -20.00     5600.00
02197               0.00     5400.00
02198            -160.00     5400.00
02199             100.00     6200.00
02200               0.00     5600.00
02201            -160.00     6200.00
02202              60.00     6200.00
02203             -60.00     6200.00
02204             -20.00     6600.00
02205            -140.00     6400.00
02206             -20.00     7000.00
02207             -20.00     6800.00
02208             -40.00     7000.00
02209             -20.00     7400.00
02210            -100.00     7400.00
02211             -80.00     7600.00
02212             -80.00     7600.00
02213             -20.00     7600.00
02214            -100.00     7800.00
02215             -80.00     7800.00
02216            -100.00     8200.00
02217            -100.00     8200.00
02218             -60.00     8400.00
02219             -60.00     8400.00
02220             -80.00     8600.00
02221            -160.00     8400.00
02222            -100.00     8600.00
02223             -80.00     8600.00
02224             -80.00     9000.00
02225             -80.00     9000.00
02226            -100.00     9000.00
02227            -140.00     9200.00
02228            -140.00     9000.00
02229             -80.00     9200.00
02230            -100.00     9400.00
02231            -100.00     9400.00
02232            -120.00     9400.00
02233            -100.00     9600.00
02234            -140.00     9400.00
02235            -140.00     9600.00
02236            -120.00     9400.00
02237            -140.00     9600.00
02238            -120.00     9800.00
02239            -140.00     9800.00
02240            -160.00     9800.00
02241            -160.00     9800.00
02242            -140.00    10000.00
02243            -120.00    10000.00
02244            -140.00     9800.00
02245            -160.00    10000.00
02246            -140.00    10000.00
02247            -160.00    10000.00
02248            -140.00    10000.00
02249            -140.00    10000.00
02250            -140.00    10000.00
02251            -160.00    10000.00
02252            -160.00     9800.00
02253            -140.00     9800.00
02254            -160.00     9800.00
02255            -180.00    10000.00
02256            -160.00    10000.00
02257            -160.00    10000.00
02258            -140.00     9800.00
02259            -140.00     9800.00
02260            -160.00     9800.00
02261            -180.00     9800.00
02262            -160.00     9800.00
02263            -120.00     9600.00
02264            -140.00     9600.00
02265            -160.00     9600.00
02266            -160.00     9400.00
02267            -160.00     9400.00
02268            -160.00     9400.00
02269            -140.00     9200.00
02270            -120.00     9400.00
02271            -160.00     9200.00
02272            -160.00     9000.00
02273            -160.00     9000.00
02274            -160.00     9000.00
02275            -140.00     8600.00
02276            -140.00     8600.00
02277            -100.00     8600.00
02278            -160.00     8400.00
02279            -160.00     8400.00
02280            -180.00     8400.00
02281            -140.00     8400.00
02282            -120.00     8200.00
02283            -140.00     8000.00
02284            -140.00     7800.00
02285            -140.00     7800.00
02286            -140.00     7600.00
02287            -160.00     7600.00
02288            -160.00     7600.00
02289            -160.00     7200.00
02290            -140.00     7200.00
02291            -140.00     7000.00
02292            -100.00     6800.00
02293            -140.00     6800.00
02294            -160.00     6600.00
02295            -160.00     6600.00
02296            -140.00     6200.00
02297            -100.00     6200.00
02298            -100.00     6000.00
02299            -100.00     6000.00
02300            -140.00     5800.00
02301            -160.00     5600.00
02302            -140.00     5400.00
02303            -100.00     5400.00
02304            -100.00     5200.00
02305            -100.00     5000.00
02306            -140.00     4800.00
02307            -140.00     4600.00
02308            -120.00     4400.00
02309            -140.00     4200.00
02310            -100.00     4200.00
02311            -100.00     4000.00
02312            -100.00     3800.00
02313            -100.00     3600.00
02314            -100.00     3400.00
02315            -100.00     3200.00
02316            -100.00     3000.00
02317            -100.00     3000.00
02318             -80.00     2800.00
02319            -100.00     2600.00
02320            -100.00     2200.00
02321            -100.00     2200.00
02322             -60.00     2000.00
02323             -80.00     1800.00
02324             -80.00     1800.00
02325             -80.00     1400.00
02326             -80.00     1200.00
02327             -80.00     1200.00
02328             -80.00     1000.00
02329             -80.00      800.00
02330             -60.00      400.00
02331             -40.00      400.00
02332             -60.00      200.00
02333             -60.00        0.00
02334             -60.00     -200.00
02335               0.00     -400.00
02336              80.00     -600.00
02337             100.00     -600.00
02338              60.00     -800.00
02339              20.00    -1000.00
02340               0.00    -1200.00
02341               0.00    -1200.00
02342             160.00    -1400.00
02343             640.00    -1600.00
02344             880.00    -2200.00
02345             220.00    -2200.00
02346            -660.00    -2600.00
02347           -1020.00    -2600.00
02348            -980.00    -2400.00
02349             160.00    -2600.00
02350             560.00    -3200.00
02351            -160.00    -3000.00
02352             240.00    -3400.00
02353             240.00    -3600.00
02354             -80.00    -3400.00
02355             240.00    -4200.00
02356             -60.00    -4200.00
02357             100.00    -4200.00
02358             300.00    -4600.00
02359            -100.00    -4600.00
02360            -100.00    -5000.00
02361             -20.00    -4800.00
02362             100.00    -4800.00
02363              60.00    -5400.00
02364              60.00    -5200.00
02365              80.00    -5800.00
02366             -60.00    -5600.00
02367             140.00    -5800.00
02368             140.00    -6000.00
02369               0.00    -6000.00
02370              80.00    -6400.00
02371             100.00    -6200.00
02372              60.00    -6600.00
02373               0.00    -6800.00
02374              20.00    -6800.00
02375             140.00    -7000.00
02376              80.00    -7000.00
02377              60.00    -7400.00
02378              80.00    -7200.00
02379              80.00    -7400.00
02380              80.00    -7600.00
02381             100.00    -7800.00
02382              80.00    -7800.00
02383              20.00    -8000.00
02384              80.00    -8200.00
02385             140.00    -8200.00
02386             100.00    -8200.00
02387             100.00    -8600.00
02388             140.00    -8400.00
02389              80.00    -8600.00
02390              80.00    -8600.00
02391             140.00    -8800.00
02392             140.00    -8800.00
02393             120.00    -9000.00
02394             100.00    -9000.00
02395             100.00    -9200.00
02396             100.00    -9200.00
02397             140.00    -9200.00
02398             160.00    -9200.00
02399             140.00    -9200.00
02400             100.00    -9400.00
02401             100.00    -9400.00
02402             120.00    -9400.00
02403             120.00    -9600.00
02404             140.00    -9600.00
02405             160.00    -9800.00
02406             160.00    -9800.00
02407             140.00    -9800.00
02408             160.00    -9800.00
02409             140.00    -9800.00
02410             140.00    -9800.00
02411             160.00    -9800.00
02412             160.00    -9800.00
02413             140.00    -9800.00
02414             140.00    -9800.00
02415             140.00    -9800.00
02416             140.00   -10000.00
02417             160.00    -9800.00
02418             160.00    -9800.00
02419             160.00   -10000.00
02420             160.00   -10000.00
02421             160.00   -10000.00
02422             140.00    -9800.00
02423             160.00    -9800.00
02424             160.00    -9800.00
02425             160.00    -9800.00
02426             160.00    -9800.00
02427             160.00    -9800.00
02428             160.00    -9600.00
02429             160.00    -9600.00
02430             160.00    -9600.00
02431             160.00    -9600.00
02432             160.00    -9400.00
02433             160.00    -9400.00
02434             160.00    -9400.00
02435             140.00    -9400.00
02436             140.00    -9200.00
02437             160.00    -9200.00
02438             160.00    -9200.00
02439             160.00    -9000.00
02440             160.00    -9000.00
02441             140.00    -9000.00
02442             140.00    -8800.00
02443             140.00    -8600.00
02444             160.00    -8600.00
02445             160.00    -8600.00
02446             160.00    -8400.00
02447             140.00    -8200.00
02448             160.00    -8400.00
02449             160.00    -8200.00
02450             140.00    -8000.00
02451             160.00    -7800.00
02452             160.00    -7800.00
02453             140.00    -7600.00
02454             140.00    -7600.00
02455             140.00    -7400.00
02456             120.00    -7200.00
02457             140.00    -7000.00
02458             160.00    -7000.00
02459             140.00    -6800.00
02460             140.00    -6800.00
02461             140.00    -6600.00
02462             140.00    -6600.00
02463             100.00    -6200.00
02464             140.00    -6200.00
02465             160.00    -6000.00
02466             140.00    -6000.00
02467             140.00    -5800.00
02468             140.00    -5600.00
02469             140.00    -5400.00
02470             100.00    -5200.00
02471             120.00    -5200.00
02472             140.00    -5000.00
02473             100.00    -4800.00
02474             120.00    -4600.00
02475             100.00    -4400.00
02476             100.00    -4400.00
02477             100.00    -4200.00
02478             140.00    -3800.00
02479             120.00    -3800.00
02480             100.00    -3600.00
02481              80.00    -3400.00
02482              80.00    -3400.00
02483              80.00    -3000.00
02484             100.00    -2800.00
02485             140.00    -2800.00
02486              80.00    -2600.00
02487              60.00    -2200.00
02488              80.00    -2200.00
02489              80.00    -2200.00
02490              80.00    -1800.00
02491             100.00    -1800.00
02492              80.00    -1400.00
02493              60.00    -1200.00
02494              60.00    -1000.00
02495              60.00     -800.00
02496              60.00     -600.00
02497              80.00     -600.00
02498              60.00     -200.00
02499              60.00     -200.00
02500              20.00      200.00
02501              40.00      200.00
02502              60.00      600.00
02503             140.00      600.00
02504             180.00      600.00
02505             140.00      800.00
02506             100.00     1000.00
02507              80.00     1200.00
02508              80.00     1400.00
02509             300.00     1800.00
02510             960.00     2000.00
02511             900.00     2200.00
02512            -180.00     2200.00
02513           -1120.00     2200.00
02514           -1460.00     2400.00
02515            -220.00     3000.00
02516             960.00     3000.00
02517             -80.00     2800.00
02518              40.00     3400.00
02519             420.00     3000.00
02520            -260.00     3800.00
02521              20.00     4000.00
02522             -20.00     3400.00
02523              60.00     4600.00
02524             420.00     4200.00
02525            -320.00     4200.00
02526            -100.00     5000.00
02527              60.00     4600.00
02528            -260.00     5000.00
02529             140.00     5200.00
02530               0.00     5200.00
02531               0.00     5800.00
02532            -140.00     5400.00
02533             -20.00     6000.00
02534             140.00     5800.00
02535            -180.00     5800.00
02536               0.00     6200.00
02537             -20.00     6200.00
02538             -60.00     6600.00
02539            -100.00     6400.00
02540            -100.00     6800.00
02541               0.00     7000.00
02542             -60.00     6800.00
02543             -20.00     7400.00
02544             -80.00     7200.00
02545             -80.00     7600.00
02546            -100.00     7400.00
02547             -20.00     7800.00
02548             -60.00     7800.00
02549            -100.00     7800.00
02550             -80.00     8200.00
02551            -140.00     8200.00
02552             -80.00     8200.00
02553             -80.00     8400.00
02554             -60.00     8400.00
02555            -120.00     8400.00
02556            -140.00     8600.00
02557             -80.00     8800.00
02558             -80.00     8600.00
02559             -80.00     9000.00
02560            -100.00     9000.00
02561            -140.00     9200.00
02562            -160.00     9200.00
02563             -80.00     9200.00
02564            -100.00     9400.00
02565            -120.00     9400.00
02566            -140.00     9400.00
02567            -140.00     9400.00
02568            -160.00     9400.00
02569            -140.00     9600.00
02570            -140.00     9600.00
02571            -100.00     9600.00
02572            -140.00     9800.00
02573            -140.00     9800.00
02574            -140.00     9800.00
02575            -160.00     9800.00
02576            -160.00     9800.00
02577            -120.00    10000.00
02578            -140.00     9800.00
02579            -160.00     9800.00
02580            -140.00     9800.00
02581            -140.00    10000.00
02582            -160.00    10000.00
02583            -160.00     9800.00
02584            -160.00    10000.00
02585            -160.00    10000.00
02586            -160.00    10000.00
02587            -140.00    10000.00
02588            -160.00    10000.00
02589            -160.00    10000.00
02590            -160.00    10000.00
02591            -160.00     9800.00
02592            -140.00     9800.00
02593            -160.00     9800.00
02594            -160.00     9800.00
02595            -160.00     9800.00
02596            -160.00     9800.00
02597            -160.00     9800.00
02598            -140.00     9800.00
02599            -140.00     9400.00
02600            -160.00     9400.00
02601            -160.00     9400.00
02602            -160.00     9400.00
02603            -160.00     9400.00
02604            -160.00     9200.00
02605            -140.00     9200.00
02606            -140.00     9200.00
02607            -160.00     9000.00
02608            -160.00     8800.00
02609            -160.00     8800.00
02610            -160.00     8600.00
02611            -140.00     8600.00
02612            -140.00     8600.00
02613            -140.00     8400.00
02614            -160.00     8400.00
02615            -160.00     8200.00
02616            -140.00     8200.00
02617            -140.00     8200.00
02618            -140.00     7800.00
02619            -140.00     8000.00
02620            -140.00     7600.00
02621            -160.00     7600.00
02622            -160.00     7400.00
02623            -140.00     7400.00
02624            -100.00     7400.00
02625            -140.00     7000.00
02626            -160.00     6800.00
02627            -140.00     6800.00
02628            -160.00     6800.00
02629            -140.00     6600.00
02630            -140.00     6200.00
02631            -140.00     6200.00
02632            -140.00     6200.00
02633            -140.00     6000.00
02634            -140.00     5800.00
02635            -140.00     5800.00
02636            -140.00     5400.00
02637            -100.00     5400.00
02638            -140.00     5200.00
02639            -100.00     5000.00
02640            -100.00     5000.00
02641            -140.00     4600.00
02642            -100.00     4600.00
02643            -100.00     4600.00
02644            -100.00     4200.00
02645            -100.00     4000.00
02646            -100.00     3800.00
02647            -100.00     3800.00
02648            -100.00     3600.00
02649            -100.00     3400.00
02650            -100.00     3200.00
02651            -100.00     2800.00
02652            -100.00     2800.00
02653            -100.00     2600.00
02654            -100.00     2600.00
02655            -100.00     2200.00
02656             -80.00     2000.00
02657             -80.00     1800.00
02658             -60.00     1800.00
02659             -60.00     1600.00
02660             -80.00     1400.00
02661             -80.00     1200.00
02662             -80.00     1000.00
02663             -80.00     1000.00
02664             -60.00      600.00
02665             -60.00      600.00
02666             -60.00      400.00
02667             -20.00      200.00
02668             -40.00     -200.00
02669               0.00     -200.00
02670              80.00     -400.00
02671             100.00     -600.00
02672              80.00     -800.00
02673              20.00    -1000.00
02674              20.00    -1200.00
02675              20.00    -1200.00
02676              80.00    -1400.00
02677             400.00    -1400.00
02678             900.00    -2000.00
02679             540.00    -2400.00
02680            -380.00    -2200.00
02681            -900.00    -2600.00
02682           -1100.00    -2400.00
02683            -400.00    -2200.00
02684             640.00    -3200.00
02685              20.00    -3000.00
02686               0.00    -3000.00
02687             400.00    -3600.00
02688             -80.00    -3200.00
02689             160.00    -3600.00
02690              80.00    -4200.00
02691             -60.00    -3800.00
02692             320.00    -4400.00
02693              60.00    -4400.00
02694            -160.00    -4600.00
02695             -60.00    -5000.00
02696              20.00    -4600.00
02697             100.00    -5200.00
02698              20.00    -5200.00
02699              80.00    -5600.00
02700             -20.00    -5800.00
02701              40.00    -5800.00
02702             180.00    -6000.00
02703               0.00    -5800.00
02704              20.00    -6200.00
02705             100.00    -6600.00
02706              80.00    -6400.00
02707              40.00    -6800.00
02708               0.00    -6800.00
02709             100.00    -7000.00
02710             120.00    -7000.00
02711              80.00    -7200.00
02712              80.00    -7400.00
02713              80.00    -7400.00
02714              80.00    -7600.00
02715             100.00    -7800.00
02716              80.00    -7800.00
02717              60.00    -7800.00
02718              60.00    -8200.00
02719             100.00    -8200.00
02720             100.00    -8200.00
02721              80.00    -8400.00
02722             100.00    -8400.00
02723             120.00    -8600.00
02724              80.00    -8600.00
02725             100.00    -8600.00
02726             140.00    -8600.00
02727             140.00    -9000.00
02728             100.00    -9000.00
02729             100.00    -9000.00
02730             100.00    -9200.00
02731             100.00    -9200.00
02732             160.00    -9200.00
02733             140.00    -9200.00
02734             120.00    -9400.00
02735             100.00    -9400.00
02736             100.00    -9400.00
02737             120.00    -9400.00
02738             140.00    -9600.00
02739             160.00    -9400.00
02740             160.00    -9600.00
02741             140.00    -9800.00
02742             140.00    -9800.00
02743             140.00    -9800.00
02744             140.00    -9800.00
02745             160.00    -9800.00
02746             160.00    -9800.00
02747             160.00    -9800.00
02748             140.00   -10000.00
02749             140.00    -9800.00
02750             140.00   -10000.00
02751             140.00   -10000.00
02752             160.00   -10000.00
02753             160.00    -9800.00
02754             160.00    -9800.00
02755             160.00    -9800.00
02756             140.00    -9800.00
02757             140.00    -9800.00
02758             160.00    -9800.00
02759             160.00    -9800.00
02760             160.00    -9800.00
02761             160.00    -9800.00
02762             140.00    -9600.00
02763             160.00    -9800.00
02764             140.00    -9600.00
02765             160.00    -9600.00
02766             160.00    -9400.00
02767             160.00    -9600.00
02768             140.00    -9400.00
02769             140.00    -9200.00
02770             140.00    -9400.00
02771             160.00    -9200.00
02772             160.00    -9200.00
02773             160.00    -9200.00
02774             160.00    -9000.00
02775             140.00    -9000.00
02776             140.00    -9000.00
02777             160.00    -8800.00
02778             160.00    -8600.00
02779             160.00    -8600.00
02780             160.00    -8400.00
02781             140.00    -8400.00
02782             140.00    -8200.00
02783             140.00    -8200.00
02784             140.00    -8200.00
02785             160.00    -7800.00
02786             160.00    -7800.00
02787             160.00    -7600.00
02788             140.00    -7600.00
02789             140.00    -7400.00
02790             140.00    -7200.00
02791             140.00    -7200.00
02792             140.00    -7000.00
02793             160.00    -7000.00
02794             140.00    -6800.00
02795             140.00    -6600.00
02796             140.00    -6600.00
02797             140.00    -6400.00
02798             120.00    -6200.00
02799             140.00    -6200.00
02800             160.00    -6000.00
02801             140.00    -5800.00
02802             100.00    -5800.00
02803             140.00    -5400.00
02804             140.00    -5400.00
02805             100.00    -5200.00
02806             100.00    -5000.00
02807             140.00    -4800.00
02808             100.00    -4600.00
02809             100.00    -4600.00
02810             100.00    -4400.00
02811             100.00    -4200.00
02812             100.00    -3800.00
02813             100.00    -3800.00
02814             120.00    -3600.00
02815              80.00    -3400.00
02816             100.00    -3400.00
02817              80.00    -3000.00
02818              80.00    -2800.00
02819             100.00    -2800.00
02820              80.00    -2600.00
02821              80.00    -2400.00
02822              80.00    -2200.00
02823              60.00    -2200.00
02824              80.00    -1800.00
02825              60.00    -1800.00
02826              80.00    -1400.00
02827              60.00    -1400.00
02828              60.00    -1000.00
02829              40.00     -800.00
02830              60.00     -600.00
02831              60.00     -600.00
02832              60.00     -400.00
02833              60.00     -400.00
02834              60.00        0.00
02835              60.00      200.00
02836              60.00      400.00
02837             100.00      600.00
02838             160.00      600.00
02839             160.00      800.00
02840             140.00     1000.00
02841              80.00     1000.00
02842              80.00     1200.00
02843             160.00     1400.00
02844             720.00     1800.00
02845            1100.00     2000.00
02846             300.00     2200.00
02847            -840.00     2200.00
02848           -1440.00     2200.00
02849            -940.00     2600.00
02850             800.00     3000.00
02851             420.00     2800.00
02852            -240.00     3400.00
02853             460.00     3000.00
02854             -20.00     3400.00
02855            -180.00     4200.00
02856             100.00     3400.00
02857            -100.00     4000.00
02858             420.00     4400.00
02859             -20.00     3800.00
02860            -320.00     5000.00
02861             160.00     4600.00
02862            -200.00     4800.00
02863               0.00     5400.00
02864             100.00     4600.00
02865             -20.00     5800.00
02866             -20.00     5400.00
02867            -160.00     5600.00
02868             140.00     6200.00
02869            -100.00     5800.00
02870            -100.00     6400.00
02871              40.00     6200.00
02872             -60.00     6600.00
02873             -60.00     6600.00
02874            -140.00     6600.00
02875               0.00     7000.00
02876             -20.00     6800.00
02877             -40.00     7200.00
02878             -60.00     7200.00
02879             -80.00     7400.00
02880            -100.00     7400.00
02881             -80.00     7600.00
02882             -20.00     7800.00
02883            -100.00     7800.00
02884             -80.00     8000.00
02885            -120.00     8000.00
02886             -80.00     8200.00
02887             -80.00     8200.00
02888             -60.00     8400.00
02889             -80.00     8600.00
02890            -140.00     8400.00
02891            -100.00     8600.00
02892            -100.00     8600.00
02893             -80.00     8800.00
02894            -100.00     9000.00
02895            -140.00     9000.00
02896            -160.00     9000.00
02897            -140.00     9200.00
02898            -100.00     9200.00
02899            -100.00     9400.00
02900            -120.00     9400.00
02901            -140.00     9400.00
02902            -140.00     9400.00
02903            -160.00     9600.00
02904            -140.00     9600.00
02905            -100.00     9600.00
02906            -140.00     9800.00
02907            -140.00     9800.00
02908            -140.00     9800.00
02909            -160.00     9800.00
02910            -160.00     9800.00
02911            -140.00    10000.00
02912            -100.00     9800.00
02913            -160.00     9800.00
02914            -160.00    10000.00
02915            -140.00    10000.00
02916            -140.00    10000.00
02917            -160.00    10000.00
02918            -140.00    10000.00
02919            -160.00    10000.00
02920            -160.00     9800.00
02921            -160.00    10000.00
02922            -140.00    10000.00
02923            -180.00    10000.00
02924            -160.00    10000.00
02925            -140.00    10000.00
02926            -140.00     9800.00
02927            -160.00     9800.00
02928            -140.00     9800.00
02929            -160.00     9600.00
02930            -160.00     9800.00
02931            -160.00     9800.00
02932            -140.00     9600.00
02933            -140.00     9400.00
02934            -140.00     9400.00
02935            -160.00     9400.00
02936            -160.00     9400.00
02937            -180.00     9400.00
02938            -140.00     9400.00
02939            -140.00     9400.00
02940            -140.00     9200.00
02941            -160.00     9200.00
02942            -160.00     9000.00
02943            -160.00     9000.00
02944            -160.00     8600.00
02945            -140.00     8600.00
02946            -140.00     8600.00
02947            -140.00     8400.00
02948            -160.00     8400.00
02949            -160.00     8400.00
02950            -160.00     8200.00
02951            -160.00     8200.00
02952            -140.00     8000.00
02953            -140.00     7800.00
02954            -160.00     7800.00
02955            -160.00     7600.00
02956            -160.00     7400.00
02957            -160.00     7400.00
02958            -140.00     7200.00
02959            -120.00     7000.00
02960            -140.00     7000.00
02961            -140.00     6800.00
02962            -160.00     6600.00
02963            -160.00     6600.00
02964            -140.00     6600.00
02965            -140.00     6200.00
02966            -140.00     6200.00
02967            -140.00     5800.00
02968            -140.00     5800.00
02969            -140.00     5800.00
02970            -140.00     5600.00
02971            -140.00     5400.00
02972            -100.00     5200.00
02973            -100.00     5200.00
02974            -140.00     5000.00
02975            -140.00     4800.00
02976            -120.00     4400.00
02977            -140.00     4400.00
02978            -100.00     4200.00
02979            -100.00     4200.00
02980            -100.00     4000.00
02981            -100.00     3800.00
02982            -100.00     3600.00
02983            -100.00     3400.00
02984            -100.00     3200.00
02985            -100.00     3000.00
02986            -100.00     3000.00
02987            -100.00     2600.00
02988            -100.00     2600.00
02989            -100.00     2400.00
02990             -80.00     2200.00
02991             -60.00     2000.00
02992             -60.00     1800.00
02993             -60.00     1600.00
02994             -80.00     1400.00
02995             -80.00     1200.00
02996             -60.00     1000.00
02997             -60.00     1000.00
02998             -60.00      800.00
02999             -60.00      400.00
03000             -60.00      400.00
03001             -40.00      200.00
03002             -60.00        0.00
03003               0.00     -200.00
03004              60.00     -400.00
03005              80.00     -600.00
03006              80.00     -600.00
03007              20.00     -800.00
03008               0.00    -1200.00
03009              20.00    -1200.00
03010              60.00    -1400.00
03011             220.00    -1400.00
03012             740.00    -1800.00
03013             800.00    -2200.00
03014               0.00    -2200.00
03015            -780.00    -2600.00
03016           -1060.00    -2600.00
03017            -860.00    -2400.00
03018             380.00    -2800.00
03019             380.00    -3200.00
03020            -160.00    -3000.00
03021             340.00    -3600.00
03022             100.00    -3600.00
03023             -20.00    -3400.00
03024             220.00    -4200.00
03025            -100.00    -3800.00
03026             180.00    -4200.00
03027             220.00    -4400.00
03028            -160.00    -4600.00
03029            -100.00    -5000.00
03030               0.00    -4600.00
03031             100.00    -5200.00
03032              60.00    -5400.00
03033              60.00    -5400.00
03034              20.00    -5600.00
03035             -40.00    -5400.00
03036             160.00    -6000.00
03037              80.00    -6000.00
03038             -20.00    -6200.00
03039              80.00    -6600.00
03040             100.00    -6400.00
03041              60.00    -6600.00
03042               0.00    -6800.00
03043              60.00    -6800.00
03044             140.00    -7000.00
03045              80.00    -7000.00
03046              60.00    -7400.00
03047              80.00    -7200.00
03048             100.00    -7600.00
03049             100.00    -7600.00
03050             100.00    -7800.00
03051              80.00    -7800.00
03052              40.00    -8200.00
03053              80.00    -8200.00
03054             140.00    -8200.00
03055             100.00    -8400.00
03056             140.00    -8400.00
03057             140.00    -8600.00
03058              80.00    -8600.00
03059             100.00    -8600.00
03060             140.00    -8800.00
03061             140.00    -9000.00
03062             100.00    -9000.00
03063             100.00    -9000.00
03064             120.00    -9200.00
03065             100.00    -9200.00
03066             140.00    -9200.00
03067             160.00    -9400.00
03068             140.00    -9400.00
03069             100.00    -9400.00
03070             140.00    -9400.00
03071             140.00    -9600.00
03072             140.00    -9400.00
03073             160.00    -9600.00
03074             160.00    -9600.00
03075             160.00    -9800.00
03076             140.00    -9800.00
03077             140.00    -9800.00
03078             140.00    -9800.00
03079             160.00    -9800.00
03080             160.00    -9800.00
03081             160.00    -9800.00
03082             140.00    -9800.00
03083             140.00   -10000.00
03084             140.00    -9800.00
03085             120.00   -10000.00
03086             160.00    -9800.00
03087             160.00    -9800.00
03088             140.00    -9800.00
03089             160.00    -9800.00
03090             140.00    -9800.00
03091             140.00    -9800.00
03092             160.00   -10000.00
03093             160.00    -9800.00
03094             180.00    -9800.00
03095             160.00    -9800.00
03096             140.00    -9800.00
03097             160.00    -9800.00
03098             140.00    -9600.00
03099             140.00    -9600.00
03100             160.00    -9600.00
03101             160.00    -9400.00
03102             160.00    -9400.00
03103             140.00    -9400.00
03104             140.00    -9200.00
03105             140.00    -9200.00
03106             160.00    -9200.00
03107             180.00    -9000.00
03108             160.00    -9200.00
03109             160.00    -8800.00
03110             140.00    -8800.00
03111             140.00    -8800.00
03112             160.00    -8600.00
03113             160.00    -8600.00
03114             160.00    -8400.00
03115             160.00    -8400.00
03116             140.00    -8200.00
03117             160.00    -8200.00
03118             160.00    -8000.00
03119             140.00    -8000.00
03120             160.00    -7800.00
03121             160.00    -7800.00
03122             140.00    -7600.00
03123             140.00    -7400.00
03124             140.00    -7400.00
03125             140.00    -7200.00
03126             160.00    -7000.00
03127             160.00    -7000.00
03128             140.00    -6800.00
03129             140.00    -6800.00
03130             140.00    -6600.00
03131             140.00    -6600.00
03132             140.00    -6400.00
03133             140.00    -6200.00
03134             160.00    -6000.00
03135             140.00    -6000.00
03136             100.00    -5800.00
03137             140.00    -5400.00
03138             120.00    -5400.00
03139             140.00    -5400.00
03140             140.00    -5000.00
03141             120.00    -5000.00
03142             100.00    -4800.00
03143             100.00    -4600.00
03144             100.00    -4400.00
03145             100.00    -4200.00
03146             100.00    -4200.00
03147             120.00    -3800.00
03148             100.00    -3800.00
03149              80.00    -3600.00
03150              80.00    -3400.00
03151              80.00    -3200.00
03152              80.00    -3000.00
03153              60.00    -3000.00
03154              80.00    -2600.00
03155             100.00    -2600.00
03156              80.00    -2200.00
03157              60.00    -2200.00
03158              60.00    -2000.00
03159              80.00    -1800.00
03160              60.00    -1600.00
03161              60.00    -1400.00
03162              60.00    -1200.00
03163              80.00    -1000.00
03164              60.00     -800.00
03165              40.00     -600.00
03166              60.00     -600.00
03167              60.00     -400.00
03168              60.00     -200.00
03169              60.00        0.00
03170              60.00      200.00
03171              80.00      400.00
03172             160.00      600.00
03173             160.00      800.00
03174             140.00      800.00
03175             100.00     1000.00
03176              80.00     1200.00
03177             120.00     1400.00
03178             420.00     1800.00
03179            1100.00     2000.00
03180             720.00     2000.00
03181            -420.00     2200.00
03182           -1280.00     2200.00
03183           -1380.00     2400.00
03184             200.00     3400.00
03185             900.00     2800.00
03186            -240.00     3000.00
03187             220.00     3400.00
03188             300.00     3200.00
03189            -320.00     4000.00
03190              80.00     3800.00
03191             -80.00     3600.00
03192             200.00     4600.00
03193             300.00     3800.00
03194            -400.00     4400.00
03195              20.00     5000.00
03196             -20.00     4600.00
03197            -160.00     5200.00
03198             140.00     4800.00
03199               0.00     5400.00
03200               0.00     5800.00
03201            -160.00     5200.00
03202              60.00     6200.00
03203              60.00     5800.00
03204            -180.00     6000.00
03205              40.00     6400.00
03206             -20.00     6200.00
03207             -20.00     6600.00
03208            -100.00     6400.00
03209             -80.00     7000.00
03210             -20.00     7000.00
03211             -60.00     6800.00
03212               0.00     7400.00
03213             -80.00     7400.00
03214             -80.00     7600.00
03215            -100.00     7400.00
03216             -20.00     7800.00
03217             -80.00     7800.00
03218            -100.00     7800.00
03219             -80.00     8200.00
03220            -100.00     8000.00
03221             -60.00     8200.00
03222             -80.00     8400.00
03223             -80.00     8400.00
03224            -160.00     8600.00
03225            -140.00     8600.00
03226            -100.00     8800.00
03227             -80.00     8800.00
03228            -100.00     9200.00
03229            -140.00     9000.00
03230            -140.00     9200.00
03231            -160.00     9200.00
03232             -80.00     9200.00
03233            -100.00     9400.00
03234            -100.00     9400.00
03235            -140.00     9400.00
03236            -140.00     9400.00
03237            -160.00     9600.00
03238            -160.00     9600.00
03239            -120.00     9800.00
03240            -120.00     9600.00
03241            -100.00     9800.00
03242            -100.00     9800.00
03243            -140.00     9800.00
03244            -160.00     9800.00
03245            -140.00     9800.00
03246            -100.00    10000.00
03247            -140.00    10000.00
03248            -140.00    10000.00
03249            -160.00    10000.00
03250            -160.00    10000.00
03251            -160.00    10000.00
03252            -140.00    10000.00
03253            -140.00    10000.00
03254            -140.00     9800.00
03255            -140.00     9800.00
03256            -140.00    10000.00
03257            -140.00    10000.00
03258            -160.00     9800.00
03259            -160.00    10000.00
03260            -140.00     9800.00
03261            -160.00    10000.00
03262            -160.00     9800.00
03263            -140.00     9800.00
03264            -160.00     9800.00
03265            -160.00     9800.00
03266            -140.00     9800.00
03267            -140.00     9400.00
03268            -160.00     9600.00
03269            -140.00     9400.00
03270            -160.00     9400.00
03271            -160.00     9400.00
03272            -160.00     9200.00
03273            -140.00     9400.00
03274            -140.00     9200.00
03275            -140.00     9000.00
03276            -160.00     9000.00
03277            -160.00     8800.00
03278            -160.00     9000.00
03279            -160.00     8600.00
03280            -160.00     8600.00
03281            -160.00     8400.00
03282            -160.00     8400.00
03283            -160.00     8400.00
03284            -160.00     8200.00
03285            -160.00     8200.00
03286            -160.00     8000.00
03287            -140.00     7800.00
03288            -160.00     7800.00
03289            -160.00     7800.00
03290            -160.00     7600.00
03291            -160.00     7400.00
03292            -140.00     7400.00
03293            -140.00     7000.00
03294            -140.00     6800.00
03295            -160.00     6800.00
03296            -160.00     6800.00
03297            -140.00     6600.00
03298            -140.00     6600.00
03299            -140.00     6400.00
03300            -140.00     6200.00
03301            -140.00     6000.00
03302            -140.00     6000.00
03303            -140.00     5800.00
03304            -140.00     5800.00
03305            -140.00     5400.00
03306            -100.00     5400.00
03307            -100.00     5200.00
03308            -100.00     5000.00
03309            -120.00     5000.00
03310            -100.00     4600.00
03311            -140.00     4600.00
03312            -140.00     4200.00
03313            -100.00     4200.00
03314            -100.00     4000.00
03315            -100.00     3800.00
03316            -100.00     3600.00
03317            -100.00     3600.00
03318            -100.00     3200.00
03319            -100.00     3400.00
03320            -100.00     3000.00
03321            -100.00     2800.00
03322            -100.00     2600.00
03323            -100.00     2600.00
03324            -100.00     2200.00
03325             -80.00     2000.00
03326             -80.00     2000.00
03327             -60.00     1800.00
03328             -80.00     1400.00
03329             -60.00     1200.00
03330             -80.00     1400.00
03331             -60.00     1000.00
03332             -60.00      800.00
03333             -60.00      600.00
03334             -20.00      400.00
03335             -60.00      200.00
03336             -60.00        0.00
03337             -20.00     -200.00
03338               0.00     -400.00
03339              80.00     -400.00
03340              60.00     -600.00
03341              60.00     -800.00
03342              20.00    -1000.00
03343              60.00    -1200.00
03344              60.00    -1200.00
03345             100.00    -1400.00
03346             480.00    -1800.00
03347             900.00    -2200.00
03348             380.00    -2200.00
03349            -540.00    -2600.00
03350            -960.00    -2600.00
03351           -1060.00    -2600.00
03352            -100.00    -2600.00
03353             640.00    -3200.00
03354            -100.00    -3000.00
03355             140.00    -3400.00
03356             320.00    -3800.00
03357            -140.00    -3400.00
03358             180.00    -4000.00
03359               0.00    -4200.00
03360               0.00    -4200.00
03361             340.00    -4600.00
03362             -60.00    -4400.00
03363            -160.00    -5000.00
03364             -40.00    -4800.00
03365              60.00    -5000.00
03366              80.00    -5400.00
03367              60.00    -5200.00
03368              80.00    -5600.00
03369             -60.00    -5800.00
03370              60.00    -5800.00
03371             160.00    -6000.00
03372             -20.00    -6000.00
03373              60.00    -6400.00
03374             100.00    -6200.00
03375             100.00    -6600.00
03376              40.00    -6800.00
03377              20.00    -6800.00
03378             140.00    -7000.00
03379             100.00    -7000.00
03380              60.00    -7400.00
03381              80.00    -7400.00
03382             100.00    -7400.00
03383              80.00    -7600.00
03384             100.00    -7600.00
03385              80.00    -7800.00
03386              40.00    -7800.00
03387              80.00    -8200.00
03388             160.00    -8000.00
03389             140.00    -8400.00
03390             100.00    -8400.00
03391             140.00    -8400.00
03392              80.00    -8600.00
03393              80.00    -8600.00
03394             140.00    -8600.00
03395             140.00    -8800.00
03396             100.00    -9000.00
03397             100.00    -9000.00
03398             140.00    -9000.00
03399             100.00    -9000.00
03400             140.00    -9200.00
03401             160.00    -9400.00
03402             160.00    -9400.00
03403             140.00    -9400.00
03404             100.00    -9400.00
03405             120.00    -9400.00
03406             100.00    -9400.00
03407             140.00    -9600.00
03408             160.00    -9400.00
03409             160.00    -9800.00
03410             160.00    -9800.00
03411             140.00    -9800.00
03412             100.00    -9800.00
03413             100.00    -9800.00
03414             140.00    -9800.00
03415             140.00   -10000.00
03416             140.00   -10000.00
03417             140.00    -9800.00
03418             160.00   -10000.00
03419             140.00    -9800.00
03420             140.00    -9800.00
03421             140.00    -9800.00
03422             160.00   -10000.00
03423             140.00    -9800.00
03424             140.00    -9800.00
03425             140.00    -9800.00
03426             140.00    -9800.00
03427             140.00    -9800.00
03428             160.00    -9800.00
03429             160.00    -9800.00
03430             160.00    -9800.00
03431             160.00    -9800.00
03432             140.00    -9800.00
03433             140.00    -9600.00
03434             140.00    -9400.00
03435             160.00    -9400.00
03436             160.00    -9400.00
03437             160.00    -9400.00
03438             160.00    -9200.00
03439             140.00    -9200.00
03440             160.00    -9200.00
03441             160.00    -9200.00
03442             160.00    -9000.00
03443             160.00    -9000.00
03444             160.00    -9000.00
03445             140.00    -8600.00
03446             160.00    -8600.00
03447             140.00    -8600.00
03448             160.00    -8400.00
03449             160.00    -8600.00
03450             160.00    -8400.00
03451             140.00    -8400.00
03452             160.00    -8200.00
03453             160.00    -8200.00
03454             160.00    -7800.00
03455             160.00    -7800.00
03456             140.00    -7600.00
03457             140.00    -7200.00
03458             140.00    -7400.00
03459             140.00    -7200.00
03460             140.00    -7000.00
03461             140.00    -7000.00
03462             160.00    -7000.00
03463             140.00    -6800.00
03464             140.00    -6800.00
03465             140.00    -6600.00
03466             140.00    -6400.00
03467             160.00    -6200.00
03468             140.00    -6000.00
03469             140.00    -6000.00
03470             100.00    -5800.00
03471             100.00    -5600.00
03472             100.00    -5400.00
03473             140.00    -5200.00
03474             140.00    -5200.00
03475             120.00    -5000.00
03476             100.00    -5000.00
03477             120.00    -4800.00
03478              80.00    -4600.00
03479             100.00    -4400.00
03480              80.00    -4200.00
03481             100.00    -4000.00
03482             100.00    -3800.00
03483              80.00    -3600.00
03484              80.00    -3600.00
03485              80.00    -3400.00
03486             100.00    -3000.00
03487              80.00    -3000.00
03488              80.00    -2800.00
03489             100.00    -2600.00
03490              80.00    -2400.00
03491              80.00    -2200.00
03492              80.00    -2000.00
03493              60.00    -1800.00
03494              80.00    -1800.00
03495              80.00    -1400.00
03496              60.00    -1200.00
03497              60.00    -1200.00
03498              40.00    -1000.00
03499              60.00     -600.00
03500              80.00     -600.00
03501              60.00     -400.00
03502              60.00     -200.00
03503              60.00        0.00
03504              80.00      200.00
03505              60.00      200.00
03506             140.00      600.00
03507             160.00      600.00
03508             140.00     1000.00
03509             100.00     1000.00
03510             100.00     1200.00
03511             120.00     1400.00
03512             240.00     1600.00
03513             860.00     1800.00
03514            1020.00     2000.00
03515              60.00     2200.00
03516            -980.00     2200.00
03517           -1500.00     2200.00
03518            -560.00     3000.00
03519             980.00     3000.00
03520             160.00     2800.00
03521            -120.00     3400.00
03522             480.00     3000.00
03523            -180.00     3600.00
03524             -80.00     4200.00
03525              60.00     3600.00
03526             -20.00     4400.00
03527             460.00     4200.00
03528            -220.00     3800.00
03529            -220.00     5000.00
03530             160.00     4600.00
03531            -260.00     5000.00
03532              60.00     5000.00
03533              60.00     5000.00
03534               0.00     5800.00
03535            -100.00     5400.00
03536            -100.00     5800.00
03537             160.00     6000.00
03538            -160.00     5800.00
03539             -60.00     6200.00
03540               0.00     6200.00
03541             -60.00     6400.00
03542             -80.00     6400.00
03543            -140.00     6600.00
03544               0.00     7200.00
03545             -60.00     6800.00
03546             -20.00     7200.00
03547             -60.00     7200.00
03548             -80.00     7400.00
03549            -100.00     7400.00
03550             -60.00     7800.00
03551             -60.00     7800.00
03552            -140.00     7800.00
03553             -80.00     8000.00
03554            -100.00     8200.00
03555             -80.00     8200.00
03556             -80.00     8200.00
03557             -60.00     8400.00
03558            -100.00     8400.00
03559            -160.00     8600.00
03560            -100.00     8600.00
03561            -100.00     9000.00
03562             -80.00     9000.00
03563            -100.00     9000.00
03564            -140.00     9000.00
03565            -160.00     9200.00
03566            -100.00     9200.00
03567             -80.00     9400.00
03568            -100.00     9400.00
03569            -120.00     9400.00
03570            -120.00     9600.00
03571            -140.00     9400.00
03572            -160.00     9600.00
03573            -140.00     9800.00
03574            -100.00     9600.00
03575            -140.00     9800.00
03576            -100.00     9800.00
03577            -140.00     9800.00
03578            -160.00    10000.00
03579            -160.00     9800.00
03580            -100.00    10000.00
03581            -100.00    10000.00
03582            -160.00    10000.00
03583            -160.00    10000.00
03584            -140.00    10000.00
03585            -160.00    10000.00
03586            -160.00     9800.00
03587            -140.00    10000.00
03588            -160.00    10000.00
03589            -160.00     9800.00
03590            -140.00    10000.00
03591            -140.00     9800.00
03592            -160.00    10000.00
03593            -160.00    10000.00
03594            -140.00     9800.00
03595            -140.00    10000.00
03596            -160.00     9800.00
03597            -160.00     9800.00
03598            -160.00     9800.00
03599            -160.00     9800.00
03600            -160.00     9600.00
03601            -140.00     9600.00
03602            -140.00     9800.00
03603            -140.00     9400.00
03604            -140.00     9400.00
03605            -160.00     9400.00
03606            -180.00     9400.00
03607            -160.00     9200.00
03608            -140.00     9200.00
03609            -160.00     9200.00
03610            -160.00     9000.00
03611            -180.00     9000.00
03612            -160.00     8800.00
03613            -160.00     8800.00
03614            -140.00     8600.00
03615            -140.00     8600.00
03616            -160.00     8400.00
03617            -160.00     8400.00
03618            -160.00     8200.00
03619            -160.00     8200.00
03620            -160.00     8200.00
03621            -160.00     7800.00
03622            -140.00     7800.00
03623            -140.00     7800.00
03624            -160.00     7600.00
03625            -160.00     7400.00
03626            -140.00     7400.00
03627            -140.00     7200.00
03628            -140.00     7000.00
03629            -160.00     6800.00
03630            -160.00     6800.00
03631            -140.00     6800.00
03632            -160.00     6600.00
03633            -140.00     6200.00
03634            -120.00     6200.00
03635            -120.00     6200.00
03636            -120.00     6000.00
03637            -140.00     5800.00
03638            -140.00     5800.00
03639            -140.00     5400.00
03640            -140.00     5600.00
03641            -100.00     5200.00
03642            -100.00     5200.00
03643            -100.00     5000.00
03644            -100.00     5000.00
03645            -120.00     4600.00
03646            -100.00     4400.00
03647            -100.00     4200.00
03648            -100.00     4000.00
03649            -100.00     4000.00
03650            -100.00     3600.00
03651            -100.00     3600.00
03652            -100.00     3400.00
03653            -100.00     3400.00
03654             -80.00     3000.00
03655             -80.00     2800.00
03656            -100.00     2800.00
03657            -100.00     2600.00
03658            -100.00     2400.00
03659             -80.00     2000.00
03660             -80.00     2000.00
03661             -60.00     1800.00
03662             -80.00     1400.00
03663             -80.00     1400.00
03664             -80.00     1200.00
03665             -60.00     1000.00
03666             -60.00     1000.00
03667             -60.00      600.00
03668             -60.00      400.00
03669             -60.00      400.00
03670             -60.00      200.00
03671             -40.00        0.00
03672             -20.00     -400.00
03673              60.00     -400.00
03674              80.00     -600.00
03675              60.00     -800.00
03676              60.00    -1000.00
03677              20.00     -800.00
03678               0.00    -1200.00
03679              60.00    -1400.00
03680             300.00    -1800.00
03681             820.00    -1800.00
03682             700.00    -2200.00
03683            -180.00    -2200.00
03684            -860.00    -2600.00
03685           -1120.00    -2600.00
03686            -640.00    -2400.00
03687             560.00    -3000.00
03688             180.00    -3200.00
03689            -100.00    -3000.00
03690             400.00    -3800.00
03691             -20.00    -3400.00
03692              60.00    -3600.00
03693             160.00    -4400.00
03694            -100.00    -3800.00
03695             260.00    -4400.00
03696             160.00    -4400.00
03697            -180.00    -4600.00
03698             -60.00    -5000.00
03699               0.00    -4600.00
03700             120.00    -5400.00
03701              20.00    -5200.00
03702             100.00    -5400.00
03703               0.00    -5600.00
03704               0.00    -5800.00
03705             200.00    -6000.00
03706              60.00    -6000.00
03707               0.00    -6200.00
03708              80.00    -6400.00
03709             100.00    -6200.00
03710              60.00    -6600.00
03711               0.00    -6800.00
03712             100.00    -6800.00
03713             120.00    -7000.00
03714              80.00    -7000.00
03715              80.00    -7400.00
03716             100.00    -7200.00
03717             100.00    -7600.00
03718             100.00    -7600.00
03719             100.00    -7600.00
03720              60.00    -7800.00
03721              60.00    -8000.00
03722             140.00    -8200.00
03723             140.00    -8200.00
03724             100.00    -8400.00
03725             120.00    -8600.00
03726             140.00    -8400.00
03727              80.00    -8600.00
03728             100.00    -8600.00
03729             140.00    -8800.00
03730             120.00    -8800.00
03731             100.00    -9200.00
03732             100.00    -9000.00
03733             100.00    -9200.00
03734             100.00    -9200.00
03735             140.00    -9400.00
03736             160.00    -9200.00
03737             120.00    -9400.00
03738             100.00    -9400.00
03739             100.00    -9400.00
03740             120.00    -9600.00
03741             120.00    -9600.00
03742             160.00    -9600.00
03743             160.00    -9800.00
03744             140.00    -9600.00
03745             140.00    -9800.00
03746             140.00    -9800.00
03747             100.00    -9800.00
03748             140.00    -9800.00
03749             160.00    -9800.00
03750             140.00   -10000.00
03751             140.00    -9800.00
03752             140.00    -9800.00
03753             140.00   -10000.00
03754             140.00   -10000.00
03755             160.00   -10000.00
03756             160.00   -10000.00
03757             160.00    -9800.00
03758             160.00    -9800.00
03759             140.00    -9800.00
03760             140.00   -10000.00
03761             160.00    -9800.00
03762             160.00    -9800.00
03763             160.00    -9800.00
03764             160.00    -9800.00
03765             160.00    -9600.00
03766             160.00    -9800.00
03767             160.00    -9600.00
03768             160.00    -9600.00
03769             160.00    -9400.00
03770             160.00    -9400.00
03771             160.00    -9400.00
03772             140.00    -9400.00
03773             160.00    -9200.00
03774             160.00    -9200.00
03775             160.00    -9200.00
03776             160.00    -9000.00
03777             160.00    -9200.00
03778             160.00    -9000.00
03779             160.00    -8800.00
03780             160.00    -8600.00
03781             160.00    -8600.00
03782             160.00    -8600.00
03783             160.00    -8400.00
03784             140.00    -8400.00
03785             140.00    -8200.00
03786             160.00    -8200.00
03787             160.00    -8200.00
03788             160.00    -8000.00
03789             160.00    -7800.00
03790             160.00    -7600.00
03791             160.00    -7600.00
03792             160.00    -7200.00
03793             140.00    -7400.00
03794             140.00    -7200.00
03795             160.00    -7000.00
03796             160.00    -7000.00
03797             160.00    -6800.00
03798             140.00    -6600.00
03799             140.00    -6600.00
03800             140.00    -6200.00
03801             140.00    -6200.00
03802             120.00    -6200.00
03803             120.00    -6000.00
03804             140.00    -6000.00
03805             120.00    -5800.00
03806             140.00    -5600.00
03807             100.00    -5400.00
03808             100.00    -5200.00
03809             120.00    -5000.00
03810             140.00    -5000.00
03811             100.00    -4800.00
03812             100.00    -4600.00
03813             100.00    -4400.00
03814             100.00    -4200.00
03815             100.00    -4200.00
03816             100.00    -3800.00
03817             100.00    -3800.00
03818             100.00    -3600.00
03819              80.00    -3400.00
03820              80.00    -3200.00
03821              80.00    -3000.00
03822             100.00    -2600.00
03823             100.00    -2600.00
03824              80.00    -2600.00
03825              80.00    -2400.00
03826              60.00    -2000.00
03827              80.00    -2000.00
03828              80.00    -1800.00
03829              60.00    -1600.00
03830              60.00    -1200.00
03831              80.00    -1200.00
03832              80.00    -1000.00
03833              60.00     -800.00
03834              80.00     -600.00
03835              80.00     -400.00
03836              60.00     -400.00
03837              60.00     -200.00
03838              60.00      200.00
03839              60.00      400.00
03840             120.00      400.00
03841             180.00      600.00
03842             160.00     1000.00
03843             100.00     1000.00
03844             100.00     1200.00
03845             140.00     1400.00
03846             160.00     1400.00
03847             540.00     1800.00
03848            1100.00     2000.00
03849             520.00     2200.00
03850            -640.00     2200.00
03851           -1380.00     2200.00
03852           -1140.00     2600.00
03853             580.00     3000.00
03854             660.00     2800.00
03855            -300.00     3200.00
03856             380.00     3400.00
03857             160.00     3400.00
03858            -260.00     4200.00
03859             140.00     3600.00
03860            -140.00     3800.00
03861             320.00     4600.00
03862             140.00     3800.00
03863            -360.00     4600.00
03864             160.00     5000.00
03865            -160.00     4600.00
03866            -100.00     5200.00
03867             140.00     4800.00
03868             -20.00     5600.00
03869             -20.00     5600.00
03870            -160.00     5400.00
03871             100.00     6200.00
03872             -20.00     5800.00
03873            -160.00     6200.00
03874              20.00     6200.00
03875             -80.00     6400.00
03876             -80.00     6600.00
03877            -140.00     6200.00
03878             -20.00     7000.00
03879               0.00     6800.00
03880             -20.00     6800.00
03881             -60.00     7400.00
03882            -100.00     7200.00
03883             -80.00     7600.00
03884             -80.00     7600.00
03885               0.00     7800.00
03886            -100.00     7800.00
03887            -100.00     7800.00
03888            -120.00     8200.00
03889            -100.00     8200.00
03890             -80.00     8200.00
03891             -80.00     8400.00
03892             -60.00     8600.00
03893            -160.00     8400.00
03894            -100.00     8600.00
03895            -100.00     8600.00
03896             -80.00     8800.00
03897            -100.00     9000.00
03898            -120.00     9000.00
03899            -140.00     9200.00
03900            -100.00     9200.00
03901             -60.00     9200.00
03902            -100.00     9400.00
03903            -100.00     9200.00
03904            -100.00     9400.00
03905            -140.00     9400.00
03906            -140.00     9800.00
03907            -120.00     9600.00
03908            -120.00     9600.00
03909            -100.00     9800.00
03910            -120.00     9800.00
03911            -100.00    10000.00
03912            -160.00     9800.00
03913            -160.00     9800.00
03914            -140.00     9800.00
03915            -100.00    10000.00
03916            -160.00     9800.00
03917            -160.00     9800.00
03918            -140.00    10000.00
03919            -160.00    10000.00
03920            -160.00    10000.00
03921            -140.00     9800.00
03922            -140.00    10000.00
03923            -140.00    10000.00
03924            -140.00    10000.00
03925            -140.00    10000.00
03926            -180.00    10000.00
03927            -160.00     9800.00
03928            -140.00    10000.00
03929            -140.00    10000.00
03930            -140.00     9800.00
03931            -140.00     9800.00
03932            -160.00     9800.00
03933            -160.00     9800.00
03934            -160.00     9800.00
03935            -160.00     9800.00
03936            -160.00     9600.00
03937            -160.00     9600.00
03938            -140.00     9600.00
03939            -160.00     9400.00
03940            -180.00     9400.00
03941            -160.00     9200.00
03942            -160.00     9200.00
03943            -140.00     9000.00
03944            -160.00     9200.00
03945            -160.00     9000.00
03946            -160.00     9000.00
03947            -160.00     8800.00
03948            -160.00     8600.00
03949            -160.00     8600.00
03950            -160.00     8400.00
03951            -160.00     8400.00
03952            -160.00     8400.00
03953            -160.00     8200.00
03954            -160.00     8200.00
03955            -160.00     8000.00
03956            -140.00     7800.00
03957            -140.00     7800.00
03958            -160.00     7600.00
03959            -160.00     7400.00
03960            -160.00     7400.00
03961            -140.00     7200.00
03962            -120.00     7200.00
03963            -140.00     7000.00
03964            -140.00     6800.00
03965            -140.00     6800.00
03966            -140.00     6600.00
03967            -140.00     6600.00
03968            -140.00     6200.00
03969            -140.00     6200.00
03970            -140.00     6000.00
03971            -120.00     6000.00
03972            -140.00     5800.00
03973            -120.00     5600.00
03974            -140.00     5400.00
03975            -100.00     5400.00
03976            -100.00     5200.00
03977            -100.00     5000.00
03978            -140.00     4800.00
03979            -120.00     4600.00
03980            -100.00     4600.00
03981            -100.00     4400.00
03982            -100.00     4200.00
03983            -100.00     4000.00
03984            -100.00     3800.00
03985            -100.00     3600.00
03986            -100.00     3600.00
03987            -100.00     3400.00
03988             -80.00     3200.00
03989            -100.00     3000.00
03990             -80.00     2800.00
03991            -100.00     2800.00
03992            -100.00     2200.00
03993             -80.00     2200.00
03994             -80.00     2000.00
03995             -80.00     2000.00
03996             -60.00     1800.00
03997             -60.00     1400.00
03998             -60.00     1400.00
03999             -60.00     1000.00
04000             -80.00      800.00
04001             -80.00      800.00
04002             -60.00      600.00
04003             -60.00      400.00
04004             -60.00      200.00
04005             -60.00        0.00
04006             -40.00     -200.00
04007              20.00     -400.00
04008              80.00     -400.00
04009              80.00     -600.00
04010              60.00     -800.00
04011              20.00    -1000.00
04012               0.00    -1200.00
04013              20.00    -1400.00
04014             160.00    -1400.00
04015             640.00    -1800.00
04016             860.00    -2200.00
04017             160.00    -2400.00
04018            -680.00    -2600.00
04019           -1040.00    -2600.00
04020            -980.00    -2200.00
04021             200.00    -2600.00
04022             540.00    -3400.00
04023            -180.00    -3000.00
04024             240.00    -3400.00
04025             220.00    -3600.00
04026            -100.00    -3400.00
04027             240.00    -4200.00
04028             -60.00    -3800.00
04029             100.00    -4200.00
04030             300.00    -4600.00
04031            -100.00    -4600.00
04032            -120.00    -5000.00
04033             -20.00    -4600.00
04034             100.00    -5000.00
04035              60.00    -5200.00
04036              60.00    -5200.00
04037              80.00    -5800.00
04038             -60.00    -5400.00
04039             140.00    -5800.00
04040             140.00    -6000.00
04041               0.00    -6000.00
04042              80.00    -6400.00
04043             100.00    -6200.00
04044              80.00    -6600.00
04045              20.00    -6800.00
04046              60.00    -6800.00
04047             140.00    -7000.00
04048              80.00    -7200.00
04049              80.00    -7400.00
04050              80.00    -7200.00
04051             100.00    -7400.00
04052              80.00    -7600.00
04053             120.00    -7600.00
04054              80.00    -8000.00
04055              60.00    -8000.00
04056             100.00    -7800.00
04057             140.00    -8200.00
04058             100.00    -8400.00
04059             100.00    -8400.00
04060             140.00    -8600.00
04061              80.00    -8600.00
04062              80.00    -8600.00
04063             120.00    -8800.00
04064             100.00    -9000.00
04065             100.00    -9000.00
04066             100.00    -9000.00
04067             100.00    -9000.00
04068             100.00    -9200.00
04069             140.00    -9200.00
04070             160.00    -9400.00
04071             140.00    -9400.00
04072             100.00    -9400.00
04073             100.00    -9400.00
04074             140.00    -9400.00
04075             140.00    -9400.00
04076             140.00    -9600.00
04077             160.00    -9800.00
04078             140.00    -9800.00
04079             140.00    -9800.00
04080             140.00    -9800.00
04081             140.00    -9800.00
04082             140.00   -10000.00
04083             160.00    -9800.00
04084             160.00   -10000.00
04085             140.00   -10000.00
04086             140.00    -9800.00
04087             140.00   -10000.00
04088             140.00   -10000.00
04089             140.00    -9800.00
04090             160.00    -9800.00
04091             160.00    -9800.00
04092             160.00    -9800.00
04093             160.00    -9800.00
04094             140.00    -9800.00
04095             140.00    -9800.00
04096             160.00    -9800.00
04097             180.00    -9800.00
04098             160.00    -9800.00
04099             140.00    -9800.00
04100             160.00    -9800.00
04101             160.00    -9600.00
04102             160.00    -9600.00
04103             180.00    -9400.00
04104             180.00    -9400.00
04105             160.00    -9400.00
04106             160.00    -9400.00
04107             160.00    -9200.00
04108             140.00    -9400.00
04109             160.00    -9200.00
04110             160.00    -9200.00
04111             160.00    -9000.00
04112             160.00    -9000.00
04113             160.00    -8800.00
04114             160.00    -8800.00
04115             140.00    -8600.00
04116             160.00    -8600.00
04117             180.00    -8600.00
04118             160.00    -8200.00
04119             140.00    -8400.00
04120             140.00    -8200.00
04121             140.00    -8200.00
04122             140.00    -8000.00
04123             160.00    -7800.00
04124             160.00    -7800.00
04125             160.00    -7600.00
04126             140.00    -7600.00
04127             140.00    -7200.00
04128             140.00    -7200.00
04129             140.00    -7000.00
04130             140.00    -6800.00
04131             140.00    -6800.00
04132             140.00    -6800.00
04133             140.00    -6600.00
04134             120.00    -6400.00
04135             140.00    -6400.00
04136             140.00    -6200.00
04137             140.00    -6000.00
04138             140.00    -6000.00
04139             100.00    -5800.00
04140             100.00    -5600.00
04141             100.00    -5400.00
04142             100.00    -5400.00
04143             140.00    -5200.00
04144             100.00    -5000.00
04145             100.00    -4800.00
04146             100.00    -4600.00
04147              80.00    -4400.00
04148              80.00    -4400.00
04149             100.00    -4200.00
04150             100.00    -3800.00
04151              80.00    -3800.00
04152             100.00    -3600.00
04153              80.00    -3400.00
04154              80.00    -3400.00
04155              80.00    -3000.00
04156              80.00    -3000.00
04157              80.00    -2600.00
04158              80.00    -2600.00
04159             100.00    -2200.00
04160              80.00    -2200.00
04161              60.00    -2000.00
04162              60.00    -1800.00
04163              80.00    -1800.00
04164             100.00    -1400.00
04165              80.00    -1200.00
04166              60.00    -1200.00
04167              80.00     -800.00
04168              80.00     -600.00
04169              60.00     -600.00
04170              60.00     -400.00
04171              80.00     -200.00
04172              40.00      200.00
04173              40.00      200.00
04174              80.00      400.00
04175             160.00      600.00
04176             200.00      600.00
04177             160.00     1000.00
04178             160.00     1200.00
04179             100.00     1200.00
04180              80.00     1400.00
04181             300.00     1600.00
04182             980.00     2000.00
04183             900.00     2000.00
04184            -180.00     2200.00
04185           -1120.00     2200.00
04186           -1460.00     2200.00
04187            -180.00     3200.00
04188             980.00     3000.00
04189             -80.00     2800.00
04190              60.00     3400.00
04191             420.00     3000.00
04192            -300.00     4000.00
04193              40.00     3800.00
04194             -20.00     3400.00
04195              60.00     4600.00
04196             380.00     4200.00
04197            -340.00     4200.00
04198             -80.00     5000.00
04199              80.00     4600.00
04200            -240.00     5000.00
04201             100.00     5000.00
04202               0.00     5000.00
04203               0.00     5800.00
04204            -140.00     5200.00
04205             -20.00     5800.00
04206             100.00     6000.00
04207            -160.00     5800.00
04208               0.00     6400.00
04209             -20.00     6000.00
04210             -80.00     6600.00
04211            -100.00     6600.00
04212            -100.00     6800.00
04213              20.00     7000.00
04214             -60.00     6800.00
04215             -20.00     7400.00
04216            -100.00     7200.00
04217            -100.00     7600.00
04218            -100.00     7400.00
04219             -20.00     7800.00
04220             -60.00     7800.00
04221            -100.00     7800.00
04222             -80.00     8200.00
04223            -100.00     8200.00
04224             -80.00     8200.00
04225            -100.00     8400.00
04226             -60.00     8400.00
04227            -140.00     8400.00
04228            -120.00     8600.00
04229             -80.00     8600.00
04230            -100.00     8800.00
04231            -100.00     9000.00
04232            -100.00     9000.00
04233            -120.00     9000.00
04234            -140.00     9200.00
04235             -80.00     9200.00
04236             -80.00     9400.00
04237            -100.00     9400.00
04238            -140.00     9400.00
04239            -120.00     9600.00
04240            -140.00     9400.00
04241            -140.00     9600.00
04242            -140.00     9600.00
04243            -100.00     9800.00
04244            -100.00     9800.00
04245            -100.00     9800.00
04246            -160.00    10000.00
04247            -180.00    10000.00
04248            -140.00     9800.00
04249            -120.00    10000.00
04250            -120.00     9800.00
04251            -160.00    10000.00
04252            -140.00    10000.00
04253            -140.00    10000.00
04254            -160.00    10000.00
04255            -160.00    10000.00
04256            -140.00    10200.00
04257            -140.00     9800.00
04258            -140.00    10000.00
04259            -140.00     9800.00
04260            -160.00    10000.00
04261            -180.00     9800.00
04262            -160.00    10000.00
04263            -140.00     9800.00
04264            -140.00     9800.00
04265            -160.00     9800.00
04266            -160.00     9800.00
04267            -160.00     9800.00
04268            -160.00     9600.00
04269            -160.00     9800.00
04270            -160.00     9600.00
04271            -160.00     9600.00
04272            -160.00     9400.00
04273            -160.00     9400.00
04274            -160.00     9400.00
04275            -160.00     9200.00
04276            -160.00     9200.00
04277            -160.00     9200.00
04278            -160.00     9200.00
04279            -160.00     9000.00
04280            -180.00     9000.00
04281            -160.00     9000.00
04282            -160.00     8600.00
04283            -160.00     8600.00
04284            -160.00     8600.00
04285            -160.00     8400.00
04286            -160.00     8400.00
04287            -160.00     8200.00
04288            -160.00     8200.00
04289            -160.00     8000.00
04290            -140.00     8000.00
04291            -140.00     7800.00
04292            -160.00     7600.00
04293            -160.00     7600.00
04294            -160.00     7400.00
04295            -160.00     7400.00
04296            -140.00     7400.00
04297            -140.00     7000.00
04298            -120.00     6800.00
04299            -140.00     6800.00
04300            -160.00     6600.00
04301            -140.00     6600.00
04302            -120.00     6400.00
04303            -140.00     6200.00
04304            -140.00     6200.00
04305            -100.00     6000.00
04306            -140.00     5800.00
04307            -140.00     5400.00
04308            -100.00     5600.00
04309            -100.00     5400.00
04310            -100.00     5200.00
04311            -140.00     5000.00
04312            -140.00     4800.00
04313            -140.00     4600.00
04314            -100.00     4600.00
04315            -100.00     4400.00
04316            -100.00     4200.00
04317            -100.00     4200.00
04318            -120.00     3800.00
04319            -100.00     3600.00
04320            -100.00     3400.00
04321            -100.00     3400.00
04322            -100.00     3200.00
04323            -100.00     3000.00
04324            -100.00     2800.00
04325             -80.00     2800.00
04326            -100.00     2400.00
04327            -100.00     2200.00
04328             -80.00     2000.00
04329             -80.00     1800.00
04330             -80.00     1800.00
04331             -80.00     1400.00
04332             -80.00     1400.00
04333             -80.00     1200.00
04334             -60.00     1000.00
04335             -60.00      800.00
04336             -60.00      800.00
04337             -20.00      400.00
04338             -60.00      200.00
04339             -60.00      200.00
04340             -60.00     -200.00
04341             -20.00     -200.00
04342              60.00     -400.00
04343              80.00     -600.00
04344              80.00     -600.00
04345              40.00    -1000.00
04346               0.00    -1200.00
04347               0.00    -1200.00
04348              80.00    -1400.00
04349             400.00    -1600.00
04350             900.00    -2000.00
04351             540.00    -2200.00
04352            -380.00    -2200.00
04353            -900.00    -2600.00
04354           -1100.00    -2600.00
04355            -380.00    -2400.00
04356             640.00    -3200.00
04357              20.00    -3000.00
04358               0.00    -3000.00
04359             380.00    -3600.00
04360             -80.00    -3400.00
04361             160.00    -3800.00
04362              80.00    -4200.00
04363             -60.00    -4000.00
04364             320.00    -4600.00
04365              60.00    -4400.00
04366            -160.00    -4800.00
04367             -20.00    -5000.00
04368              20.00    -4600.00
04369             100.00    -5400.00
04370              20.00    -5200.00
04371              80.00    -5600.00
04372             -20.00    -5400.00
04373              60.00    -5800.00
04374             180.00    -6200.00
04375               0.00    -6000.00
04376              40.00    -6200.00
04377             100.00    -6400.00
04378             100.00    -6400.00
04379              40.00    -6800.00
04380               0.00    -6600.00
04381             140.00    -6800.00
04382             100.00    -7000.00
04383              60.00    -7200.00
04384              80.00    -7200.00
04385             100.00    -7400.00
04386             100.00    -7600.00
04387             100.00    -7600.00
04388              80.00    -7800.00
04389              60.00    -8000.00
04390              60.00    -8000.00
04391             140.00    -8200.00
04392             140.00    -8200.00
04393              80.00    -8600.00
04394             100.00    -8400.00
04395             100.00    -8600.00
04396              60.00    -8600.00
04397             100.00    -8800.00
04398             140.00    -8800.00
04399             100.00    -9000.00
04400             100.00    -9000.00
04401             100.00    -9000.00
04402              80.00    -9200.00
04403             100.00    -9200.00
04404             160.00    -9400.00
04405             160.00    -9200.00
04406             100.00    -9200.00
04407             100.00    -9400.00
04408             100.00    -9400.00
04409             100.00    -9600.00
04410             140.00    -9600.00
04411             160.00    -9600.00
04412             160.00    -9800.00
04413             140.00    -9800.00
04414             140.00    -9800.00
04415             140.00    -9800.00
04416             120.00    -9800.00
04417             160.00    -9800.00
04418             160.00    -9800.00
04419             160.00   -10000.00
04420             160.00   -10000.00
04421             140.00   -10000.00
04422             140.00    -9800.00
04423             140.00    -9800.00
04424             160.00   -10000.00
04425             160.00    -9800.00
04426             160.00    -9800.00
04427             140.00    -9800.00
04428             160.00    -9800.00
04429             140.00    -9800.00
04430             160.00    -9800.00
04431             180.00    -9800.00
04432             180.00    -9800.00
04433             160.00    -9800.00
04434             160.00    -9800.00
04435             160.00    -9600.00
04436             140.00    -9800.00
04437             160.00    -9600.00
04438             160.00    -9400.00
04439             160.00    -9400.00
04440             140.00    -9400.00
04441             160.00    -9200.00
04442             140.00    -9400.00
04443             160.00    -9400.00
04444             160.00    -9000.00
04445             180.00    -9000.00
04446             160.00    -9000.00
04447             160.00    -8800.00
04448             160.00    -9000.00
04449             160.00    -8600.00
04450             160.00    -8600.00
04451             160.00    -8600.00
04452             140.00    -8600.00
04453             160.00    -8400.00
04454             140.00    -8200.00
04455             140.00    -8200.00
04456             140.00    -8000.00
04457             140.00    -7800.00
04458             160.00    -7800.00
04459             160.00    -7800.00
04460             140.00    -7600.00
04461             140.00    -7400.00
04462             120.00    -7200.00
04463             140.00    -7200.00
04464             160.00    -7000.00
04465             140.00    -6800.00
04466             140.00    -6800.00
04467             120.00    -6600.00
04468             140.00    -6600.00
04469             120.00    -6400.00
04470             140.00    -6200.00
04471             140.00    -6200.00
04472             140.00    -6000.00
04473             140.00    -5800.00
04474             100.00    -5600.00
04475             100.00    -5600.00
04476             120.00    -5400.00
04477             100.00    -5200.00
04478             140.00    -5000.00
04479             140.00    -4800.00
04480             100.00    -4600.00
04481             100.00    -4400.00
04482             100.00    -4400.00
04483             100.00    -4200.00
04484             100.00    -4000.00
04485             100.00    -3800.00
04486             100.00    -3600.00
04487              80.00    -3400.00
04488              80.00    -3200.00
04489             100.00    -3200.00
04490             100.00    -3000.00
04491             100.00    -2800.00
04492             100.00    -2600.00
04493              80.00    -2400.00
04494              80.00    -2200.00
04495              80.00    -2200.00
04496              80.00    -1800.00
04497             100.00    -1800.00
04498              80.00    -1400.00
04499              60.00    -1400.00
04500              60.00    -1200.00
04501              60.00     -800.00
04502              60.00     -600.00
04503              80.00     -600.00
04504              80.00     -400.00
04505              60.00     -200.00
04506              60.00        0.00
04507              60.00      200.00
04508              60.00      400.00
04509             120.00      400.00
04510             180.00      600.00
04511             160.00      600.00
04512             120.00     1000.00
04513              80.00     1200.00
04514             100.00     1400.00
04515             180.00     1600.00
04516             720.00     1800.00
04517            1100.00     2000.00
04518             300.00     2200.00
04519            -840.00     2200.00
04520           -1460.00     2200.00
04521            -900.00     2600.00
04522             800.00     3200.00
04523             420.00     2600.00
04524            -240.00     3200.00
04525             480.00     3200.00
04526             -40.00     3400.00
04527            -180.00     4200.00
04528             120.00     3400.00
04529            -100.00     4200.00
04530             420.00     4400.00
04531             -40.00     3800.00
04532            -320.00     5000.00
04533             160.00     4800.00
04534            -220.00     5000.00
04535               0.00     5200.00
04536              80.00     4800.00
04537             -20.00     5800.00
04538             -60.00     5400.00
04539            -160.00     5600.00
04540             140.00     6000.00
04541            -100.00     5800.00
04542            -100.00     6200.00
04543              20.00     6200.00
04544             -60.00     6400.00
04545             -60.00     6600.00
04546            -140.00     6600.00
04547             -20.00     7200.00
04548             -20.00     6800.00
04549             -20.00     7400.00
04550             -60.00     7200.00
04551             -80.00     7400.00
04552            -100.00     7600.00
04553             -60.00     7600.00
04554             -20.00     7800.00
04555            -100.00     7800.00
04556             -80.00     8000.00
04557            -100.00     8000.00
04558             -80.00     8200.00
04559             -60.00     8200.00
04560             -60.00     8400.00
04561            -100.00     8600.00
04562            -140.00     8600.00
04563            -100.00     8600.00
04564             -80.00     8800.00
04565             -80.00     9000.00
04566            -100.00     9000.00
04567            -100.00     9000.00
04568            -160.00     9200.00
04569            -100.00     9200.00
04570             -80.00     9200.00
04571            -100.00     9400.00
04572            -100.00     9400.00
04573            -140.00     9400.00
04574            -140.00     9600.00
04575            -140.00     9400.00
04576            -140.00     9600.00
04577            -100.00     9600.00
04578            -120.00     9800.00
04579            -100.00     9800.00
04580            -140.00     9800.00
04581            -160.00     9800.00
04582            -160.00     9800.00
04583            -140.00    10000.00
04584            -100.00     9800.00
04585            -140.00    10000.00
04586            -160.00    10000.00
04587            -160.00     9800.00
04588            -160.00    10000.00
04589            -140.00     9800.00
04590            -160.00    10000.00
04591            -140.00     9800.00
04592            -140.00     9800.00
04593            -140.00     9800.00
04594            -140.00    10000.00
04595            -160.00     9800.00
04596            -160.00    10000.00
04597            -160.00     9800.00
04598            -160.00     9800.00
04599            -160.00     9800.00
04600            -140.00     9800.00
04601            -160.00     9800.00
04602            -160.00     9800.00
04603            -160.00     9800.00
04604            -160.00     9800.00
04605            -160.00     9600.00
04606            -160.00     9600.00
04607            -160.00     9400.00
04608            -160.00     9400.00
04609            -160.00     9200.00
04610            -160.00     9200.00
04611            -140.00     9200.00
04612            -140.00     9200.00
04613            -160.00     9200.00
04614            -160.00     9000.00
04615            -160.00     9000.00
04616            -160.00     8600.00
04617            -140.00     8600.00
04618            -140.00     8600.00
04619            -140.00     8600.00
04620            -160.00     8200.00
04621            -160.00     8200.00
04622            -160.00     8200.00
04623            -140.00     8200.00
04624            -160.00     7800.00
04625            -140.00     7800.00
04626            -140.00     7800.00
04627            -160.00     7600.00
04628            -160.00     7400.00
04629            -140.00     7400.00
04630            -140.00     7400.00
04631            -140.00     7000.00
04632            -140.00     7000.00
04633            -140.00     6800.00
04634            -140.00     6600.00
04635            -140.00     6600.00
04636            -140.00     6600.00
04637            -140.00     6400.00
04638            -140.00     6200.00
04639            -100.00     6000.00
04640            -100.00     5800.00
04641            -140.00     5800.00
04642            -140.00     5600.00
04643            -140.00     5400.00
04644            -100.00     5400.00
04645            -100.00     5200.00
04646            -100.00     5000.00
04647            -100.00     4800.00
04648            -120.00     4600.00
04649            -100.00     4400.00
04650            -100.00     4400.00
04651            -100.00     4200.00
04652            -100.00     3800.00
04653            -100.00     3600.00
04654            -100.00     3600.00
04655            -100.00     3400.00
04656            -100.00     3200.00
04657            -100.00     3000.00
04658            -100.00     2800.00
04659            -100.00     2800.00
04660             -80.00     2600.00
04661            -100.00     2200.00
04662             -80.00     2000.00
04663             -80.00     2000.00
04664             -60.00     1800.00
04665             -80.00     1600.00
04666             -80.00     1400.00
04667             -80.00     1200.00
04668             -80.00     1000.00
04669             -80.00      800.00
04670             -80.00      600.00
04671             -80.00      600.00
04672             -60.00      400.00
04673             -60.00      200.00
04674             -60.00        0.00
04675             -20.00     -200.00
04676               0.00     -400.00
04677             100.00     -600.00
04678              80.00     -600.00
04679              20.00     -800.00
04680              20.00    -1000.00
04681              20.00    -1200.00
04682              60.00    -1200.00
04683             220.00    -1400.00
04684             740.00    -1800.00
04685             800.00    -2200.00
04686             -20.00    -2200.00
04687            -780.00    -2600.00
04688           -1060.00    -2600.00
04689            -820.00    -2400.00
04690             420.00    -3000.00
04691             380.00    -3200.00
04692            -160.00    -3000.00
04693             360.00    -3600.00
04694             120.00    -3400.00
04695             -20.00    -3400.00
04696             220.00    -4200.00
04697            -100.00    -3800.00
04698             220.00    -4200.00
04699             240.00    -4400.00
04700            -160.00    -4600.00
04701             -80.00    -5000.00
04702             -20.00    -4600.00
04703             140.00    -5200.00
04704              40.00    -5400.00
04705              80.00    -5400.00
04706              60.00    -5600.00
04707             -40.00    -5600.00
04708             180.00    -6000.00
04709              80.00    -6000.00
04710               0.00    -6200.00
04711             100.00    -6600.00
04712             100.00    -6200.00
04713              60.00    -6800.00
04714               0.00    -6800.00
04715              80.00    -6800.00
04716             140.00    -7000.00
04717              80.00    -7000.00
04718              60.00    -7400.00
04719              60.00    -7400.00
04720              80.00    -7600.00
04721             100.00    -7600.00
04722             100.00    -7800.00
04723              80.00    -8000.00
04724              60.00    -8200.00
04725             100.00    -8200.00
04726             140.00    -8200.00
04727              60.00    -8400.00
04728             100.00    -8400.00
04729             100.00    -8600.00
04730              20.00    -8600.00
04731               0.00    -9000.00
04732             100.00    -8800.00
04733             200.00    -8800.00
04734             220.00    -9000.00
04735             220.00    -9000.00
04736             160.00    -9200.00
04737              60.00    -9000.00
04738              20.00    -9400.00
04739               0.00    -9200.00
04740              20.00    -9400.00
04741             100.00    -9400.00
04742             200.00    -9400.00
04743             180.00    -9400.00
04744             180.00    -9400.00
04745             160.00    -9600.00
04746             160.00    -9800.00
04747             140.00    -9600.00
04748             140.00    -9800.00
04749             100.00    -9800.00
04750              80.00    -9800.00
04751              80.00    -9800.00
04752             160.00    -9800.00
04753             180.00    -9800.00
04754             160.00   -10000.00
04755             180.00    -9800.00
04756             160.00    -9800.00
04757             140.00    -9800.00
04758             160.00    -9800.00
04759             160.00    -9800.00
04760             140.00    -9800.00
04761             100.00    -9800.00
04762             120.00    -9800.00
04763             140.00    -9800.00
04764             180.00    -9800.00
04765             220.00    -9800.00
04766             220.00   -10000.00
04767             160.00    -9800.00
04768             140.00    -9800.00
04769             100.00    -9600.00
04770             120.00    -9600.00
04771             140.00    -9400.00
04772             180.00    -9400.00
04773             180.00    -9400.00
04774             180.00    -9400.00
04775             160.00    -9200.00
04776             160.00    -9200.00
04777             160.00    -9200.00
04778             140.00    -9200.00
04779             160.00    -9200.00
04780             160.00    -9200.00
04781             160.00    -9000.00
04782             160.00    -9000.00
04783             160.00    -8800.00
04784             160.00    -8600.00
04785             140.00    -8600.00
04786             140.00    -8400.00
04787             140.00    -8400.00
04788             140.00    -8200.00
04789             160.00    -8200.00
04790             160.00    -8200.00
04791             140.00    -7800.00
04792             140.00    -7800.00
04793             160.00    -7600.00
04794             140.00    -7600.00
04795             140.00    -7600.00
04796             140.00    -7400.00
04797             140.00    -7200.00
04798             140.00    -7000.00
04799             160.00    -7000.00
04800             140.00    -6800.00
04801             140.00    -6800.00
04802             100.00    -6600.00
04803             120.00    -6600.00
04804             120.00    -6400.00
04805             140.00    -6200.00
04806             140.00    -6000.00
04807             120.00    -6000.00
04808             100.00    -5600.00
04809             100.00    -5600.00
04810             140.00    -5600.00
04811             120.00    -5200.00
04812             140.00    -5000.00
04813             140.00    -5000.00
04814             120.00    -4800.00
04815             100.00    -4600.00
04816             100.00    -4400.00
04817             100.00    -4400.00
04818             100.00    -4000.00
04819             100.00    -3800.00
04820             140.00    -3800.00
04821             100.00    -3600.00
04822              80.00    -3400.00
04823             100.00    -3200.00
04824             100.00    -3000.00
04825             100.00    -2800.00
04826             100.00    -2600.00
04827             100.00    -2400.00
04828              80.00    -2200.00
04829              80.00    -2200.00
04830              80.00    -2000.00
04831              80.00    -1800.00
04832              80.00    -1600.00
04833              80.00    -1400.00
04834              60.00    -1200.00
04835              80.00    -1000.00
04836              60.00    -1000.00
04837              60.00     -600.00
04838              60.00     -400.00
04839              60.00     -200.00
04840              60.00     -200.00
04841              60.00      200.00
04842              60.00      400.00
04843              80.00      600.00
04844             160.00      600.00
04845             180.00      600.00
04846             140.00      800.00
04847             100.00     1000.00
04848              80.00     1200.00
04849             100.00     1400.00
04850             420.00     1600.00
04851            1100.00     2000.00
04852             720.00     2200.00
04853            -460.00     2200.00
04854           -1260.00     2000.00
04855           -1380.00     2400.00
04856             220.00     3000.00
04857             880.00     3000.00
04858            -260.00     2800.00
04859             220.00     3400.00
04860             300.00     3200.00
04861            -320.00     4200.00
04862             100.00     3800.00
04863            -100.00     3600.00
04864             220.00     4600.00
04865             300.00     3800.00
04866            -400.00     4400.00
04867              60.00     5000.00
04868             -20.00     4600.00
04869            -160.00     5200.00
04870             140.00     5000.00
04871             -20.00     5400.00
04872              20.00     5800.00
04873            -160.00     5200.00
04874              60.00     6200.00
04875              60.00     5800.00
04876            -180.00     6000.00
04877              20.00     6200.00
04878             -40.00     6200.00
04879             -20.00     6600.00
04880            -100.00     6200.00
04881             -60.00     7000.00
04882               0.00     6800.00
04883             -60.00     6800.00
04884             -20.00     7400.00
04885            -100.00     7400.00
04886             -80.00     7400.00
04887            -100.00     7400.00
04888             -20.00     7800.00
04889             -80.00     7800.00
04890            -100.00     8000.00
04891            -100.00     8000.00
04892            -100.00     8200.00
04893             -60.00     8200.00
04894             -60.00     8400.00
04895             -60.00     8400.00
04896            -140.00     8400.00
04897            -100.00     8600.00
04898             -80.00     9000.00
04899            -100.00     8800.00
04900             -80.00     9000.00
04901            -100.00     9000.00
04902            -140.00     9000.00
04903            -140.00     9200.00
04904             -80.00     9200.00
04905            -100.00     9400.00
04906            -100.00     9400.00
04907            -120.00     9400.00
04908            -100.00     9400.00
04909            -140.00     9400.00
04910            -140.00     9600.00
04911            -100.00     9800.00
04912            -140.00     9600.00
04913            -100.00     9800.00
04914            -120.00     9800.00
04915            -160.00    10000.00
04916            -160.00     9800.00
04917            -140.00    10000.00
04918            -120.00     9800.00
04919            -160.00     9800.00
04920            -160.00     9800.00
04921            -160.00    10000.00
04922            -160.00    10000.00
04923            -160.00    10000.00
04924            -140.00    10000.00
04925            -160.00    10000.00
04926            -160.00    10000.00
04927            -160.00    10000.00
04928            -160.00     9800.00
04929            -160.00    10000.00
04930            -180.00     9800.00
04931            -140.00     9800.00
04932            -140.00     9800.00
04933            -160.00     9800.00
04934            -160.00     9800.00
04935            -160.00     9800.00
04936            -160.00     9800.00
04937            -160.00     9800.00
04938            -140.00     9800.00
04939            -160.00     9600.00
04940            -160.00     9600.00
04941            -160.00     9400.00
04942            -160.00     9400.00
04943            -160.00     9400.00
04944            -160.00     9200.00
04945            -160.00     9200.00
04946            -140.00     9000.00
04947            -160.00     9200.00
04948            -140.00     9000.00
04949            -160.00     9000.00
04950            -140.00     8800.00
04951            -160.00     9000.00
04952            -160.00     8600.00
04953            -160.00     8600.00
04954            -160.00     8400.00
04955            -160.00     8400.00
04956            -160.00     8200.00
04957            -140.00     8200.00
04958            -160.00     8200.00
04959            -140.00     7800.00
04960            -160.00     7800.00
04961            -160.00     7600.00
04962            -160.00     7600.00
04963            -160.00     7600.00
04964            -140.00     7400.00
04965            -120.00     7200.00
04966            -140.00     7000.00
04967            -140.00     7000.00
04968            -140.00     6800.00
04969            -140.00     6600.00
04970            -120.00     6600.00
04971            -140.00     6600.00
04972            -120.00     6200.00
04973            -140.00     6200.00
04974            -140.00     6000.00
04975            -140.00     5800.00
04976            -140.00     5600.00
04977            -160.00     5400.00
04978            -100.00     5400.00
04979            -120.00     5200.00
04980            -120.00     5000.00
04981            -140.00     4800.00
04982            -120.00     4600.00
04983            -100.00     4600.00
04984            -140.00     4400.00
04985            -100.00     4200.00
04986            -100.00     3800.00
04987            -100.00     3800.00
04988            -100.00     3800.00
04989            -100.00     3400.00
04990            -100.00     3400.00
04991            -100.00     3200.00
04992             -80.00     3000.00
04993            -100.00     2800.00
04994            -100.00     2600.00
04995            -100.00     2400.00
04996            -100.00     2200.00
04997             -80.00     2000.00
04998             -80.00     1800.00
04999             -60.00     1600.00
05000             -80.00     1400.00
