Unit:(mV)
                     CH1         CH2
Frequency              ? 299.040 kHz
00001              20.00    -1400.00
00002             180.00    -1400.00
00003             720.00    -1800.00
00004             860.00    -2200.00
00005              20.00    -2200.00
00006            -760.00    -2600.00
00007           -1060.00    -2600.00
00008            -900.00    -2400.00
00009             320.00    -2800.00
00010             460.00    -3400.00
00011            -160.00    -2800.00
00012             300.00    -3800.00
00013             160.00    -3400.00
00014             -20.00    -3400.00
00015             220.00    -4400.00
00016             -80.00    -3800.00
00017             220.00    -4400.00
00018             260.00    -4400.00
00019            -160.00    -4600.00
00020             -60.00    -5000.00
00021               0.00    -4600.00
00022             100.00    -5000.00
00023              80.00    -5400.00
00024             100.00    -5200.00
00025              60.00    -5800.00
00026               0.00    -5800.00
00027             220.00    -6000.00
00028             100.00    -6000.00
00029              20.00    -6000.00
00030             140.00    -6600.00
00031             160.00    -6200.00
00032             100.00    -6600.00
00033              20.00    -6600.00
00034             100.00    -6800.00
00035             220.00    -7000.00
00036             140.00    -7000.00
00037             140.00    -7400.00
00038             160.00    -7200.00
00039             140.00    -7400.00
00040             160.00    -7600.00
00041             220.00    -7600.00
00042             160.00    -7800.00
00043             140.00    -8000.00
00044             220.00    -8200.00
00045             240.00    -8200.00
00046             220.00    -8400.00
00047             220.00    -8400.00
00048             260.00    -8400.00
00049             220.00    -8400.00
00050             240.00    -8600.00
00051             260.00    -8800.00
00052             300.00    -9000.00
00053             280.00    -9000.00
00054             300.00    -9000.00
00055             320.00    -9000.00
00056             320.00    -9000.00
00057             380.00    -9200.00
00058             420.00    -9200.00
00059             400.00    -9200.00
00060             380.00    -9200.00
00061             400.00    -9400.00
00062             420.00    -9400.00
00063             460.00    -9400.00
00064             480.00    -9400.00
00065             540.00    -9400.00
00066             540.00    -9800.00
00067             560.00    -9600.00
00068             580.00    -9800.00
00069             620.00    -9800.00
00070             640.00    -9800.00
00071             700.00    -9800.00
00072             720.00    -9800.00
00073             760.00    -9800.00
00074             800.00    -9800.00
00075             860.00    -9800.00
00076             880.00    -9800.00
00077             940.00    -9800.00
00078            1020.00    -9800.00
00079            1040.00   -10000.00
00080            1100.00    -9800.00
00081            1180.00    -9800.00
00082            1200.00    -9800.00
00083            1260.00    -9800.00
00084            1320.00    -9800.00
00085            1380.00    -9800.00
00086            1420.00    -9800.00
00087            1440.00    -9600.00
00088            1500.00    -9600.00
00089            1520.00    -9400.00
00090            1520.00    -9400.00
00091            1540.00    -9400.00
00092            1540.00    -9400.00
00093            1540.00    -9400.00
00094            1500.00    -9400.00
00095            1500.00    -9200.00
00096            1460.00    -9200.00
00097            1440.00    -9200.00
00098            1420.00    -9200.00
00099            1360.00    -9000.00
00100            1280.00    -9000.00
00101            1220.00    -8800.00
00102            1180.00    -8800.00
00103            1120.00    -8600.00
00104            1060.00    -8600.00
00105            1020.00    -8400.00
00106             940.00    -8400.00
00107             880.00    -8200.00
00108             820.00    -8200.00
00109             780.00    -8200.00
00110             740.00    -8000.00
00111             700.00    -7800.00
00112             640.00    -7600.00
00113             620.00    -7600.00
00114             540.00    -7400.00
00115             500.00    -7200.00
00116             500.00    -7400.00
00117             480.00    -7000.00
00118             460.00    -7000.00
00119             400.00    -6800.00
00120             380.00    -6800.00
00121             340.00    -6600.00
00122             320.00    -6400.00
00123             340.00    -6200.00
00124             300.00    -6200.00
00125             300.00    -6000.00
00126             260.00    -5800.00
00127             260.00    -5800.00
00128             240.00    -5600.00
00129             220.00    -5400.00
00130             220.00    -5200.00
00131             220.00    -5000.00
00132             200.00    -5000.00
00133             180.00    -4800.00
00134             160.00    -4600.00
00135             160.00    -4400.00
00136             160.00    -4200.00
00137             160.00    -4200.00
00138             160.00    -3800.00
00139             160.00    -3800.00
00140             140.00    -3600.00
00141             120.00    -3400.00
00142             140.00    -3400.00
00143             120.00    -3000.00
00144             140.00    -3000.00
00145             120.00    -2800.00
00146             140.00    -2600.00
00147              80.00    -2400.00
00148             100.00    -2200.00
00149              80.00    -2000.00
00150              80.00    -1800.00
00151              80.00    -1800.00
00152              80.00    -1400.00
00153              80.00    -1200.00
00154              60.00    -1200.00
00155              60.00     -800.00
00156              80.00     -600.00
00157              60.00     -600.00
00158              80.00     -400.00
00159              60.00     -200.00
00160              80.00        0.00
00161              60.00      200.00
00162             100.00      400.00
00163             160.00      600.00
00164             160.00      800.00
00165             160.00     1000.00
00166             140.00     1000.00
00167             100.00     1200.00
00168             140.00     1200.00
00169             400.00     1800.00
00170            1080.00     2000.00
00171             800.00     2200.00
00172            -360.00     2200.00
00173           -1280.00     2000.00
00174           -1440.00     2400.00
00175             140.00     3000.00
00176             940.00     2800.00
00177            -220.00     3000.00
00178             180.00     3400.00
00179             320.00     3000.00
00180            -300.00     4000.00
00181             100.00     3600.00
00182            -100.00     3400.00
00183             180.00     4600.00
00184             340.00     3800.00
00185            -420.00     4200.00
00186              60.00     5000.00
00187               0.00     4600.00
00188            -240.00     5200.00
00189             140.00     4800.00
00190               0.00     5200.00
00191             -20.00     5800.00
00192            -180.00     5000.00
00193              20.00     6200.00
00194              60.00     5800.00
00195            -240.00     6000.00
00196               0.00     6200.00
00197             -80.00     6000.00
00198            -100.00     6600.00
00199            -160.00     6400.00
00200            -140.00     6800.00
00201             -20.00     7000.00
00202            -100.00     6800.00
00203             -80.00     7200.00
00204            -160.00     7200.00
00205            -160.00     7600.00
00206            -160.00     7400.00
00207            -100.00     7800.00
00208            -160.00     7600.00
00209            -180.00     7800.00
00210            -180.00     8200.00
00211            -220.00     8200.00
00212            -180.00     8200.00
00213            -180.00     8400.00
00214            -160.00     8400.00
00215            -260.00     8400.00
00216            -260.00     8600.00
00217            -240.00     8600.00
00218            -260.00     8800.00
00219            -260.00     9000.00
00220            -320.00     9000.00
00221            -320.00     9000.00
00222            -340.00     9200.00
00223            -300.00     9200.00
00224            -320.00     9200.00
00225            -340.00     9200.00
00226            -400.00     9400.00
00227            -400.00     9400.00
00228            -420.00     9400.00
00229            -460.00     9400.00
00230            -460.00     9600.00
00231            -480.00     9600.00
00232            -480.00     9600.00
00233            -500.00     9800.00
00234            -560.00     9800.00
00235            -600.00     9800.00
00236            -620.00     9800.00
00237            -620.00     9800.00
00238            -700.00     9800.00
00239            -740.00    10000.00
00240            -760.00     9800.00
00241            -780.00     9800.00
00242            -860.00    10000.00
00243            -880.00    10000.00
00244            -940.00    10000.00
00245            -980.00     9800.00
00246           -1040.00     9800.00
00247           -1080.00     9800.00
00248           -1140.00     9800.00
00249           -1220.00     9800.00
00250           -1260.00     9800.00
00251           -1280.00     9800.00
00252           -1340.00     9800.00
00253           -1380.00     9800.00
00254           -1440.00     9800.00
00255           -1460.00     9600.00
00256           -1500.00     9600.00
00257           -1520.00     9600.00
00258           -1540.00     9400.00
00259           -1540.00     9400.00
00260           -1540.00     9400.00
00261           -1520.00     9400.00
00262           -1520.00     9400.00
00263           -1500.00     9200.00
00264           -1440.00     9200.00
00265           -1420.00     9000.00
00266           -1360.00     9000.00
00267           -1300.00     8800.00
00268           -1280.00     8800.00
00269           -1200.00     8600.00
00270           -1140.00     8600.00
00271           -1060.00     8600.00
00272           -1020.00     8600.00
00273            -960.00     8400.00
00274            -900.00     8200.00
00275            -860.00     8200.00
00276            -800.00     8000.00
00277            -740.00     8000.00
00278            -700.00     7800.00
00279            -640.00     7600.00
00280            -620.00     7600.00
00281            -580.00     7600.00
00282            -540.00     7400.00
00283            -480.00     7200.00
00284            -460.00     7200.00
00285            -420.00     7000.00
00286            -420.00     7000.00
00287            -400.00     6800.00
00288            -380.00     6600.00
00289            -340.00     6600.00
00290            -320.00     6200.00
00291            -320.00     6200.00
00292            -300.00     6000.00
00293            -260.00     6000.00
00294            -260.00     5800.00
00295            -260.00     5600.00
00296            -260.00     5400.00
00297            -220.00     5400.00
00298            -220.00     5200.00
00299            -180.00     5000.00
00300            -220.00     4800.00
00301            -180.00     4600.00
00302            -180.00     4400.00
00303            -160.00     4400.00
00304            -160.00     4200.00
00305            -140.00     3800.00
00306            -160.00     3800.00
00307            -140.00     3600.00
00308            -140.00     3400.00
00309            -140.00     3400.00
00310            -120.00     3200.00
00311            -100.00     3000.00
00312            -100.00     2800.00
00313            -120.00     2600.00
00314            -100.00     2200.00
00315            -100.00     2200.00
00316            -100.00     2000.00
00317             -80.00     1800.00
00318             -80.00     1800.00
00319             -80.00     1400.00
00320             -80.00     1400.00
00321             -80.00     1000.00
00322             -80.00     1000.00
00323             -80.00      800.00
00324             -60.00      600.00
00325             -60.00      400.00
00326             -60.00      200.00
00327             -60.00      200.00
00328             -60.00     -200.00
00329               0.00     -400.00
00330              60.00     -400.00
00331              80.00     -600.00
00332              60.00     -600.00
00333              20.00    -1000.00
00334              20.00    -1200.00
00335              20.00    -1400.00
00336             100.00    -1400.00
00337             480.00    -1800.00
00338             920.00    -2000.00
00339             420.00    -2200.00
00340            -500.00    -2400.00
00341            -980.00    -2600.00
00342           -1120.00    -2600.00
00343            -180.00    -2600.00
00344             660.00    -3200.00
00345             -60.00    -3000.00
00346              80.00    -3400.00
00347             340.00    -3800.00
00348            -100.00    -3200.00
00349             200.00    -3800.00
00350              20.00    -4000.00
00351               0.00    -3800.00
00352             380.00    -4400.00
00353             -20.00    -4200.00
00354            -100.00    -4600.00
00355               0.00    -4800.00
00356              60.00    -4600.00
00357              80.00    -5400.00
00358              80.00    -5200.00
00359              80.00    -5600.00
00360               0.00    -5600.00
00361             120.00    -5800.00
00362             220.00    -6000.00
00363              20.00    -6000.00
00364             100.00    -6200.00
00365             140.00    -6200.00
00366             160.00    -6200.00
00367              60.00    -6600.00
00368              60.00    -6800.00
00369             180.00    -7000.00
00370             160.00    -7000.00
00371             140.00    -7000.00
00372             160.00    -7400.00
00373             160.00    -7200.00
00374             140.00    -7600.00
00375             220.00    -7600.00
00376             180.00    -7800.00
00377             140.00    -7800.00
00378             160.00    -8000.00
00379             240.00    -8200.00
00380             220.00    -8200.00
00381             220.00    -8400.00
00382             240.00    -8400.00
00383             240.00    -8400.00
00384             220.00    -8600.00
00385             260.00    -8600.00
00386             300.00    -8600.00
00387             280.00    -9000.00
00388             260.00    -9000.00
00389             320.00    -9000.00
00390             320.00    -9000.00
00391             340.00    -9200.00
00392             400.00    -9400.00
00393             400.00    -9200.00
00394             380.00    -9400.00
00395             400.00    -9400.00
00396             420.00    -9400.00
00397             440.00    -9400.00
00398             460.00    -9400.00
00399             540.00    -9600.00
00400             540.00    -9800.00
00401             540.00    -9600.00
00402             580.00    -9800.00
00403             620.00    -9800.00
00404             620.00    -9800.00
00405             700.00   -10000.00
00406             720.00    -9800.00
00407             740.00    -9800.00
00408             800.00    -9800.00
00409             820.00    -9800.00
00410             860.00    -9800.00
00411             900.00    -9800.00
00412             980.00    -9800.00
00413            1040.00    -9800.00
00414            1100.00    -9800.00
00415            1140.00    -9800.00
00416            1180.00    -9800.00
00417            1220.00    -9800.00
00418            1300.00    -9800.00
00419            1360.00    -9600.00
00420            1400.00    -9600.00
00421            1420.00    -9800.00
00422            1440.00    -9600.00
00423            1500.00    -9800.00
00424            1520.00    -9400.00
00425            1540.00    -9400.00
00426            1540.00    -9400.00
00427            1540.00    -9400.00
00428            1540.00    -9400.00
00429            1520.00    -9200.00
00430            1500.00    -9200.00
00431            1460.00    -9200.00
00432            1440.00    -9000.00
00433            1380.00    -9000.00
00434            1340.00    -9000.00
00435            1260.00    -8600.00
00436            1200.00    -8800.00
00437            1120.00    -8600.00
00438            1100.00    -8600.00
00439            1040.00    -8600.00
00440             980.00    -8400.00
00441             900.00    -8400.00
00442             860.00    -8200.00
00443             800.00    -8200.00
00444             740.00    -7800.00
00445             720.00    -8000.00
00446             660.00    -7800.00
00447             620.00    -7600.00
00448             560.00    -7600.00
00449             540.00    -7200.00
00450             500.00    -7200.00
00451             480.00    -7000.00
00452             460.00    -7000.00
00453             420.00    -7000.00
00454             380.00    -6800.00
00455             360.00    -6600.00
00456             320.00    -6400.00
00457             320.00    -6400.00
00458             320.00    -6200.00
00459             300.00    -6000.00
00460             280.00    -6000.00
00461             260.00    -5800.00
00462             220.00    -5600.00
00463             220.00    -5400.00
00464             220.00    -5400.00
00465             220.00    -5200.00
00466             220.00    -5000.00
00467             220.00    -4800.00
00468             180.00    -4600.00
00469             160.00    -4400.00
00470             160.00    -4400.00
00471             160.00    -4200.00
00472             160.00    -4000.00
00473             160.00    -3800.00
00474             140.00    -3600.00
00475             120.00    -3400.00
00476             100.00    -3400.00
00477             100.00    -3200.00
00478             140.00    -3000.00
00479             120.00    -2600.00
00480             100.00    -2600.00
00481             100.00    -2400.00
00482             100.00    -2400.00
00483              80.00    -2000.00
00484             100.00    -1800.00
00485              80.00    -1800.00
00486              80.00    -1400.00
00487              80.00    -1200.00
00488              80.00    -1200.00
00489              60.00     -800.00
00490              80.00     -600.00
00491              80.00     -600.00
00492              80.00     -400.00
00493              80.00     -200.00
00494              80.00        0.00
00495              60.00      200.00
00496              80.00      400.00
00497             140.00      400.00
00498             160.00      600.00
00499             160.00     1000.00
00500             140.00     1000.00
00501             100.00     1200.00
00502             100.00     1400.00
00503             220.00     1400.00
00504             840.00     1800.00
00505            1080.00     2000.00
00506             140.00     2200.00
00507            -960.00     2200.00
00508           -1540.00     2000.00
00509            -660.00     3000.00
00510             980.00     3000.00
00511             220.00     2800.00
00512            -160.00     3400.00
00513             480.00     3000.00
00514            -140.00     3600.00
00515            -100.00     4200.00
00516              60.00     3400.00
00517             -60.00     4400.00
00518             480.00     4200.00
00519            -220.00     3800.00
00520            -260.00     4800.00
00521             160.00     4600.00
00522            -260.00     5000.00
00523               0.00     5200.00
00524              80.00     4800.00
00525             -40.00     5800.00
00526            -100.00     5400.00
00527            -140.00     5600.00
00528             140.00     6000.00
00529            -160.00     5800.00
00530             -80.00     6200.00
00531             -20.00     6200.00
00532            -100.00     6400.00
00533            -100.00     6600.00
00534            -180.00     6600.00
00535             -60.00     7000.00
00536             -80.00     6600.00
00537            -100.00     7000.00
00538            -100.00     7200.00
00539            -140.00     7400.00
00540            -160.00     7600.00
00541            -140.00     7400.00
00542            -100.00     7800.00
00543            -220.00     7600.00
00544            -160.00     8000.00
00545            -220.00     7800.00
00546            -180.00     8200.00
00547            -180.00     8200.00
00548            -160.00     8200.00
00549            -220.00     8600.00
00550            -280.00     8400.00
00551            -240.00     8600.00
00552            -240.00     8600.00
00553            -240.00     8800.00
00554            -280.00     8800.00
00555            -300.00     9200.00
00556            -340.00     9200.00
00557            -320.00     9200.00
00558            -320.00     9200.00
00559            -320.00     9400.00
00560            -380.00     9200.00
00561            -400.00     9400.00
00562            -400.00     9400.00
00563            -460.00     9400.00
00564            -460.00     9800.00
00565            -460.00     9600.00
00566            -480.00     9800.00
00567            -500.00     9800.00
00568            -540.00     9800.00
00569            -580.00     9800.00
00570            -640.00     9600.00
00571            -620.00     9800.00
00572            -640.00     9800.00
00573            -700.00     9800.00
00574            -740.00     9800.00
00575            -780.00     9800.00
00576            -820.00    10000.00
00577            -880.00    10000.00
00578            -900.00     9800.00
00579            -960.00     9800.00
00580           -1020.00     9800.00
00581           -1060.00    10000.00
00582           -1120.00     9800.00
00583           -1200.00     9800.00
00584           -1260.00     9800.00
00585           -1280.00     9800.00
00586           -1340.00     9800.00
00587           -1380.00     9800.00
00588           -1440.00     9800.00
00589           -1460.00     9800.00
00590           -1500.00     9600.00
00591           -1500.00     9600.00
00592           -1520.00     9400.00
00593           -1520.00     9400.00
00594           -1540.00     9400.00
00595           -1520.00     9400.00
00596           -1540.00     9400.00
00597           -1520.00     9400.00
00598           -1460.00     9200.00
00599           -1420.00     9200.00
00600           -1380.00     9000.00
00601           -1340.00     8800.00
00602           -1280.00     8800.00
00603           -1220.00     8600.00
00604           -1180.00     8600.00
00605           -1100.00     8600.00
00606           -1040.00     8400.00
00607            -980.00     8400.00
00608            -940.00     8400.00
00609            -880.00     8200.00
00610            -820.00     8200.00
00611            -760.00     8200.00
00612            -720.00     7800.00
00613            -660.00     7800.00
00614            -640.00     7600.00
00615            -620.00     7600.00
00616            -560.00     7400.00
00617            -500.00     7400.00
00618            -480.00     7000.00
00619            -460.00     7000.00
00620            -420.00     7000.00
00621            -400.00     6800.00
00622            -380.00     6600.00
00623            -340.00     6400.00
00624            -320.00     6400.00
00625            -320.00     6200.00
00626            -300.00     6000.00
00627            -280.00     6000.00
00628            -260.00     6000.00
00629            -260.00     5800.00
00630            -260.00     5400.00
00631            -240.00     5400.00
00632            -220.00     5200.00
00633            -220.00     5000.00
00634            -220.00     4800.00
00635            -200.00     4600.00
00636            -180.00     4400.00
00637            -180.00     4400.00
00638            -160.00     4200.00
00639            -160.00     4200.00
00640            -160.00     3800.00
00641            -160.00     3800.00
00642            -160.00     3400.00
00643            -160.00     3400.00
00644            -140.00     3400.00
00645            -100.00     3000.00
00646             -80.00     2800.00
00647             -80.00     2600.00
00648             -80.00     2600.00
00649            -100.00     2200.00
00650            -100.00     2000.00
00651            -140.00     2000.00
00652            -160.00     1600.00
00653            -160.00     1600.00
00654            -140.00     1400.00
00655            -100.00     1200.00
00656             -60.00     1000.00
00657             -20.00      600.00
00658               0.00      600.00
00659             -20.00      400.00
00660             -20.00      200.00
00661             -80.00      200.00
00662            -100.00     -200.00
00663             -80.00     -200.00
00664               0.00     -400.00
00665              60.00     -600.00
00666             100.00     -600.00
00667              80.00    -1000.00
00668              60.00    -1000.00
00669              60.00    -1200.00
00670              60.00    -1400.00
00671             240.00    -1600.00
00672             780.00    -2000.00
00673             720.00    -2200.00
00674            -160.00    -2200.00
00675            -880.00    -2600.00
00676           -1100.00    -2600.00
00677            -700.00    -2200.00
00678             580.00    -3000.00
00679             360.00    -3200.00
00680             -80.00    -3000.00
00681             400.00    -3800.00
00682               0.00    -3400.00
00683             -20.00    -3400.00
00684             100.00    -4200.00
00685            -140.00    -3800.00
00686             280.00    -4400.00
00687             220.00    -4400.00
00688            -100.00    -4600.00
00689              20.00    -5000.00
00690              40.00    -4600.00
00691             100.00    -5200.00
00692              60.00    -5400.00
00693              80.00    -5400.00
00694               0.00    -5800.00
00695               0.00    -5600.00
00696             220.00    -6000.00
00697             120.00    -6000.00
00698             100.00    -6200.00
00699             160.00    -6400.00
00700             160.00    -6200.00
00701              80.00    -6600.00
00702               0.00    -6600.00
00703             100.00    -6800.00
00704             160.00    -7000.00
00705             100.00    -7000.00
00706             160.00    -7200.00
00707             180.00    -7200.00
00708             180.00    -7400.00
00709             220.00    -7600.00
00710             200.00    -7800.00
00711             160.00    -8000.00
00712             140.00    -7800.00
00713             220.00    -8200.00
00714             220.00    -8200.00
00715             180.00    -8400.00
00716             220.00    -8400.00
00717             260.00    -8600.00
00718             240.00    -8400.00
00719             240.00    -8600.00
00720             300.00    -8800.00
00721             300.00    -8800.00
00722             260.00    -9000.00
00723             260.00    -9000.00
00724             300.00    -9000.00
00725             320.00    -9200.00
00726             380.00    -9200.00
00727             420.00    -9200.00
00728             400.00    -9200.00
00729             400.00    -9400.00
00730             400.00    -9400.00
00731             420.00    -9400.00
00732             420.00    -9600.00
00733             480.00    -9600.00
00734             540.00    -9600.00
00735             540.00    -9600.00
00736             560.00    -9600.00
00737             600.00    -9800.00
00738             640.00    -9800.00
00739             660.00    -9800.00
00740             700.00    -9800.00
00741             720.00    -9800.00
00742             740.00    -9800.00
00743             800.00    -9800.00
00744             860.00   -10000.00
00745             880.00    -9800.00
00746             960.00    -9800.00
00747            1020.00    -9800.00
00748            1060.00    -9800.00
00749            1100.00    -9800.00
00750            1180.00    -9800.00
00751            1200.00    -9800.00
00752            1280.00    -9800.00
00753            1340.00    -9600.00
00754            1400.00    -9600.00
00755            1440.00    -9800.00
00756            1480.00    -9800.00
00757            1480.00    -9600.00
00758            1500.00    -9400.00
00759            1520.00    -9400.00
00760            1540.00    -9400.00
00761            1540.00    -9400.00
00762            1520.00    -9400.00
00763            1520.00    -9400.00
00764            1500.00    -9200.00
00765            1480.00    -9000.00
00766            1460.00    -9200.00
00767            1420.00    -9000.00
00768            1340.00    -9000.00
00769            1280.00    -8800.00
00770            1220.00    -8600.00
00771            1140.00    -8600.00
00772            1100.00    -8600.00
00773            1060.00    -8400.00
00774             980.00    -8400.00
00775             940.00    -8400.00
00776             860.00    -8200.00
00777             800.00    -8200.00
00778             780.00    -7800.00
00779             720.00    -7800.00
00780             700.00    -7800.00
00781             620.00    -7600.00
00782             580.00    -7600.00
00783             540.00    -7200.00
00784             500.00    -7400.00
00785             480.00    -7200.00
00786             480.00    -7000.00
00787             440.00    -7000.00
00788             400.00    -6800.00
00789             380.00    -6600.00
00790             340.00    -6600.00
00791             300.00    -6200.00
00792             320.00    -6200.00
00793             300.00    -6000.00
00794             300.00    -6000.00
00795             260.00    -5800.00
00796             240.00    -5600.00
00797             220.00    -5400.00
00798             220.00    -5200.00
00799             240.00    -5200.00
00800             220.00    -5200.00
00801             220.00    -5000.00
00802             180.00    -4800.00
00803             180.00    -4400.00
00804             160.00    -4400.00
00805             160.00    -4200.00
00806             160.00    -4000.00
00807             160.00    -3800.00
00808             140.00    -3800.00
00809             140.00    -3400.00
00810             120.00    -3400.00
00811             140.00    -3200.00
00812             140.00    -3000.00
00813             120.00    -2800.00
00814             120.00    -2800.00
00815             120.00    -2600.00
00816             100.00    -2200.00
00817             100.00    -2200.00
00818             100.00    -2000.00
00819             100.00    -1800.00
00820             100.00    -1800.00
00821              80.00    -1400.00
00822              80.00    -1200.00
00823              80.00     -800.00
00824              80.00     -800.00
00825              60.00     -600.00
00826              60.00     -400.00
00827              80.00     -400.00
00828              80.00     -200.00
00829              80.00      200.00
00830              80.00      200.00
00831             120.00      400.00
00832             180.00      600.00
00833             180.00      800.00
00834             140.00     1000.00
00835             120.00     1000.00
00836             100.00     1400.00
00837             140.00     1400.00
00838             540.00     1800.00
00839            1120.00     2000.00
00840             620.00     2200.00
00841            -580.00     2200.00
00842           -1360.00     2200.00
00843           -1280.00     2600.00
00844             480.00     3000.00
00845             780.00     2800.00
00846            -300.00     3000.00
00847             320.00     3200.00
00848             200.00     3200.00
00849            -300.00     4200.00
00850             140.00     3600.00
00851            -140.00     3800.00
00852             320.00     4600.00
00853             200.00     3800.00
00854            -460.00     4400.00
00855             140.00     4800.00
00856            -100.00     4600.00
00857            -180.00     5200.00
00858             140.00     4800.00
00859             -60.00     5400.00
00860             -20.00     5600.00
00861            -180.00     5200.00
00862              80.00     6000.00
00863             -20.00     5800.00
00864            -220.00     6200.00
00865               0.00     6200.00
00866             -80.00     6200.00
00867             -80.00     6600.00
00868            -180.00     6200.00
00869            -100.00     7000.00
00870             -60.00     6800.00
00871            -100.00     7000.00
00872             -80.00     7000.00
00873            -140.00     7200.00
00874            -160.00     7400.00
00875            -160.00     7400.00
00876            -100.00     7600.00
00877            -160.00     7800.00
00878            -180.00     7800.00
00879            -180.00     8200.00
00880            -200.00     8000.00
00881            -160.00     8200.00
00882            -180.00     8200.00
00883            -160.00     8400.00
00884            -300.00     8400.00
00885            -240.00     8400.00
00886            -240.00     8600.00
00887            -260.00     8600.00
00888            -260.00     9000.00
00889            -300.00     9000.00
00890            -320.00     9000.00
00891            -340.00     9200.00
00892            -280.00     9200.00
00893            -320.00     9200.00
00894            -340.00     9400.00
00895            -380.00     9400.00
00896            -400.00     9400.00
00897            -420.00     9400.00
00898            -460.00     9600.00
00899            -460.00     9400.00
00900            -480.00     9400.00
00901            -500.00     9800.00
00902            -540.00     9600.00
00903            -580.00     9800.00
00904            -620.00     9800.00
00905            -620.00     9800.00
00906            -620.00     9800.00
00907            -700.00     9800.00
00908            -740.00     9800.00
00909            -780.00     9800.00
00910            -800.00     9800.00
00911            -860.00     9800.00
00912            -900.00     9800.00
00913            -940.00     9800.00
00914            -980.00     9800.00
00915           -1060.00     9800.00
00916           -1100.00    10000.00
00917           -1140.00     9800.00
00918           -1220.00    10000.00
00919           -1260.00     9800.00
00920           -1300.00     9800.00
00921           -1360.00     9800.00
00922           -1420.00     9600.00
00923           -1440.00     9800.00
00924           -1460.00     9800.00
00925           -1500.00     9400.00
00926           -1520.00     9600.00
00927           -1540.00     9400.00
00928           -1540.00     9400.00
00929           -1520.00     9400.00
00930           -1540.00     9400.00
00931           -1520.00     9400.00
00932           -1480.00     9200.00
00933           -1440.00     9200.00
00934           -1380.00     9000.00
00935           -1360.00     9000.00
00936           -1300.00     9000.00
00937           -1260.00     8800.00
00938           -1200.00     8800.00
00939           -1120.00     8600.00
00940           -1060.00     8400.00
00941           -1000.00     8400.00
00942            -960.00     8400.00
00943            -900.00     8400.00
00944            -820.00     8200.00
00945            -780.00     8000.00
00946            -720.00     7800.00
00947            -700.00     7800.00
00948            -640.00     7800.00
00949            -620.00     7800.00
00950            -580.00     7600.00
00951            -520.00     7400.00
00952            -500.00     7400.00
00953            -460.00     7000.00
00954            -440.00     7000.00
00955            -420.00     6800.00
00956            -400.00     6800.00
00957            -380.00     6600.00
00958            -340.00     6400.00
00959            -320.00     6200.00
00960            -320.00     6200.00
00961            -300.00     6000.00
00962            -260.00     6000.00
00963            -260.00     5800.00
00964            -260.00     5400.00
00965            -240.00     5400.00
00966            -220.00     5200.00
00967            -220.00     5200.00
00968            -200.00     5000.00
00969            -200.00     4800.00
00970            -200.00     4600.00
00971            -180.00     4400.00
00972            -160.00     4200.00
00973            -160.00     4000.00
00974            -160.00     4000.00
00975            -160.00     3600.00
00976            -160.00     3600.00
00977            -140.00     3400.00
00978            -160.00     3400.00
00979            -140.00     3000.00
00980            -140.00     3000.00
00981            -100.00     2600.00
00982            -120.00     2600.00
00983            -140.00     2200.00
00984            -100.00     2000.00
00985            -100.00     2000.00
00986            -100.00     1800.00
00987            -100.00     1400.00
00988             -80.00     1400.00
00989             -80.00     1200.00
00990            -100.00     1200.00
00991             -80.00     1000.00
00992             -80.00      800.00
00993             -80.00      600.00
00994             -80.00      400.00
00995             -60.00      200.00
00996             -60.00     -200.00
00997             -60.00     -200.00
00998               0.00     -400.00
00999              80.00     -600.00
01000              80.00     -600.00
01001              60.00     -800.00
01002              20.00    -1000.00
01003              20.00    -1200.00
01004              20.00    -1400.00
01005             140.00    -1400.00
01006             580.00    -1600.00
01007             920.00    -2000.00
01008             260.00    -2200.00
01009            -640.00    -2400.00
01010           -1040.00    -2600.00
01011           -1040.00    -2200.00
01012              60.00    -2600.00
01013             620.00    -3400.00
01014            -140.00    -3000.00
01015             220.00    -3400.00
01016             280.00    -3600.00
01017             -80.00    -3400.00
01018             220.00    -4200.00
01019             -20.00    -4000.00
01020             100.00    -4200.00
01021             340.00    -4400.00
01022             -80.00    -4400.00
01023             -80.00    -5000.00
01024               0.00    -4600.00
01025              60.00    -5000.00
01026             100.00    -5400.00
01027             100.00    -5200.00
01028              80.00    -5600.00
01029               0.00    -5400.00
01030             160.00    -5800.00
01031             180.00    -6000.00
01032              20.00    -6000.00
01033             120.00    -6600.00
01034             140.00    -6200.00
01035             140.00    -6600.00
01036              20.00    -6800.00
01037              80.00    -6600.00
01038             220.00    -7000.00
01039             160.00    -7000.00
01040             140.00    -7000.00
01041             160.00    -7200.00
01042             160.00    -7400.00
01043             160.00    -7600.00
01044             180.00    -7800.00
01045             180.00    -7800.00
01046             140.00    -8000.00
01047             160.00    -8000.00
01048             240.00    -8200.00
01049             220.00    -8200.00
01050             220.00    -8400.00
01051             260.00    -8600.00
01052             240.00    -8600.00
01053             220.00    -8600.00
01054             300.00    -8600.00
01055             300.00    -8800.00
01056             280.00    -8800.00
01057             280.00    -9000.00
01058             300.00    -9000.00
01059             320.00    -9200.00
01060             340.00    -9000.00
01061             400.00    -9200.00
01062             380.00    -9400.00
01063             400.00    -9400.00
01064             400.00    -9400.00
01065             420.00    -9400.00
01066             440.00    -9400.00
01067             480.00    -9400.00
01068             540.00    -9400.00
01069             560.00    -9800.00
01070             540.00    -9800.00
01071             560.00    -9800.00
01072             620.00    -9800.00
01073             640.00    -9800.00
01074             700.00    -9800.00
01075             740.00    -9800.00
01076             780.00    -9800.00
01077             800.00    -9800.00
01078             820.00    -9800.00
01079             880.00    -9800.00
01080             940.00    -9800.00
01081            1000.00    -9800.00
01082            1040.00    -9800.00
01083            1100.00    -9800.00
01084            1140.00   -10000.00
01085            1200.00    -9800.00
01086            1260.00    -9800.00
01087            1340.00    -9800.00
01088            1380.00    -9800.00
01089            1420.00    -9600.00
01090            1420.00    -9600.00
01091            1460.00    -9600.00
01092            1500.00    -9400.00
01093            1520.00    -9400.00
01094            1540.00    -9400.00
01095            1540.00    -9400.00
01096            1540.00    -9400.00
01097            1520.00    -9200.00
01098            1500.00    -9200.00
01099            1500.00    -9200.00
01100            1440.00    -9000.00
01101            1420.00    -9000.00
01102            1360.00    -9000.00
01103            1340.00    -9000.00
01104            1260.00    -9000.00
01105            1180.00    -8800.00
01106            1120.00    -8600.00
01107            1080.00    -8600.00
01108            1020.00    -8400.00
01109             960.00    -8400.00
01110             900.00    -8200.00
01111             820.00    -8200.00
01112             780.00    -8200.00
01113             720.00    -7800.00
01114             720.00    -7800.00
01115             640.00    -7800.00
01116             620.00    -7600.00
01117             560.00    -7600.00
01118             540.00    -7200.00
01119             480.00    -7200.00
01120             460.00    -7000.00
01121             460.00    -6800.00
01122             400.00    -7000.00
01123             380.00    -6800.00
01124             340.00    -6600.00
01125             340.00    -6600.00
01126             300.00    -6400.00
01127             300.00    -6200.00
01128             320.00    -6200.00
01129             300.00    -5800.00
01130             260.00    -5800.00
01131             240.00    -5400.00
01132             220.00    -5400.00
01133             220.00    -5200.00
01134             220.00    -5000.00
01135             220.00    -5000.00
01136             180.00    -4600.00
01137             180.00    -4600.00
01138             160.00    -4400.00
01139             160.00    -4200.00
01140             180.00    -4200.00
01141             160.00    -4000.00
01142             160.00    -3600.00
01143             140.00    -3600.00
01144             140.00    -3400.00
01145             120.00    -3400.00
01146             140.00    -3000.00
01147             140.00    -2800.00
01148             120.00    -2600.00
01149             120.00    -2600.00
01150             120.00    -2400.00
01151             100.00    -2200.00
01152             100.00    -2000.00
01153             100.00    -1800.00
01154             100.00    -1400.00
01155              80.00    -1400.00
01156              80.00    -1200.00
01157              80.00    -1000.00
01158              80.00     -800.00
01159              60.00     -600.00
01160              80.00     -600.00
01161              80.00     -400.00
01162              80.00     -200.00
01163              80.00        0.00
01164              80.00      200.00
01165              80.00      400.00
01166             160.00      400.00
01167             160.00      600.00
01168             160.00     1000.00
01169             100.00     1000.00
01170              80.00     1200.00
01171              80.00     1400.00
01172             300.00     1400.00
01173             960.00     1800.00
01174             980.00     2000.00
01175             -80.00     2200.00
01176           -1120.00     2200.00
01177           -1540.00     2200.00
01178            -340.00     3000.00
01179            1020.00     3000.00
01180               0.00     2800.00
01181             -20.00     3400.00
01182             440.00     3000.00
01183            -260.00     3800.00
01184               0.00     3800.00
01185               0.00     3400.00
01186              20.00     4600.00
01187             480.00     4200.00
01188            -340.00     4200.00
01189            -140.00     5000.00
01190             140.00     4600.00
01191            -300.00     5000.00
01192              80.00     5000.00
01193              40.00     5000.00
01194             -20.00     5800.00
01195            -140.00     5200.00
01196             -60.00     5800.00
01197             140.00     5800.00
01198            -180.00     5800.00
01199             -60.00     6200.00
01200             -20.00     6200.00
01201             -80.00     6600.00
01202            -100.00     6400.00
01203            -160.00     6800.00
01204             -20.00     7000.00
01205            -100.00     6800.00
01206             -60.00     7200.00
01207            -100.00     7000.00
01208            -120.00     7400.00
01209            -160.00     7600.00
01210            -100.00     7600.00
01211            -140.00     7800.00
01212            -180.00     7800.00
01213            -160.00     8000.00
01214            -220.00     8000.00
01215            -160.00     8200.00
01216            -180.00     8200.00
01217            -160.00     8400.00
01218            -240.00     8600.00
01219            -260.00     8400.00
01220            -220.00     8600.00
01221            -240.00     8600.00
01222            -240.00     8800.00
01223            -300.00     9000.00
01224            -300.00     9000.00
01225            -340.00     9200.00
01226            -300.00     9000.00
01227            -320.00     9200.00
01228            -340.00     9400.00
01229            -380.00     9200.00
01230            -380.00     9400.00
01231            -420.00     9400.00
01232            -480.00     9400.00
01233            -460.00     9600.00
01234            -460.00     9600.00
01235            -480.00     9800.00
01236            -500.00     9600.00
01237            -560.00     9800.00
01238            -600.00     9800.00
01239            -640.00     9800.00
01240            -640.00    10000.00
01241            -660.00    10000.00
01242            -720.00     9800.00
01243            -760.00     9800.00
01244            -780.00    10000.00
01245            -860.00     9800.00
01246            -880.00    10000.00
01247            -900.00     9800.00
01248            -960.00     9800.00
01249           -1020.00     9800.00
01250           -1060.00     9800.00
01251           -1140.00     9800.00
01252           -1220.00     9800.00
01253           -1260.00     9800.00
01254           -1280.00     9800.00
01255           -1340.00     9800.00
01256           -1380.00     9800.00
01257           -1440.00     9800.00
01258           -1460.00     9600.00
01259           -1500.00     9400.00
01260           -1500.00     9600.00
01261           -1520.00     9400.00
01262           -1520.00     9400.00
01263           -1540.00     9400.00
01264           -1520.00     9400.00
01265           -1520.00     9200.00
01266           -1500.00     9200.00
01267           -1440.00     9000.00
01268           -1420.00     9200.00
01269           -1360.00     9200.00
01270           -1340.00     9000.00
01271           -1300.00     8800.00
01272           -1220.00     8600.00
01273           -1140.00     8600.00
01274           -1060.00     8600.00
01275           -1040.00     8400.00
01276            -960.00     8400.00
01277            -900.00     8400.00
01278            -860.00     8200.00
01279            -800.00     8000.00
01280            -740.00     8000.00
01281            -700.00     7800.00
01282            -640.00     7800.00
01283            -620.00     7800.00
01284            -580.00     7400.00
01285            -560.00     7400.00
01286            -500.00     7200.00
01287            -480.00     7200.00
01288            -420.00     7000.00
01289            -420.00     7000.00
01290            -400.00     6800.00
01291            -380.00     6600.00
01292            -340.00     6400.00
01293            -320.00     6200.00
01294            -300.00     6200.00
01295            -300.00     6200.00
01296            -300.00     6000.00
01297            -260.00     5800.00
01298            -260.00     5800.00
01299            -260.00     5400.00
01300            -240.00     5200.00
01301            -200.00     5200.00
01302            -220.00     5000.00
01303            -220.00     4800.00
01304            -220.00     4600.00
01305            -200.00     4600.00
01306            -180.00     4400.00
01307            -160.00     4200.00
01308            -160.00     4000.00
01309            -160.00     3800.00
01310            -160.00     3600.00
01311            -140.00     3400.00
01312            -140.00     3200.00
01313            -140.00     3000.00
01314            -100.00     3000.00
01315            -100.00     2800.00
01316            -100.00     2600.00
01317            -140.00     2400.00
01318            -100.00     2400.00
01319            -100.00     2000.00
01320            -100.00     1800.00
01321             -80.00     1800.00
01322            -100.00     1400.00
01323            -100.00     1400.00
01324             -80.00     1200.00
01325            -100.00     1000.00
01326             -80.00     1000.00
01327             -80.00      600.00
01328             -80.00      400.00
01329             -60.00      200.00
01330             -20.00      200.00
01331             -60.00     -200.00
01332             -20.00     -200.00
01333              60.00     -400.00
01334              80.00     -600.00
01335              60.00     -800.00
01336              40.00    -1000.00
01337               0.00    -1200.00
01338              20.00    -1200.00
01339              80.00    -1200.00
01340             380.00    -1400.00
01341             880.00    -2000.00
01342             640.00    -2400.00
01343            -300.00    -2400.00
01344            -900.00    -2600.00
01345           -1100.00    -2400.00
01346            -500.00    -2400.00
01347             640.00    -3000.00
01348             140.00    -3000.00
01349             -60.00    -3000.00
01350             400.00    -3600.00
01351             -20.00    -3400.00
01352             120.00    -3600.00
01353             140.00    -4200.00
01354             -60.00    -3800.00
01355             340.00    -4400.00
01356             100.00    -4400.00
01357            -160.00    -4800.00
01358               0.00    -5000.00
01359              20.00    -4600.00
01360             100.00    -5200.00
01361              80.00    -5000.00
01362             100.00    -5400.00
01363               0.00    -5800.00
01364              60.00    -5600.00
01365             220.00    -6000.00
01366              60.00    -5800.00
01367              80.00    -6200.00
01368             140.00    -6400.00
01369             140.00    -6200.00
01370              80.00    -6800.00
01371              20.00    -6800.00
01372             160.00    -7000.00
01373             180.00    -7000.00
01374             100.00    -7200.00
01375             140.00    -7400.00
01376             160.00    -7200.00
01377             160.00    -7600.00
01378             180.00    -7600.00
01379             180.00    -7800.00
01380             140.00    -7800.00
01381             160.00    -8200.00
01382             220.00    -8200.00
01383             220.00    -8200.00
01384             180.00    -8400.00
01385             240.00    -8400.00
01386             240.00    -8600.00
01387             220.00    -8600.00
01388             240.00    -8600.00
01389             300.00    -8600.00
01390             300.00    -9000.00
01391             300.00    -9000.00
01392             300.00    -9000.00
01393             300.00    -9000.00
01394             320.00    -9200.00
01395             380.00    -9200.00
01396             400.00    -9400.00
01397             380.00    -9400.00
01398             380.00    -9400.00
01399             420.00    -9400.00
01400             440.00    -9400.00
01401             460.00    -9400.00
01402             540.00    -9400.00
01403             560.00    -9800.00
01404             540.00    -9800.00
01405             580.00    -9600.00
01406             620.00    -9800.00
01407             620.00    -9800.00
01408             680.00    -9800.00
01409             720.00    -9800.00
01410             740.00    -9800.00
01411             780.00    -9800.00
01412             820.00    -9800.00
01413             860.00    -9800.00
01414             900.00    -9800.00
01415             980.00    -9800.00
01416            1040.00    -9800.00
01417            1100.00    -9800.00
01418            1120.00    -9800.00
01419            1180.00    -9800.00
01420            1220.00    -9800.00
01421            1280.00    -9800.00
01422            1360.00    -9800.00
01423            1420.00    -9800.00
01424            1420.00    -9800.00
01425            1440.00    -9600.00
01426            1500.00    -9600.00
01427            1500.00    -9400.00
01428            1520.00    -9400.00
01429            1540.00    -9400.00
01430            1540.00    -9400.00
01431            1520.00    -9400.00
01432            1500.00    -9200.00
01433            1500.00    -9200.00
01434            1440.00    -9000.00
01435            1420.00    -9000.00
01436            1420.00    -9000.00
01437            1340.00    -9000.00
01438            1260.00    -9000.00
01439            1200.00    -8800.00
01440            1140.00    -8600.00
01441            1100.00    -8600.00
01442            1040.00    -8400.00
01443             980.00    -8400.00
01444             920.00    -8200.00
01445             860.00    -8200.00
01446             800.00    -8200.00
01447             740.00    -8000.00
01448             720.00    -7800.00
01449             660.00    -7800.00
01450             640.00    -7600.00
01451             580.00    -7600.00
01452             540.00    -7200.00
01453             500.00    -7200.00
01454             480.00    -7000.00
01455             480.00    -7000.00
01456             440.00    -7000.00
01457             380.00    -6800.00
01458             380.00    -6800.00
01459             340.00    -6600.00
01460             340.00    -6200.00
01461             320.00    -6200.00
01462             300.00    -6000.00
01463             300.00    -6000.00
01464             280.00    -5800.00
01465             240.00    -5800.00
01466             220.00    -5400.00
01467             220.00    -5400.00
01468             220.00    -5200.00
01469             220.00    -5000.00
01470             220.00    -5000.00
01471             180.00    -4600.00
01472             180.00    -4600.00
01473             160.00    -4400.00
01474             160.00    -4200.00
01475             160.00    -4200.00
01476             160.00    -3800.00
01477             160.00    -3600.00
01478             140.00    -3600.00
01479             140.00    -3400.00
01480             140.00    -3000.00
01481             140.00    -3000.00
01482             140.00    -2800.00
01483             120.00    -2600.00
01484             100.00    -2400.00
01485             100.00    -2200.00
01486             100.00    -2000.00
01487             100.00    -2000.00
01488              80.00    -1800.00
01489              80.00    -1400.00
01490              80.00    -1200.00
01491              80.00    -1200.00
01492              80.00    -1000.00
01493             100.00     -800.00
01494              80.00     -600.00
01495              80.00     -600.00
01496              60.00     -400.00
01497              60.00     -200.00
01498              80.00      200.00
01499              80.00      200.00
01500             140.00      400.00
01501             160.00      600.00
01502             160.00      800.00
01503             100.00     1000.00
01504             100.00     1000.00
01505             100.00     1400.00
01506             160.00     1400.00
01507             660.00     1800.00
01508            1120.00     2000.00
01509             400.00     2200.00
01510            -780.00     2200.00
01511           -1460.00     2200.00
01512           -1060.00     2800.00
01513             740.00     3000.00
01514             540.00     2800.00
01515            -280.00     3000.00
01516             420.00     3200.00
01517              20.00     3400.00
01518            -240.00     4200.00
01519             100.00     3400.00
01520            -140.00     3800.00
01521             420.00     4600.00
01522              20.00     3800.00
01523            -400.00     4600.00
01524             160.00     4600.00
01525            -180.00     4600.00
01526             -80.00     5200.00
01527             120.00     4800.00
01528             -20.00     5600.00
01529             -60.00     5600.00
01530            -180.00     5400.00
01531             100.00     6000.00
01532             -80.00     5600.00
01533            -160.00     6200.00
01534               0.00     6200.00
01535             -80.00     6200.00
01536             -80.00     6600.00
01537            -180.00     6400.00
01538             -60.00     7200.00
01539             -80.00     6800.00
01540            -100.00     7000.00
01541             -80.00     7200.00
01542            -140.00     7200.00
01543            -140.00     7600.00
01544            -160.00     7400.00
01545             -80.00     7800.00
01546            -180.00     7800.00
01547            -180.00     7800.00
01548            -200.00     8000.00
01549            -180.00     8000.00
01550            -160.00     8200.00
01551            -180.00     8200.00
01552            -200.00     8400.00
01553            -300.00     8400.00
01554            -240.00     8600.00
01555            -240.00     8600.00
01556            -240.00     8600.00
01557            -260.00     8800.00
01558            -300.00     9000.00
01559            -340.00     9200.00
01560            -340.00     9000.00
01561            -300.00     9200.00
01562            -320.00     9200.00
01563            -380.00     9200.00
01564            -400.00     9400.00
01565            -420.00     9400.00
01566            -440.00     9400.00
01567            -440.00     9400.00
01568            -460.00     9600.00
01569            -480.00     9600.00
01570            -500.00     9800.00
01571            -540.00     9800.00
01572            -580.00     9800.00
01573            -620.00     9800.00
01574            -620.00     9800.00
01575            -640.00     9800.00
01576            -720.00     9800.00
01577            -740.00     9800.00
01578            -780.00     9800.00
01579            -820.00    10000.00
01580            -880.00     9800.00
01581            -900.00     9800.00
01582            -940.00    10000.00
01583           -1020.00     9800.00
01584           -1060.00     9800.00
01585           -1100.00     9800.00
01586           -1180.00     9800.00
01587           -1240.00     9800.00
01588           -1260.00     9800.00
01589           -1300.00     9800.00
01590           -1360.00     9800.00
01591           -1400.00     9800.00
01592           -1440.00     9600.00
01593           -1460.00     9800.00
01594           -1500.00     9800.00
01595           -1520.00     9400.00
01596           -1520.00     9400.00
01597           -1540.00     9400.00
01598           -1520.00     9400.00
01599           -1520.00     9400.00
01600           -1500.00     9400.00
01601           -1480.00     9200.00
01602           -1420.00     9200.00
01603           -1380.00     9000.00
01604           -1340.00     9000.00
01605           -1300.00     8800.00
01606           -1220.00     9000.00
01607           -1180.00     8600.00
01608           -1100.00     8600.00
01609           -1060.00     8600.00
01610            -980.00     8400.00
01611            -940.00     8200.00
01612            -880.00     8200.00
01613            -800.00     8200.00
01614            -780.00     8000.00
01615            -700.00     7800.00
01616            -660.00     7800.00
01617            -640.00     7800.00
01618            -580.00     7600.00
01619            -560.00     7400.00
01620            -540.00     7200.00
01621            -480.00     7200.00
01622            -440.00     7000.00
01623            -420.00     7000.00
01624            -420.00     6800.00
01625            -400.00     6800.00
01626            -380.00     6600.00
01627            -340.00     6400.00
01628            -320.00     6200.00
01629            -300.00     6200.00
01630            -300.00     6000.00
01631            -300.00     5800.00
01632            -280.00     5600.00
01633            -260.00     5600.00
01634            -240.00     5400.00
01635            -220.00     5200.00
01636            -180.00     5000.00
01637            -220.00     5000.00
01638            -220.00     4600.00
01639            -220.00     4600.00
01640            -180.00     4400.00
01641            -160.00     4200.00
01642            -160.00     4200.00
01643            -160.00     3800.00
01644            -160.00     3800.00
01645            -160.00     3600.00
01646            -160.00     3400.00
01647            -140.00     3400.00
01648            -140.00     3000.00
01649            -140.00     2800.00
01650            -100.00     2800.00
01651            -120.00     2400.00
01652            -120.00     2400.00
01653            -100.00     2200.00
01654            -100.00     2000.00
01655            -100.00     1800.00
01656             -80.00     1600.00
01657            -100.00     1400.00
01658             -80.00     1200.00
01659             -80.00     1000.00
01660             -80.00     1000.00
01661             -80.00      600.00
01662             -80.00      600.00
01663             -60.00      400.00
01664             -20.00      200.00
01665             -60.00      200.00
01666             -60.00     -200.00
01667               0.00     -400.00
01668              80.00     -600.00
01669             100.00     -600.00
01670              60.00    -1000.00
01671              20.00    -1000.00
01672               0.00    -1200.00
01673              20.00    -1400.00
01674             180.00    -1400.00
01675             700.00    -1800.00
01676             880.00    -2200.00
01677             100.00    -2200.00
01678            -740.00    -2400.00
01679           -1060.00    -2600.00
01680            -940.00    -2200.00
01681             320.00    -2800.00
01682             500.00    -3200.00
01683            -160.00    -3000.00
01684             300.00    -3600.00
01685             160.00    -3600.00
01686             -20.00    -3400.00
01687             240.00    -4200.00
01688             -80.00    -3800.00
01689             200.00    -4200.00
01690             300.00    -4400.00
01691            -140.00    -4600.00
01692             -80.00    -5000.00
01693             -20.00    -4600.00
01694              80.00    -5000.00
01695              80.00    -5200.00
01696             100.00    -5400.00
01697              80.00    -5400.00
01698               0.00    -5600.00
01699             180.00    -6000.00
01700             120.00    -6000.00
01701              20.00    -6200.00
01702             100.00    -6600.00
01703             140.00    -6200.00
01704             140.00    -6600.00
01705              20.00    -6800.00
01706              80.00    -6600.00
01707             220.00    -7000.00
01708             140.00    -7000.00
01709             140.00    -7400.00
01710             160.00    -7200.00
01711             160.00    -7600.00
01712             140.00    -7600.00
01713             180.00    -7600.00
01714             160.00    -7800.00
01715             160.00    -7800.00
01716             180.00    -8200.00
01717             240.00    -8200.00
01718             220.00    -8200.00
01719             220.00    -8400.00
01720             260.00    -8400.00
01721             220.00    -8600.00
01722             240.00    -8800.00
01723             300.00    -8800.00
01724             300.00    -8800.00
01725             300.00    -9000.00
01726             300.00    -9000.00
01727             300.00    -9000.00
01728             340.00    -9200.00
01729             380.00    -9200.00
01730             420.00    -9200.00
01731             400.00    -9400.00
01732             380.00    -9400.00
01733             420.00    -9400.00
01734             420.00    -9400.00
01735             460.00    -9400.00
01736             500.00    -9600.00
01737             540.00    -9600.00
01738             540.00    -9600.00
01739             560.00    -9800.00
01740             620.00    -9800.00
01741             620.00    -9600.00
01742             640.00    -9800.00
01743             700.00    -9800.00
01744             740.00    -9800.00
01745             780.00    -9800.00
01746             800.00    -9800.00
01747             860.00    -9800.00
01748             880.00    -9800.00
01749             940.00    -9800.00
01750            1020.00    -9800.00
01751            1060.00    -9800.00
01752            1120.00    -9800.00
01753            1160.00    -9800.00
01754            1200.00    -9600.00
01755            1260.00    -9800.00
01756            1340.00    -9800.00
01757            1380.00    -9600.00
01758            1420.00    -9800.00
01759            1440.00    -9600.00
01760            1460.00    -9600.00
01761            1500.00    -9600.00
01762            1520.00    -9400.00
01763            1540.00    -9400.00
01764            1520.00    -9200.00
01765            1520.00    -9400.00
01766            1520.00    -9400.00
01767            1500.00    -9200.00
01768            1460.00    -9200.00
01769            1440.00    -9000.00
01770            1420.00    -9200.00
01771            1360.00    -9000.00
01772            1300.00    -9000.00
01773            1260.00    -8800.00
01774            1180.00    -8600.00
01775            1120.00    -8600.00
01776            1060.00    -8600.00
01777            1020.00    -8400.00
01778             940.00    -8400.00
01779             880.00    -8200.00
01780             820.00    -8200.00
01781             780.00    -8200.00
01782             720.00    -7800.00
01783             700.00    -7800.00
01784             660.00    -7600.00
01785             620.00    -7600.00
01786             560.00    -7200.00
01787             500.00    -7400.00
01788             480.00    -7000.00
01789             480.00    -7000.00
01790             460.00    -7000.00
01791             420.00    -6800.00
01792             380.00    -6800.00
01793             340.00    -6600.00
01794             320.00    -6400.00
01795             320.00    -6200.00
01796             300.00    -6200.00
01797             300.00    -6200.00
01798             300.00    -6000.00
01799             240.00    -5600.00
01800             220.00    -5600.00
01801             240.00    -5400.00
01802             220.00    -5200.00
01803             240.00    -5000.00
01804             220.00    -5000.00
01805             200.00    -4800.00
01806             160.00    -4600.00
01807             160.00    -4400.00
01808             160.00    -4400.00
01809             160.00    -4200.00
01810             160.00    -3800.00
01811             160.00    -3800.00
01812             140.00    -3600.00
01813             140.00    -3400.00
01814             140.00    -3400.00
01815             140.00    -3000.00
01816             140.00    -2800.00
01817             100.00    -2600.00
01818             140.00    -2600.00
01819             100.00    -2600.00
01820              80.00    -2200.00
01821             100.00    -2000.00
01822              80.00    -2000.00
01823              80.00    -1600.00
01824              80.00    -1400.00
01825              80.00    -1200.00
01826              80.00    -1000.00
01827              60.00     -800.00
01828              60.00     -600.00
01829              80.00     -600.00
01830              60.00     -400.00
01831              60.00     -200.00
01832              60.00        0.00
01833              60.00      200.00
01834              80.00      200.00
01835             160.00      600.00
01836             160.00      600.00
01837             160.00      600.00
01838             100.00     1000.00
01839             100.00     1400.00
01840             100.00     1400.00
01841             380.00     1400.00
01842            1040.00     1800.00
01843             840.00     2000.00
01844            -320.00     2200.00
01845           -1220.00     2000.00
01846           -1500.00     2200.00
01847              20.00     3200.00
01848             980.00     3000.00
01849            -180.00     3000.00
01850             160.00     3200.00
01851             360.00     3000.00
01852            -300.00     3800.00
01853              60.00     3600.00
01854             -80.00     3400.00
01855             160.00     4600.00
01856             380.00     4000.00
01857            -420.00     4200.00
01858               0.00     5000.00
01859              40.00     4600.00
01860            -260.00     5200.00
01861             140.00     5000.00
01862               0.00     5200.00
01863             -20.00     5800.00
01864            -160.00     5000.00
01865               0.00     6000.00
01866              80.00     6000.00
01867            -220.00     5800.00
01868               0.00     6400.00
01869             -60.00     6000.00
01870             -80.00     6600.00
01871            -140.00     6400.00
01872            -140.00     6800.00
01873             -20.00     6800.00
01874            -100.00     6800.00
01875             -60.00     7400.00
01876            -140.00     7000.00
01877            -140.00     7600.00
01878            -180.00     7400.00
01879            -100.00     7800.00
01880            -140.00     7800.00
01881            -200.00     7800.00
01882            -180.00     8000.00
01883            -220.00     8200.00
01884            -160.00     8200.00
01885            -180.00     8200.00
01886            -160.00     8400.00
01887            -260.00     8400.00
01888            -260.00     8400.00
01889            -240.00     8600.00
01890            -260.00     8600.00
01891            -260.00     8800.00
01892            -320.00     8600.00
01893            -320.00     9000.00
01894            -340.00     9000.00
01895            -300.00     9200.00
01896            -320.00     9200.00
01897            -340.00     9200.00
01898            -380.00     9400.00
01899            -400.00     9400.00
01900            -420.00     9400.00
01901            -480.00     9400.00
01902            -480.00     9400.00
01903            -480.00     9600.00
01904            -500.00     9800.00
01905            -520.00     9600.00
01906            -560.00     9800.00
01907            -620.00     9800.00
01908            -620.00     9800.00
01909            -620.00     9800.00
01910            -660.00     9800.00
01911            -740.00     9800.00
01912            -740.00    10000.00
01913            -800.00     9800.00
01914            -860.00     9800.00
01915            -880.00     9800.00
01916            -920.00     9800.00
01917            -960.00     9800.00
01918           -1020.00    10000.00
01919           -1080.00    10000.00
01920           -1140.00     9800.00
01921           -1220.00     9800.00
01922           -1260.00     9800.00
01923           -1280.00     9800.00
01924           -1340.00     9800.00
01925           -1380.00     9800.00
01926           -1440.00     9800.00
01927           -1440.00     9600.00
01928           -1500.00     9800.00
01929           -1520.00     9800.00
01930           -1520.00     9400.00
01931           -1520.00     9600.00
01932           -1520.00     9400.00
01933           -1540.00     9400.00
01934           -1520.00     9200.00
01935           -1500.00     9200.00
01936           -1440.00     9400.00
01937           -1380.00     9000.00
01938           -1360.00     9000.00
01939           -1300.00     9000.00
01940           -1280.00     8800.00
01941           -1200.00     8600.00
01942           -1120.00     8800.00
01943           -1060.00     8400.00
01944           -1020.00     8400.00
01945            -960.00     8400.00
01946            -900.00     8400.00
01947            -860.00     8200.00
01948            -800.00     8200.00
01949            -740.00     8000.00
01950            -700.00     7800.00
01951            -640.00     7800.00
01952            -620.00     7400.00
01953            -580.00     7600.00
01954            -560.00     7400.00
01955            -500.00     7200.00
01956            -480.00     7000.00
01957            -440.00     7000.00
01958            -420.00     6800.00
01959            -400.00     6600.00
01960            -380.00     6600.00
01961            -360.00     6600.00
01962            -320.00     6200.00
01963            -300.00     6200.00
01964            -300.00     6000.00
01965            -280.00     6000.00
01966            -260.00     5800.00
01967            -260.00     5600.00
01968            -260.00     5400.00
01969            -240.00     5200.00
01970            -220.00     5000.00
01971            -220.00     5000.00
01972            -220.00     5000.00
01973            -200.00     4600.00
01974            -180.00     4400.00
01975            -180.00     4200.00
01976            -160.00     4200.00
01977            -160.00     4000.00
01978            -160.00     3800.00
01979            -160.00     3600.00
01980            -140.00     3600.00
01981            -140.00     3400.00
01982            -120.00     3200.00
01983            -100.00     2800.00
01984            -100.00     2800.00
01985            -140.00     2600.00
01986            -140.00     2600.00
01987            -100.00     2200.00
01988            -100.00     2000.00
01989             -80.00     1800.00
01990             -80.00     1800.00
01991             -80.00     1800.00
01992             -80.00     1400.00
01993            -100.00     1200.00
01994             -80.00     1000.00
01995             -60.00      800.00
01996             -60.00      600.00
01997             -60.00      400.00
01998             -40.00      200.00
01999             -60.00      200.00
02000             -60.00        0.00
02001               0.00     -400.00
02002              80.00     -400.00
02003              80.00     -600.00
02004              80.00     -800.00
02005              20.00    -1000.00
02006               0.00    -1200.00
02007              20.00    -1200.00
02008              80.00    -1400.00
02009             460.00    -1600.00
02010             920.00    -2000.00
02011             480.00    -2200.00
02012            -460.00    -2400.00
02013            -960.00    -2600.00
02014           -1100.00    -2400.00
02015            -260.00    -2600.00
02016             660.00    -3000.00
02017               0.00    -3000.00
02018              60.00    -3200.00
02019             340.00    -3800.00
02020            -100.00    -3200.00
02021             160.00    -3800.00
02022              60.00    -4200.00
02023             -20.00    -4000.00
02024             380.00    -4600.00
02025               0.00    -4400.00
02026            -140.00    -4600.00
02027             -20.00    -4800.00
02028              20.00    -4800.00
02029             120.00    -5400.00
02030              80.00    -5200.00
02031             100.00    -5400.00
02032               0.00    -5600.00
02033             100.00    -5800.00
02034             220.00    -6200.00
02035              20.00    -5800.00
02036              80.00    -6200.00
02037             140.00    -6200.00
02038             140.00    -6200.00
02039              80.00    -6600.00
02040              60.00    -6800.00
02041             180.00    -7000.00
02042             160.00    -7000.00
02043             140.00    -7200.00
02044             160.00    -7400.00
02045             160.00    -7200.00
02046             140.00    -7600.00
02047             180.00    -7600.00
02048             180.00    -7600.00
02049             140.00    -7800.00
02050             160.00    -8000.00
02051             220.00    -8200.00
02052             220.00    -8200.00
02053             220.00    -8400.00
02054             260.00    -8600.00
02055             240.00    -8600.00
02056             220.00    -8600.00
02057             260.00    -8600.00
02058             320.00    -8800.00
02059             300.00    -9000.00
02060             300.00    -9000.00
02061             320.00    -9000.00
02062             320.00    -9200.00
02063             340.00    -9200.00
02064             400.00    -9200.00
02065             400.00    -9400.00
02066             380.00    -9400.00
02067             400.00    -9400.00
02068             420.00    -9400.00
02069             460.00    -9400.00
02070             480.00    -9400.00
02071             540.00    -9400.00
02072             540.00    -9800.00
02073             560.00    -9800.00
02074             580.00    -9800.00
02075             620.00    -9600.00
02076             640.00    -9800.00
02077             700.00    -9800.00
02078             720.00    -9800.00
02079             780.00    -9800.00
02080             780.00    -9800.00
02081             820.00    -9800.00
02082             860.00    -9800.00
02083             900.00    -9800.00
02084             980.00    -9800.00
02085            1040.00    -9800.00
02086            1060.00    -9800.00
02087            1140.00    -9800.00
02088            1180.00    -9800.00
02089            1220.00    -9800.00
02090            1280.00    -9800.00
02091            1360.00    -9800.00
02092            1420.00    -9800.00
02093            1420.00    -9800.00
02094            1460.00    -9600.00
02095            1500.00    -9600.00
02096            1500.00    -9400.00
02097            1540.00    -9400.00
02098            1520.00    -9200.00
02099            1540.00    -9400.00
02100            1520.00    -9400.00
02101            1500.00    -9200.00
02102            1500.00    -9200.00
02103            1440.00    -9200.00
02104            1420.00    -9000.00
02105            1380.00    -9200.00
02106            1340.00    -9000.00
02107            1260.00    -8800.00
02108            1200.00    -8600.00
02109            1140.00    -8600.00
02110            1100.00    -8600.00
02111            1040.00    -8600.00
02112             960.00    -8400.00
02113             900.00    -8400.00
02114             840.00    -8200.00
02115             800.00    -8200.00
02116             740.00    -7800.00
02117             720.00    -7800.00
02118             660.00    -7800.00
02119             620.00    -7600.00
02120             580.00    -7400.00
02121             540.00    -7400.00
02122             500.00    -7200.00
02123             480.00    -7000.00
02124             460.00    -6800.00
02125             400.00    -7000.00
02126             400.00    -6800.00
02127             380.00    -6600.00
02128             340.00    -6400.00
02129             320.00    -6400.00
02130             320.00    -6200.00
02131             300.00    -6000.00
02132             300.00    -6000.00
02133             260.00    -5800.00
02134             240.00    -5600.00
02135             240.00    -5400.00
02136             220.00    -5200.00
02137             220.00    -5200.00
02138             220.00    -5000.00
02139             220.00    -4800.00
02140             180.00    -4600.00
02141             160.00    -4400.00
02142             180.00    -4400.00
02143             160.00    -4200.00
02144             160.00    -4000.00
02145             160.00    -3800.00
02146             140.00    -3400.00
02147             140.00    -3400.00
02148             140.00    -3200.00
02149             140.00    -3200.00
02150             120.00    -3000.00
02151             100.00    -2800.00
02152             120.00    -2600.00
02153             100.00    -2400.00
02154              80.00    -2200.00
02155              80.00    -2000.00
02156             100.00    -2000.00
02157              80.00    -1800.00
02158              80.00    -1400.00
02159              80.00    -1400.00
02160              80.00    -1200.00
02161              60.00    -1000.00
02162              60.00     -800.00
02163              60.00     -600.00
02164              60.00     -600.00
02165              60.00     -200.00
02166              60.00     -200.00
02167              60.00      200.00
02168              80.00      400.00
02169             140.00      400.00
02170             160.00      600.00
02171             160.00      800.00
02172             140.00     1000.00
02173             100.00     1000.00
02174              80.00     1200.00
02175             180.00     1400.00
02176             800.00     1800.00
02177            1100.00     1800.00
02178             220.00     2200.00
02179            -940.00     2000.00
02180           -1520.00     2000.00
02181            -780.00     2800.00
02182             940.00     3000.00
02183             300.00     2600.00
02184            -220.00     3400.00
02185             480.00     3000.00
02186            -100.00     3600.00
02187            -140.00     4200.00
02188              80.00     3400.00
02189             -80.00     4200.00
02190             480.00     4400.00
02191            -140.00     3800.00
02192            -300.00     5000.00
02193             180.00     4600.00
02194            -260.00     5000.00
02195              20.00     5200.00
02196             100.00     5000.00
02197             -20.00     5800.00
02198            -100.00     5200.00
02199            -120.00     5600.00
02200             140.00     6200.00
02201            -140.00     5800.00
02202            -100.00     6200.00
02203               0.00     6000.00
02204            -100.00     6600.00
02205            -100.00     6600.00
02206            -180.00     6600.00
02207             -20.00     7000.00
02208             -80.00     6600.00
02209             -80.00     7000.00
02210            -100.00     7200.00
02211            -160.00     7400.00
02212            -160.00     7400.00
02213            -140.00     7400.00
02214            -100.00     7600.00
02215            -220.00     7800.00
02216            -160.00     7800.00
02217            -200.00     8000.00
02218            -200.00     8200.00
02219            -180.00     8200.00
02220            -160.00     8400.00
02221            -220.00     8400.00
02222            -260.00     8400.00
02223            -260.00     8600.00
02224            -240.00     8600.00
02225            -240.00     8600.00
02226            -300.00     9000.00
02227            -320.00     9000.00
02228            -340.00     9000.00
02229            -320.00     9000.00
02230            -300.00     9200.00
02231            -320.00     9200.00
02232            -380.00     9200.00
02233            -400.00     9400.00
02234            -420.00     9400.00
02235            -460.00     9400.00
02236            -460.00     9400.00
02237            -460.00     9600.00
02238            -500.00     9800.00
02239            -500.00     9600.00
02240            -540.00     9800.00
02241            -580.00     9800.00
02242            -620.00     9800.00
02243            -600.00     9800.00
02244            -660.00     9800.00
02245            -720.00     9800.00
02246            -740.00    10000.00
02247            -780.00     9800.00
02248            -820.00    10000.00
02249            -880.00     9800.00
02250            -900.00     9800.00
02251            -960.00     9800.00
02252           -1020.00     9800.00
02253           -1060.00    10000.00
02254           -1120.00     9800.00
02255           -1200.00     9800.00
02256           -1220.00     9800.00
02257           -1280.00     9800.00
02258           -1320.00    10000.00
02259           -1360.00     9800.00
02260           -1420.00     9800.00
02261           -1440.00     9800.00
02262           -1460.00     9800.00
02263           -1500.00     9800.00
02264           -1520.00     9400.00
02265           -1520.00     9400.00
02266           -1540.00     9400.00
02267           -1520.00     9400.00
02268           -1520.00     9400.00
02269           -1500.00     9200.00
02270           -1460.00     9200.00
02271           -1380.00     9200.00
02272           -1380.00     9200.00
02273           -1340.00     9000.00
02274           -1280.00     9000.00
02275           -1220.00     8800.00
02276           -1140.00     8600.00
02277           -1100.00     8600.00
02278           -1040.00     8400.00
02279            -980.00     8400.00
02280            -940.00     8400.00
02281            -860.00     8200.00
02282            -820.00     8200.00
02283            -780.00     8000.00
02284            -720.00     7800.00
02285            -660.00     7800.00
02286            -640.00     7600.00
02287            -620.00     7400.00
02288            -560.00     7400.00
02289            -520.00     7400.00
02290            -480.00     7400.00
02291            -460.00     7000.00
02292            -440.00     7000.00
02293            -420.00     6800.00
02294            -380.00     6600.00
02295            -380.00     6600.00
02296            -340.00     6400.00
02297            -320.00     6200.00
02298            -300.00     6000.00
02299            -300.00     6000.00
02300            -260.00     5800.00
02301            -260.00     5800.00
02302            -260.00     5400.00
02303            -240.00     5400.00
02304            -220.00     5200.00
02305            -220.00     5000.00
02306            -220.00     4800.00
02307            -220.00     4600.00
02308            -180.00     4600.00
02309            -160.00     4200.00
02310            -160.00     4200.00
02311            -160.00     4200.00
02312            -160.00     3800.00
02313            -140.00     3600.00
02314            -140.00     3600.00
02315            -140.00     3400.00
02316            -140.00     3000.00
02317            -100.00     3000.00
02318            -100.00     3000.00
02319            -100.00     2600.00
02320            -100.00     2600.00
02321            -100.00     2400.00
02322            -100.00     2000.00
02323             -80.00     2000.00
02324            -100.00     1800.00
02325             -80.00     1600.00
02326             -80.00     1400.00
02327             -80.00     1200.00
02328             -80.00     1000.00
02329             -80.00      800.00
02330             -80.00      600.00
02331             -60.00      600.00
02332             -60.00      400.00
02333             -40.00      200.00
02334             -60.00        0.00
02335             -20.00     -200.00
02336              20.00     -400.00
02337              80.00     -400.00
02338              80.00     -600.00
02339              60.00     -800.00
02340              20.00    -1200.00
02341              20.00    -1200.00
02342              60.00    -1400.00
02343             240.00    -1600.00
02344             780.00    -2000.00
02345             780.00    -2200.00
02346             -80.00    -2400.00
02347            -820.00    -2600.00
02348           -1100.00    -2600.00
02349            -780.00    -2200.00
02350             480.00    -2800.00
02351             340.00    -3200.00
02352            -160.00    -3000.00
02353             340.00    -3600.00
02354              80.00    -3400.00
02355              20.00    -3400.00
02356             180.00    -4200.00
02357            -100.00    -3800.00
02358             260.00    -4400.00
02359             220.00    -4400.00
02360            -160.00    -4600.00
02361             -60.00    -5000.00
02362               0.00    -4600.00
02363             100.00    -5200.00
02364              80.00    -5400.00
02365             100.00    -5400.00
02366              20.00    -5800.00
02367              20.00    -5600.00
02368             220.00    -6000.00
02369             100.00    -6000.00
02370              40.00    -6200.00
02371             140.00    -6400.00
02372             140.00    -6200.00
02373             100.00    -6600.00
02374              40.00    -6800.00
02375             140.00    -7000.00
02376             180.00    -7000.00
02377             140.00    -7000.00
02378             140.00    -7200.00
02379             160.00    -7200.00
02380             160.00    -7400.00
02381             180.00    -7600.00
02382             220.00    -7600.00
02383             160.00    -7800.00
02384             160.00    -8000.00
02385             220.00    -8200.00
02386             240.00    -8000.00
02387             220.00    -8400.00
02388             240.00    -8400.00
02389             260.00    -8400.00
02390             220.00    -8600.00
02391             240.00    -8600.00
02392             300.00    -8800.00
02393             300.00    -8800.00
02394             300.00    -9000.00
02395             300.00    -9000.00
02396             320.00    -9200.00
02397             320.00    -9200.00
02398             380.00    -9200.00
02399             420.00    -9400.00
02400             380.00    -9200.00
02401             400.00    -9400.00
02402             420.00    -9400.00
02403             420.00    -9400.00
02404             460.00    -9400.00
02405             500.00    -9400.00
02406             540.00    -9800.00
02407             540.00    -9600.00
02408             560.00    -9800.00
02409             600.00    -9600.00
02410             620.00    -9800.00
02411             660.00    -9800.00
02412             700.00    -9800.00
02413             720.00    -9800.00
02414             780.00    -9800.00
02415             800.00    -9800.00
02416             860.00    -9800.00
02417             880.00    -9800.00
02418             960.00    -9800.00
02419            1020.00    -9800.00
02420            1060.00    -9800.00
02421            1120.00   -10000.00
02422            1180.00    -9800.00
02423            1200.00    -9800.00
02424            1280.00    -9800.00
02425            1340.00    -9800.00
02426            1360.00    -9600.00
02427            1420.00    -9800.00
02428            1440.00    -9800.00
02429            1460.00    -9600.00
02430            1500.00    -9400.00
02431            1520.00    -9400.00
02432            1540.00    -9400.00
02433            1520.00    -9400.00
02434            1520.00    -9400.00
02435            1520.00    -9200.00
02436            1500.00    -9400.00
02437            1460.00    -9200.00
02438            1440.00    -9200.00
02439            1420.00    -9000.00
02440            1360.00    -9000.00
02441            1280.00    -8800.00
02442            1220.00    -8600.00
02443            1180.00    -8800.00
02444            1120.00    -8800.00
02445            1060.00    -8400.00
02446            1020.00    -8400.00
02447             940.00    -8400.00
02448             880.00    -8200.00
02449             820.00    -8200.00
02450             780.00    -8000.00
02451             720.00    -7800.00
02452             700.00    -7800.00
02453             640.00    -7600.00
02454             580.00    -7600.00
02455             540.00    -7400.00
02456             540.00    -7200.00
02457             480.00    -7000.00
02458             460.00    -7000.00
02459             460.00    -6800.00
02460             400.00    -6800.00
02461             380.00    -6600.00
02462             340.00    -6400.00
02463             340.00    -6400.00
02464             320.00    -6200.00
02465             320.00    -6000.00
02466             320.00    -6000.00
02467             300.00    -5800.00
02468             240.00    -5800.00
02469             240.00    -5400.00
02470             220.00    -5400.00
02471             220.00    -5200.00
02472             220.00    -5000.00
02473             220.00    -5000.00
02474             180.00    -4600.00
02475             160.00    -4600.00
02476             160.00    -4400.00
02477             160.00    -4400.00
02478             160.00    -4000.00
02479             140.00    -4000.00
02480             140.00    -3600.00
02481             140.00    -3600.00
02482             140.00    -3400.00
02483             140.00    -3400.00
02484             120.00    -3000.00
02485             100.00    -2800.00
02486             100.00    -2600.00
02487             100.00    -2600.00
02488              80.00    -2200.00
02489              80.00    -2200.00
02490              80.00    -2000.00
02491             100.00    -1800.00
02492              80.00    -1400.00
02493             100.00    -1400.00
02494              80.00    -1200.00
02495              80.00    -1200.00
02496              60.00     -800.00
02497              60.00     -600.00
02498              60.00     -400.00
02499              80.00     -400.00
02500              60.00     -200.00
02501              60.00        0.00
02502              60.00      200.00
02503             100.00      400.00
02504             160.00      600.00
02505             180.00      800.00
02506             160.00      800.00
02507             100.00     1000.00
02508              80.00     1200.00
02509             140.00     1400.00
02510             480.00     1600.00
02511            1120.00     2000.00
02512             680.00     2000.00
02513            -500.00     2200.00
02514           -1340.00     2000.00
02515           -1340.00     2200.00
02516             340.00     3000.00
02517             860.00     2800.00
02518            -260.00     3000.00
02519             280.00     3400.00
02520             240.00     3200.00
02521            -300.00     4200.00
02522             120.00     3600.00
02523            -120.00     3600.00
02524             300.00     4600.00
02525             240.00     3800.00
02526            -440.00     4400.00
02527             100.00     5000.00
02528             -80.00     4600.00
02529            -200.00     5200.00
02530             140.00     5000.00
02531             -20.00     5400.00
02532             -20.00     5600.00
02533            -180.00     5200.00
02534              60.00     6000.00
02535               0.00     5800.00
02536            -200.00     6200.00
02537              20.00     6200.00
02538             -80.00     6000.00
02539             -80.00     6600.00
02540            -160.00     6200.00
02541            -100.00     6800.00
02542             -40.00     6800.00
02543            -100.00     6600.00
02544             -80.00     7400.00
02545            -140.00     7200.00
02546            -160.00     7600.00
02547            -160.00     7400.00
02548            -100.00     7600.00
02549            -160.00     7600.00
02550            -180.00     7800.00
02551            -180.00     8000.00
02552            -220.00     8000.00
02553            -160.00     8200.00
02554            -180.00     8400.00
02555            -180.00     8400.00
02556            -300.00     8400.00
02557            -260.00     8600.00
02558            -240.00     8600.00
02559            -240.00     8600.00
02560            -260.00     8800.00
02561            -300.00     9000.00
02562            -340.00     9000.00
02563            -340.00     9200.00
02564            -300.00     9200.00
02565            -320.00     9200.00
02566            -340.00     9200.00
02567            -400.00     9400.00
02568            -400.00     9400.00
02569            -440.00     9400.00
02570            -420.00     9400.00
02571            -460.00     9600.00
02572            -460.00     9400.00
02573            -500.00     9800.00
02574            -500.00     9800.00
02575            -560.00     9800.00
02576            -640.00     9800.00
02577            -620.00     9800.00
02578            -620.00    10000.00
02579            -680.00     9800.00
02580            -740.00     9800.00
02581            -740.00     9800.00
02582            -800.00     9800.00
02583            -860.00     9800.00
02584            -900.00    10000.00
02585            -900.00    10000.00
02586            -980.00     9800.00
02587           -1040.00    10000.00
02588           -1080.00    10000.00
02589           -1140.00     9800.00
02590           -1220.00    10000.00
02591           -1280.00     9800.00
02592           -1280.00     9800.00
02593           -1340.00     9800.00
02594           -1380.00     9800.00
02595           -1440.00     9800.00
02596           -1460.00     9800.00
02597           -1500.00     9600.00
02598           -1520.00     9600.00
02599           -1520.00     9400.00
02600           -1520.00     9400.00
02601           -1520.00     9400.00
02602           -1520.00     9400.00
02603           -1520.00     9200.00
02604           -1480.00     9200.00
02605           -1440.00     9200.00
02606           -1380.00     9000.00
02607           -1360.00     9000.00
02608           -1340.00     8800.00
02609           -1260.00     8600.00
02610           -1200.00     8600.00
02611           -1120.00     8600.00
02612           -1060.00     8600.00
02613           -1000.00     8400.00
02614            -960.00     8400.00
02615            -900.00     8200.00
02616            -860.00     8200.00
02617            -800.00     8200.00
02618            -740.00     8000.00
02619            -660.00     7800.00
02620            -640.00     7600.00
02621            -620.00     7400.00
02622            -580.00     7400.00
02623            -540.00     7200.00
02624            -480.00     7200.00
02625            -460.00     7000.00
02626            -420.00     7000.00
02627            -420.00     6800.00
02628            -400.00     6600.00
02629            -380.00     6600.00
02630            -340.00     6600.00
02631            -320.00     6200.00
02632            -300.00     6000.00
02633            -260.00     6200.00
02634            -280.00     5800.00
02635            -260.00     5800.00
02636            -260.00     5400.00
02637            -240.00     5400.00
02638            -240.00     5200.00
02639            -220.00     5200.00
02640            -220.00     5000.00
02641            -220.00     4800.00
02642            -200.00     4600.00
02643            -180.00     4400.00
02644            -180.00     4200.00
02645            -160.00     4200.00
02646            -160.00     3800.00
02647            -160.00     3800.00
02648            -140.00     3600.00
02649            -160.00     3400.00
02650            -140.00     3400.00
02651            -120.00     3000.00
02652            -140.00     2800.00
02653            -100.00     2800.00
02654            -100.00     2600.00
02655            -100.00     2400.00
02656            -100.00     2000.00
02657            -100.00     2000.00
02658             -80.00     1800.00
02659             -80.00     1600.00
02660            -100.00     1400.00
02661            -100.00     1400.00
02662             -80.00     1000.00
02663             -80.00     1000.00
02664             -60.00      800.00
02665             -60.00      600.00
02666             -60.00      400.00
02667             -60.00      200.00
02668             -60.00        0.00
02669             -40.00     -200.00
02670               0.00     -200.00
02671              60.00     -400.00
02672              80.00     -600.00
02673              60.00     -800.00
02674               0.00    -1000.00
02675               0.00    -1200.00
02676              20.00    -1400.00
02677             100.00    -1600.00
02678             540.00    -1600.00
02679             940.00    -2000.00
02680             320.00    -2400.00
02681            -580.00    -2400.00
02682           -1020.00    -2600.00
02683           -1060.00    -2400.00
02684             -20.00    -2600.00
02685             640.00    -3200.00
02686            -100.00    -3000.00
02687             160.00    -3400.00
02688             300.00    -3800.00
02689            -100.00    -3400.00
02690             220.00    -4200.00
02691             -20.00    -3800.00
02692              60.00    -4200.00
02693             340.00    -4600.00
02694             -80.00    -4400.00
02695            -100.00    -5000.00
02696               0.00    -4800.00
02697              60.00    -5000.00
02698             100.00    -5400.00
02699              80.00    -5200.00
02700             100.00    -5600.00
02701               0.00    -5600.00
02702             160.00    -5800.00
02703             180.00    -6000.00
02704              20.00    -6000.00
02705             100.00    -6400.00
02706             140.00    -6200.00
02707             140.00    -6600.00
02708              60.00    -6800.00
02709              60.00    -6800.00
02710             200.00    -7000.00
02711             160.00    -7000.00
02712             140.00    -7400.00
02713             160.00    -7200.00
02714             180.00    -7400.00
02715             160.00    -7600.00
02716             220.00    -7800.00
02717             180.00    -7800.00
02718             140.00    -8200.00
02719             180.00    -8000.00
02720             240.00    -8200.00
02721             220.00    -8400.00
02722             220.00    -8400.00
02723             260.00    -8400.00
02724             240.00    -8600.00
02725             220.00    -8600.00
02726             300.00    -8600.00
02727             320.00    -8800.00
02728             300.00    -9000.00
02729             300.00    -9000.00
02730             320.00    -8800.00
02731             320.00    -9200.00
02732             340.00    -9200.00
02733             400.00    -9200.00
02734             400.00    -9400.00
02735             400.00    -9400.00
02736             400.00    -9400.00
02737             420.00    -9400.00
02738             460.00    -9400.00
02739             480.00    -9600.00
02740             540.00    -9600.00
02741             560.00    -9600.00
02742             560.00    -9800.00
02743             580.00    -9600.00
02744             620.00    -9600.00
02745             640.00    -9800.00
02746             700.00    -9800.00
02747             720.00    -9800.00
02748             740.00    -9800.00
02749             800.00    -9800.00
02750             820.00    -9800.00
02751             860.00    -9800.00
02752             940.00    -9800.00
02753            1000.00   -10000.00
02754            1040.00    -9800.00
02755            1100.00    -9800.00
02756            1160.00    -9800.00
02757            1200.00    -9800.00
02758            1260.00    -9800.00
02759            1300.00    -9800.00
02760            1360.00    -9800.00
02761            1420.00    -9600.00
02762            1440.00    -9800.00
02763            1460.00    -9600.00
02764            1500.00    -9400.00
02765            1500.00    -9400.00
02766            1540.00    -9400.00
02767            1540.00    -9400.00
02768            1540.00    -9400.00
02769            1500.00    -9400.00
02770            1520.00    -9200.00
02771            1460.00    -9200.00
02772            1460.00    -9200.00
02773            1420.00    -9200.00
02774            1380.00    -9000.00
02775            1340.00    -8800.00
02776            1260.00    -9000.00
02777            1200.00    -8600.00
02778            1140.00    -8600.00
02779            1080.00    -8600.00
02780            1040.00    -8600.00
02781             960.00    -8400.00
02782             900.00    -8200.00
02783             840.00    -8200.00
02784             800.00    -8000.00
02785             740.00    -8000.00
02786             720.00    -7800.00
02787             680.00    -7600.00
02788             620.00    -7600.00
02789             580.00    -7600.00
02790             540.00    -7200.00
02791             500.00    -7200.00
02792             480.00    -7000.00
02793             460.00    -7000.00
02794             420.00    -6800.00
02795             380.00    -6800.00
02796             380.00    -6600.00
02797             320.00    -6400.00
02798             320.00    -6200.00
02799             320.00    -6200.00
02800             300.00    -6200.00
02801             280.00    -6000.00
02802             240.00    -5600.00
02803             240.00    -5600.00
02804             220.00    -5400.00
02805             220.00    -5200.00
02806             220.00    -5200.00
02807             220.00    -5000.00
02808             180.00    -5000.00
02809             180.00    -4600.00
02810             160.00    -4600.00
02811             160.00    -4400.00
02812             160.00    -4200.00
02813             160.00    -4000.00
02814             160.00    -3800.00
02815             140.00    -3400.00
02816             140.00    -3400.00
02817             120.00    -3400.00
02818             120.00    -3200.00
02819             140.00    -2800.00
02820             120.00    -2800.00
02821             100.00    -2600.00
02822              80.00    -2400.00
02823              80.00    -2200.00
02824             100.00    -2000.00
02825              80.00    -1800.00
02826              80.00    -1800.00
02827              80.00    -1400.00
02828              80.00    -1200.00
02829              60.00    -1200.00
02830              80.00    -1000.00
02831              60.00     -800.00
02832              60.00     -600.00
02833              80.00     -400.00
02834              80.00     -200.00
02835              60.00      200.00
02836              60.00      200.00
02837              80.00      400.00
02838             140.00      600.00
02839             160.00      600.00
02840             160.00     1000.00
02841             140.00     1000.00
02842             100.00     1200.00
02843             100.00     1400.00
02844             260.00     1400.00
02845             940.00     2000.00
02846            1020.00     2000.00
02847               0.00     2200.00
02848           -1080.00     2200.00
02849           -1540.00     2200.00
02850            -460.00     3000.00
02851            1020.00     3200.00
02852              80.00     2600.00
02853             -80.00     3400.00
02854             480.00     3000.00
02855            -220.00     3800.00
02856             -60.00     4000.00
02857               0.00     3200.00
02858             -20.00     4400.00
02859             480.00     4200.00
02860            -280.00     3800.00
02861            -180.00     5000.00
02862             160.00     4400.00
02863            -300.00     5000.00
02864              60.00     5000.00
02865              60.00     5000.00
02866             -20.00     5800.00
02867            -140.00     5200.00
02868            -100.00     5800.00
02869             100.00     6000.00
02870            -180.00     5600.00
02871             -60.00     6200.00
02872             -20.00     6200.00
02873            -100.00     6600.00
02874            -120.00     6400.00
02875            -180.00     6600.00
02876             -40.00     7200.00
02877            -100.00     6600.00
02878             -80.00     7000.00
02879            -120.00     7000.00
02880            -160.00     7400.00
02881            -160.00     7400.00
02882            -140.00     7600.00
02883            -120.00     7800.00
02884            -220.00     7600.00
02885            -160.00     8000.00
02886            -200.00     7800.00
02887            -180.00     8200.00
02888            -180.00     8200.00
02889            -180.00     8400.00
02890            -240.00     8400.00
02891            -300.00     8400.00
02892            -240.00     8600.00
02893            -260.00     8600.00
02894            -260.00     8600.00
02895            -260.00     9000.00
02896            -320.00     9000.00
02897            -340.00     9200.00
02898            -320.00     9200.00
02899            -320.00     9200.00
02900            -340.00     9200.00
02901            -380.00     9200.00
02902            -400.00     9400.00
02903            -420.00     9400.00
02904            -460.00     9400.00
02905            -460.00     9600.00
02906            -460.00     9600.00
02907            -480.00     9600.00
02908            -500.00     9800.00
02909            -560.00     9800.00
02910            -580.00     9800.00
02911            -640.00     9800.00
02912            -620.00     9800.00
02913            -660.00     9800.00
02914            -720.00     9800.00
02915            -740.00    10000.00
02916            -780.00     9800.00
02917            -820.00    10000.00
02918            -880.00     9800.00
02919            -900.00    10000.00
02920            -960.00     9800.00
02921           -1020.00     9800.00
02922           -1060.00    10000.00
02923           -1120.00     9800.00
02924           -1200.00     9800.00
02925           -1260.00     9800.00
02926           -1280.00     9800.00
02927           -1340.00     9800.00
02928           -1380.00     9800.00
02929           -1420.00     9600.00
02930           -1440.00     9600.00
02931           -1500.00     9600.00
02932           -1500.00     9600.00
02933           -1520.00     9400.00
02934           -1540.00     9400.00
02935           -1520.00     9400.00
02936           -1540.00     9400.00
02937           -1520.00     9400.00
02938           -1500.00     9200.00
02939           -1440.00     9200.00
02940           -1420.00     9000.00
02941           -1380.00     9000.00
02942           -1340.00     9000.00
02943           -1280.00     8800.00
02944           -1220.00     8600.00
02945           -1140.00     8600.00
02946           -1060.00     8600.00
02947           -1040.00     8600.00
02948            -980.00     8200.00
02949            -920.00     8400.00
02950            -880.00     8200.00
02951            -800.00     8200.00
02952            -740.00     8200.00
02953            -720.00     7800.00
02954            -660.00     7800.00
02955            -620.00     7600.00
02956            -600.00     7600.00
02957            -560.00     7400.00
02958            -500.00     7200.00
02959            -480.00     7000.00
02960            -440.00     7000.00
02961            -420.00     6800.00
02962            -400.00     6800.00
02963            -380.00     6600.00
02964            -340.00     6600.00
02965            -320.00     6200.00
02966            -320.00     6200.00
02967            -280.00     6200.00
02968            -300.00     6000.00
02969            -260.00     6000.00
02970            -260.00     5600.00
02971            -240.00     5400.00
02972            -240.00     5200.00
02973            -240.00     5200.00
02974            -220.00     5000.00
02975            -220.00     4800.00
02976            -180.00     4600.00
02977            -160.00     4400.00
02978            -160.00     4200.00
02979            -160.00     4200.00
02980            -180.00     4000.00
02981            -160.00     4000.00
02982            -160.00     3600.00
02983            -160.00     3600.00
02984            -140.00     3400.00
02985            -100.00     3200.00
02986            -120.00     3000.00
02987            -120.00     2800.00
02988            -100.00     2600.00
02989            -100.00     2400.00
02990            -120.00     2200.00
02991            -100.00     2000.00
02992            -100.00     1800.00
02993             -80.00     1800.00
02994             -80.00     1400.00
02995             -80.00     1200.00
02996            -100.00     1200.00
02997            -100.00      800.00
02998            -100.00      800.00
02999             -80.00      600.00
03000             -80.00      400.00
03001             -20.00      200.00
03002             -60.00        0.00
03003             -80.00     -200.00
03004             -20.00     -400.00
03005              60.00     -400.00
03006              80.00     -600.00
03007              80.00     -600.00
03008              40.00    -1000.00
03009               0.00     -800.00
03010               0.00    -1200.00
03011              60.00    -1400.00
03012             320.00    -1600.00
03013             860.00    -2000.00
03014             660.00    -2200.00
03015            -260.00    -2400.00
03016            -900.00    -2600.00
03017           -1120.00    -2600.00
03018            -580.00    -2200.00
03019             620.00    -3000.00
03020             160.00    -3000.00
03021             -80.00    -3000.00
03022             400.00    -3800.00
03023               0.00    -3400.00
03024             100.00    -3800.00
03025             160.00    -4200.00
03026             -80.00    -3800.00
03027             320.00    -4400.00
03028             140.00    -4400.00
03029            -160.00    -4600.00
03030               0.00    -5000.00
03031               0.00    -4600.00
03032             120.00    -5200.00
03033              80.00    -5200.00
03034             100.00    -5400.00
03035              20.00    -5600.00
03036              60.00    -5600.00
03037             220.00    -6000.00
03038              60.00    -5800.00
03039              60.00    -6200.00
03040             140.00    -6400.00
03041             140.00    -6200.00
03042             100.00    -6600.00
03043              60.00    -6800.00
03044             160.00    -6800.00
03045             180.00    -7000.00
03046             140.00    -7000.00
03047             160.00    -7200.00
03048             180.00    -7200.00
03049             140.00    -7600.00
03050             180.00    -7600.00
03051             220.00    -7800.00
03052             160.00    -7800.00
03053             160.00    -8000.00
03054             240.00    -8200.00
03055             240.00    -8200.00
03056             200.00    -8400.00
03057             240.00    -8400.00
03058             260.00    -8400.00
03059             220.00    -8600.00
03060             260.00    -8600.00
03061             300.00    -8800.00
03062             300.00    -8800.00
03063             280.00    -9000.00
03064             300.00    -9000.00
03065             320.00    -9200.00
03066             320.00    -9200.00
03067             380.00    -9200.00
03068             400.00    -9200.00
03069             380.00    -9200.00
03070             380.00    -9400.00
03071             420.00    -9400.00
03072             460.00    -9400.00
03073             480.00    -9400.00
03074             500.00    -9400.00
03075             540.00    -9400.00
03076             540.00    -9600.00
03077             580.00    -9800.00
03078             620.00    -9800.00
03079             620.00    -9800.00
03080             660.00    -9800.00
03081             720.00    -9800.00
03082             740.00    -9800.00
03083             780.00    -9800.00
03084             800.00    -9800.00
03085             860.00    -9800.00
03086             900.00    -9800.00
03087             960.00    -9800.00
03088            1040.00    -9800.00
03089            1080.00    -9800.00
03090            1120.00    -9800.00
03091            1180.00    -9800.00
03092            1220.00    -9800.00
03093            1280.00    -9800.00
03094            1360.00    -9800.00
03095            1420.00    -9800.00
03096            1420.00    -9600.00
03097            1440.00    -9600.00
03098            1500.00    -9400.00
03099            1520.00    -9400.00
03100            1520.00    -9400.00
03101            1540.00    -9400.00
03102            1560.00    -9400.00
03103            1520.00    -9400.00
03104            1520.00    -9200.00
03105            1500.00    -9200.00
03106            1460.00    -9200.00
03107            1440.00    -9200.00
03108            1420.00    -9000.00
03109            1340.00    -8800.00
03110            1280.00    -9000.00
03111            1200.00    -8600.00
03112            1180.00    -8600.00
03113            1120.00    -8600.00
03114            1040.00    -8400.00
03115             980.00    -8400.00
03116             900.00    -8200.00
03117             860.00    -8200.00
03118             800.00    -8200.00
03119             780.00    -7800.00
03120             720.00    -7800.00
03121             700.00    -7800.00
03122             640.00    -7600.00
03123             580.00    -7400.00
03124             540.00    -7400.00
03125             500.00    -7400.00
03126             480.00    -7000.00
03127             460.00    -7000.00
03128             420.00    -7000.00
03129             400.00    -6800.00
03130             380.00    -6800.00
03131             340.00    -6600.00
03132             320.00    -6400.00
03133             320.00    -6200.00
03134             300.00    -6200.00
03135             300.00    -6000.00
03136             260.00    -5800.00
03137             240.00    -5800.00
03138             220.00    -5400.00
03139             220.00    -5400.00
03140             240.00    -5200.00
03141             200.00    -5000.00
03142             220.00    -5000.00
03143             180.00    -4800.00
03144             160.00    -4600.00
03145             160.00    -4400.00
03146             160.00    -4400.00
03147             160.00    -4200.00
03148             160.00    -3800.00
03149             140.00    -3800.00
03150             140.00    -3400.00
03151             140.00    -3400.00
03152             100.00    -3200.00
03153             140.00    -3000.00
03154             100.00    -2800.00
03155             140.00    -2600.00
03156             100.00    -2600.00
03157             100.00    -2200.00
03158              80.00    -2200.00
03159             100.00    -2000.00
03160              80.00    -1800.00
03161             100.00    -1600.00
03162              80.00    -1200.00
03163              80.00    -1200.00
03164              60.00    -1000.00
03165              80.00     -800.00
03166              80.00     -600.00
03167             100.00     -600.00
03168              80.00     -200.00
03169              80.00     -200.00
03170              80.00      200.00
03171              60.00      200.00
03172             140.00      400.00
03173             180.00      400.00
03174             180.00      800.00
03175             140.00      800.00
03176             100.00     1200.00
03177             100.00     1400.00
03178             160.00     1400.00
03179             620.00     1800.00
03180            1160.00     2000.00
03181             480.00     2000.00
03182            -700.00     2200.00
03183           -1440.00     2200.00
03184           -1140.00     2600.00
03185             660.00     3000.00
03186             640.00     2800.00
03187            -300.00     3200.00
03188             380.00     3200.00
03189             100.00     3400.00
03190            -260.00     4200.00
03191             100.00     3400.00
03192            -140.00     3800.00
03193             380.00     4600.00
03194              80.00     3800.00
03195            -420.00     4600.00
03196             160.00     4800.00
03197            -160.00     4600.00
03198            -100.00     5200.00
03199             140.00     4800.00
03200             -40.00     5400.00
03201             -20.00     5600.00
03202            -180.00     5200.00
03203             100.00     6200.00
03204             -60.00     5800.00
03205            -160.00     6200.00
03206               0.00     6200.00
03207            -100.00     6200.00
03208             -80.00     6600.00
03209            -180.00     6200.00
03210             -80.00     7000.00
03211             -60.00     6800.00
03212            -100.00     6800.00
03213             -80.00     7200.00
03214            -160.00     7200.00
03215            -160.00     7400.00
03216            -180.00     7400.00
03217            -100.00     7600.00
03218            -180.00     7800.00
03219            -180.00     7800.00
03220            -180.00     8000.00
03221            -180.00     8200.00
03222            -180.00     8200.00
03223            -180.00     8200.00
03224            -200.00     8400.00
03225            -260.00     8600.00
03226            -260.00     8600.00
03227            -240.00     8600.00
03228            -260.00     8600.00
03229            -260.00     8800.00
03230            -320.00     8800.00
03231            -320.00     9000.00
03232            -320.00     9200.00
03233            -300.00     9200.00
03234            -320.00     9200.00
03235            -340.00     9200.00
03236            -380.00     9400.00
03237            -400.00     9400.00
03238            -440.00     9400.00
03239            -460.00     9400.00
03240            -460.00     9400.00
03241            -480.00     9600.00
03242            -500.00     9800.00
03243            -540.00     9800.00
03244            -580.00     9800.00
03245            -620.00     9800.00
03246            -620.00     9800.00
03247            -640.00     9800.00
03248            -700.00     9800.00
03249            -740.00    10000.00
03250            -780.00     9800.00
03251            -800.00    10000.00
03252            -860.00    10000.00
03253            -880.00     9800.00
03254            -940.00    10000.00
03255            -980.00    10000.00
03256           -1040.00     9800.00
03257           -1120.00     9800.00
03258           -1180.00     9800.00
03259           -1220.00    10000.00
03260           -1260.00     9800.00
03261           -1300.00     9800.00
03262           -1380.00     9800.00
03263           -1420.00     9800.00
03264           -1440.00     9800.00
03265           -1480.00     9400.00
03266           -1520.00     9800.00
03267           -1520.00     9400.00
03268           -1540.00     9600.00
03269           -1540.00     9400.00
03270           -1540.00     9400.00
03271           -1520.00     9400.00
03272           -1520.00     9200.00
03273           -1460.00     9200.00
03274           -1420.00     9200.00
03275           -1380.00     9000.00
03276           -1340.00     9000.00
03277           -1300.00     9000.00
03278           -1260.00     8800.00
03279           -1180.00     8600.00
03280           -1120.00     8600.00
03281           -1060.00     8600.00
03282            -980.00     8400.00
03283            -940.00     8400.00
03284            -880.00     8200.00
03285            -860.00     8200.00
03286            -780.00     8200.00
03287            -720.00     7800.00
03288            -660.00     7800.00
03289            -640.00     7800.00
03290            -580.00     7600.00
03291            -540.00     7400.00
03292            -540.00     7400.00
03293            -480.00     7200.00
03294            -440.00     7000.00
03295            -480.00     7000.00
03296            -480.00     6800.00
03297            -440.00     6600.00
03298            -340.00     6600.00
03299            -260.00     6600.00
03300            -220.00     6200.00
03301            -180.00     6000.00
03302            -220.00     6000.00
03303            -280.00     6000.00
03304            -340.00     5800.00
03305            -340.00     5600.00
03306            -320.00     5400.00
03307            -220.00     5200.00
03308            -180.00     5000.00
03309            -140.00     5000.00
03310            -160.00     4600.00
03311            -120.00     4600.00
03312            -140.00     4400.00
03313            -160.00     4200.00
03314            -180.00     4200.00
03315            -220.00     3800.00
03316            -220.00     3800.00
03317            -180.00     3600.00
03318            -140.00     3400.00
03319            -100.00     3200.00
03320            -100.00     3000.00
03321             -80.00     2800.00
03322             -80.00     2800.00
03323            -120.00     2600.00
03324            -160.00     2200.00
03325            -160.00     2200.00
03326            -160.00     2000.00
03327            -160.00     1800.00
03328            -100.00     1800.00
03329             -80.00     1400.00
03330             -20.00     1200.00
03331             -20.00     1000.00
03332             -20.00      800.00
03333             -60.00      600.00
03334             -80.00      600.00
03335            -100.00      400.00
03336            -100.00        0.00
03337            -100.00        0.00
03338             -60.00     -200.00
03339              20.00     -400.00
03340             140.00     -400.00
03341             140.00     -600.00
03342              60.00    -1000.00
03343               0.00    -1000.00
03344             -20.00    -1200.00
03345               0.00    -1200.00
03346             140.00    -1600.00
03347             640.00    -1800.00
03348             900.00    -2200.00
03349             180.00    -2200.00
03350            -660.00    -2600.00
03351           -1040.00    -2600.00
03352            -960.00    -2200.00
03353             220.00    -2800.00
03354             540.00    -3200.00
03355            -160.00    -3000.00
03356             240.00    -3400.00
03357             200.00    -3600.00
03358             -60.00    -3400.00
03359             260.00    -4200.00
03360             -60.00    -4200.00
03361             160.00    -4200.00
03362             320.00    -4400.00
03363            -100.00    -4400.00
03364             -80.00    -5000.00
03365               0.00    -4800.00
03366              80.00    -5200.00
03367              80.00    -5400.00
03368              80.00    -5200.00
03369             100.00    -5600.00
03370               0.00    -5600.00
03371             180.00    -6000.00
03372             160.00    -6000.00
03373               0.00    -6000.00
03374             100.00    -6600.00
03375             140.00    -6200.00
03376             120.00    -6600.00
03377              60.00    -6800.00
03378             100.00    -6800.00
03379             220.00    -7000.00
03380             140.00    -7000.00
03381             140.00    -7400.00
03382             160.00    -7200.00
03383             160.00    -7600.00
03384             160.00    -7800.00
03385             180.00    -7600.00
03386             160.00    -7800.00
03387             140.00    -8000.00
03388             180.00    -8200.00
03389             240.00    -8200.00
03390             220.00    -8400.00
03391             220.00    -8400.00
03392             240.00    -8400.00
03393             220.00    -8600.00
03394             220.00    -8800.00
03395             300.00    -8800.00
03396             320.00    -9000.00
03397             300.00    -9000.00
03398             300.00    -9000.00
03399             300.00    -9000.00
03400             300.00    -9000.00
03401             340.00    -9200.00
03402             400.00    -9400.00
03403             380.00    -9400.00
03404             380.00    -9400.00
03405             400.00    -9400.00
03406             420.00    -9400.00
03407             460.00    -9800.00
03408             480.00    -9600.00
03409             540.00    -9400.00
03410             540.00    -9600.00
03411             540.00    -9800.00
03412             560.00    -9800.00
03413             620.00    -9800.00
03414             640.00    -9800.00
03415             720.00    -9800.00
03416             740.00    -9800.00
03417             780.00    -9800.00
03418             800.00    -9800.00
03419             840.00    -9800.00
03420             880.00    -9800.00
03421             940.00    -9800.00
03422            1020.00    -9800.00
03423            1060.00    -9800.00
03424            1100.00    -9800.00
03425            1140.00    -9800.00
03426            1200.00    -9800.00
03427            1260.00    -9800.00
03428            1320.00    -9800.00
03429            1380.00    -9800.00
03430            1420.00    -9600.00
03431            1420.00    -9600.00
03432            1460.00    -9800.00
03433            1500.00    -9400.00
03434            1520.00    -9400.00
03435            1540.00    -9600.00
03436            1540.00    -9400.00
03437            1540.00    -9400.00
03438            1520.00    -9400.00
03439            1500.00    -9200.00
03440            1480.00    -9000.00
03441            1440.00    -9200.00
03442            1420.00    -9000.00
03443            1380.00    -9000.00
03444            1300.00    -9000.00
03445            1220.00    -8800.00
03446            1180.00    -8600.00
03447            1120.00    -8600.00
03448            1060.00    -8600.00
03449            1020.00    -8400.00
03450             960.00    -8400.00
03451             880.00    -8200.00
03452             820.00    -8200.00
03453             780.00    -8000.00
03454             720.00    -8000.00
03455             700.00    -7800.00
03456             660.00    -7800.00
03457             620.00    -7600.00
03458             560.00    -7400.00
03459             500.00    -7400.00
03460             480.00    -7200.00
03461             460.00    -7000.00
03462             460.00    -7000.00
03463             420.00    -6800.00
03464             380.00    -6600.00
03465             340.00    -6600.00
03466             320.00    -6400.00
03467             320.00    -6200.00
03468             300.00    -6200.00
03469             300.00    -6000.00
03470             280.00    -5800.00
03471             240.00    -5800.00
03472             240.00    -5600.00
03473             220.00    -5400.00
03474             220.00    -5200.00
03475             220.00    -5200.00
03476             220.00    -5000.00
03477             180.00    -4800.00
03478             180.00    -4600.00
03479             160.00    -4400.00
03480             160.00    -4400.00
03481             160.00    -4200.00
03482             160.00    -4000.00
03483             160.00    -3600.00
03484             160.00    -3600.00
03485             140.00    -3400.00
03486             140.00    -3400.00
03487             140.00    -3000.00
03488             120.00    -3000.00
03489             140.00    -2600.00
03490             120.00    -2600.00
03491             100.00    -2200.00
03492              80.00    -2200.00
03493              80.00    -2000.00
03494             100.00    -2000.00
03495             100.00    -1800.00
03496              80.00    -1400.00
03497              80.00    -1200.00
03498              80.00    -1000.00
03499              60.00     -800.00
03500              80.00     -600.00
03501              80.00     -600.00
03502              80.00     -400.00
03503              80.00     -200.00
03504              60.00        0.00
03505              80.00      200.00
03506              80.00      200.00
03507             160.00      600.00
03508             180.00      600.00
03509             160.00     1000.00
03510             140.00     1000.00
03511             100.00     1200.00
03512             140.00     1200.00
03513             320.00     1600.00
03514            1040.00     1800.00
03515             880.00     2000.00
03516            -240.00     2200.00
03517           -1180.00     2000.00
03518           -1520.00     2200.00
03519            -100.00     3000.00
03520            1020.00     2800.00
03521            -140.00     2800.00
03522              80.00     3200.00
03523             400.00     3000.00
03524            -300.00     3800.00
03525              20.00     3800.00
03526             -80.00     3400.00
03527             100.00     4600.00
03528             400.00     4000.00
03529            -400.00     4200.00
03530             -60.00     5000.00
03531              60.00     4600.00
03532            -260.00     5200.00
03533             100.00     5000.00
03534               0.00     5000.00
03535             -20.00     5800.00
03536            -160.00     5000.00
03537             -20.00     5800.00
03538              80.00     5800.00
03539            -220.00     5800.00
03540             -20.00     6200.00
03541             -60.00     6200.00
03542             -80.00     6600.00
03543            -140.00     6400.00
03544            -140.00     6800.00
03545               0.00     7000.00
03546            -100.00     6800.00
03547             -80.00     7400.00
03548            -120.00     7200.00
03549            -140.00     7600.00
03550            -160.00     7400.00
03551            -100.00     7600.00
03552            -160.00     7800.00
03553            -220.00     7800.00
03554            -160.00     8200.00
03555            -220.00     8200.00
03556            -160.00     8200.00
03557            -180.00     8200.00
03558            -180.00     8400.00
03559            -240.00     8400.00
03560            -260.00     8400.00
03561            -240.00     8600.00
03562            -240.00     8600.00
03563            -260.00     9000.00
03564            -300.00     9000.00
03565            -320.00     9200.00
03566            -340.00     9200.00
03567            -300.00     9200.00
03568            -300.00     9200.00
03569            -340.00     9200.00
03570            -400.00     9200.00
03571            -400.00     9400.00
03572            -420.00     9400.00
03573            -460.00     9400.00
03574            -440.00     9400.00
03575            -460.00     9600.00
03576            -500.00     9800.00
03577            -500.00     9600.00
03578            -560.00     9800.00
03579            -580.00     9800.00
03580            -620.00     9800.00
03581            -640.00     9800.00
03582            -660.00     9800.00
03583            -740.00     9800.00
03584            -740.00     9800.00
03585            -780.00     9800.00
03586            -860.00     9800.00
03587            -880.00     9800.00
03588            -940.00    10000.00
03589            -980.00     9800.00
03590           -1020.00     9800.00
03591           -1060.00     9800.00
03592           -1140.00     9800.00
03593           -1220.00     9800.00
03594           -1280.00     9800.00
03595           -1280.00     9800.00
03596           -1340.00     9800.00
03597           -1380.00     9800.00
03598           -1440.00     9800.00
03599           -1460.00     9800.00
03600           -1520.00     9600.00
03601           -1520.00     9600.00
03602           -1520.00     9600.00
03603           -1520.00     9400.00
03604           -1540.00     9400.00
03605           -1540.00     9400.00
03606           -1520.00     9400.00
03607           -1520.00     9200.00
03608           -1440.00     9200.00
03609           -1400.00     9200.00
03610           -1380.00     9000.00
03611           -1340.00     9000.00
03612           -1260.00     8800.00
03613           -1200.00     8600.00
03614           -1140.00     8600.00
03615           -1060.00     8600.00
03616           -1020.00     8600.00
03617            -960.00     8400.00
03618            -900.00     8400.00
03619            -860.00     8200.00
03620            -800.00     8200.00
03621            -740.00     8200.00
03622            -700.00     7800.00
03623            -640.00     7600.00
03624            -620.00     7600.00
03625            -580.00     7600.00
03626            -540.00     7400.00
03627            -500.00     7400.00
03628            -460.00     7200.00
03629            -420.00     7000.00
03630            -420.00     6800.00
03631            -400.00     6800.00
03632            -380.00     6600.00
03633            -340.00     6600.00
03634            -340.00     6200.00
03635            -320.00     6200.00
03636            -280.00     6000.00
03637            -260.00     6000.00
03638            -260.00     5800.00
03639            -260.00     5600.00
03640            -240.00     5400.00
03641            -220.00     5200.00
03642            -220.00     5200.00
03643            -220.00     5000.00
03644            -220.00     4800.00
03645            -220.00     4600.00
03646            -180.00     4600.00
03647            -160.00     4200.00
03648            -160.00     4000.00
03649            -160.00     4000.00
03650            -160.00     3800.00
03651            -160.00     3600.00
03652            -160.00     3600.00
03653            -140.00     3400.00
03654            -140.00     3000.00
03655            -120.00     3000.00
03656            -100.00     2800.00
03657            -140.00     2600.00
03658            -140.00     2600.00
03659            -100.00     2200.00
03660             -80.00     2000.00
03661             -80.00     1800.00
03662             -80.00     1600.00
03663            -100.00     1400.00
03664            -100.00     1200.00
03665            -100.00     1000.00
03666             -80.00     1000.00
03667             -80.00      800.00
03668             -80.00      600.00
03669             -60.00      400.00
03670             -60.00      200.00
03671             -60.00      200.00
03672             -40.00     -200.00
03673             -20.00     -200.00
03674              60.00     -400.00
03675             100.00     -600.00
03676              80.00     -800.00
03677              20.00    -1000.00
03678              20.00    -1200.00
03679              20.00    -1200.00
03680              80.00    -1400.00
03681             400.00    -1600.00
03682             920.00    -2000.00
03683             540.00    -2200.00
03684            -400.00    -2400.00
03685            -960.00    -2600.00
03686           -1120.00    -2400.00
03687            -340.00    -2400.00
03688             700.00    -3000.00
03689              20.00    -3000.00
03690               0.00    -3000.00
03691             380.00    -3800.00
03692             -60.00    -3400.00
03693             180.00    -3800.00
03694              80.00    -4200.00
03695             -20.00    -4000.00
03696             380.00    -4400.00
03697              60.00    -4400.00
03698            -140.00    -4800.00
03699               0.00    -5000.00
03700              20.00    -4600.00
03701             140.00    -5200.00
03702              80.00    -5200.00
03703             100.00    -5400.00
03704               0.00    -5600.00
03705              80.00    -5800.00
03706             220.00    -6000.00
03707              60.00    -6000.00
03708              80.00    -6400.00
03709             140.00    -6400.00
03710             160.00    -6200.00
03711              80.00    -7000.00
03712              60.00    -6600.00
03713             180.00    -6800.00
03714             160.00    -7000.00
03715             100.00    -7200.00
03716             140.00    -7400.00
03717             160.00    -7200.00
03718             140.00    -7600.00
03719             180.00    -7800.00
03720             200.00    -7600.00
03721             140.00    -8000.00
03722             160.00    -8200.00
03723             220.00    -8200.00
03724             220.00    -8200.00
03725             180.00    -8400.00
03726             240.00    -8400.00
03727             240.00    -8600.00
03728             220.00    -8600.00
03729             260.00    -8600.00
03730             300.00    -8800.00
03731             300.00    -9000.00
03732             260.00    -9000.00
03733             300.00    -9000.00
03734             320.00    -9000.00
03735             340.00    -9200.00
03736             380.00    -9200.00
03737             400.00    -9400.00
03738             380.00    -9400.00
03739             380.00    -9400.00
03740             400.00    -9400.00
03741             440.00    -9400.00
03742             480.00    -9600.00
03743             500.00    -9600.00
03744             540.00    -9800.00
03745             560.00    -9800.00
03746             560.00    -9800.00
03747             620.00    -9800.00
03748             640.00    -9800.00
03749             700.00    -9800.00
03750             720.00    -9800.00
03751             740.00    -9800.00
03752             800.00    -9800.00
03753             800.00    -9800.00
03754             860.00    -9800.00
03755             900.00    -9800.00
03756            1000.00    -9800.00
03757            1040.00    -9800.00
03758            1100.00   -10000.00
03759            1140.00    -9800.00
03760            1180.00    -9800.00
03761            1220.00    -9800.00
03762            1300.00    -9800.00
03763            1360.00    -9600.00
03764            1380.00    -9800.00
03765            1420.00    -9600.00
03766            1440.00    -9800.00
03767            1500.00    -9800.00
03768            1520.00    -9600.00
03769            1580.00    -9400.00
03770            1580.00    -9400.00
03771            1540.00    -9400.00
03772            1540.00    -9200.00
03773            1520.00    -9200.00
03774            1500.00    -9200.00
03775            1440.00    -9000.00
03776            1420.00    -9200.00
03777            1380.00    -9000.00
03778            1340.00    -9000.00
03779            1280.00    -9000.00
03780            1200.00    -8600.00
03781            1140.00    -8600.00
03782            1100.00    -8600.00
03783            1040.00    -8600.00
03784             980.00    -8400.00
03785             900.00    -8400.00
03786             860.00    -8400.00
03787             800.00    -8200.00
03788             780.00    -8000.00
03789             720.00    -7800.00
03790             680.00    -7600.00
03791             620.00    -7800.00
03792             560.00    -7600.00
03793             540.00    -7400.00
03794             500.00    -7200.00
03795             480.00    -7200.00
03796             480.00    -7000.00
03797             420.00    -7000.00
03798             400.00    -6800.00
03799             380.00    -6600.00
03800             340.00    -6600.00
03801             320.00    -6600.00
03802             320.00    -6200.00
03803             300.00    -6000.00
03804             280.00    -6000.00
03805             260.00    -5800.00
03806             240.00    -5600.00
03807             240.00    -5400.00
03808             240.00    -5400.00
03809             240.00    -5200.00
03810             220.00    -5000.00
03811             180.00    -4800.00
03812             160.00    -4600.00
03813             160.00    -4400.00
03814             160.00    -4400.00
03815             160.00    -4200.00
03816             160.00    -3800.00
03817             140.00    -3800.00
03818             140.00    -3800.00
03819             140.00    -3600.00
03820             140.00    -3400.00
03821             140.00    -3200.00
03822             140.00    -3000.00
03823             140.00    -2800.00
03824             100.00    -2600.00
03825             100.00    -2600.00
03826              80.00    -2200.00
03827             100.00    -2200.00
03828             120.00    -2000.00
03829             100.00    -1800.00
03830             100.00    -1400.00
03831              80.00    -1200.00
03832              80.00    -1200.00
03833              80.00     -800.00
03834              80.00     -800.00
03835              80.00     -600.00
03836              60.00     -400.00
03837              60.00     -200.00
03838              60.00     -200.00
03839              60.00      200.00
03840              80.00      200.00
03841             140.00      600.00
03842             180.00      600.00
03843             160.00      800.00
03844             140.00     1000.00
03845              80.00     1000.00
03846              80.00     1200.00
03847             160.00     1400.00
03848             740.00     1800.00
03849            1120.00     2000.00
03850             260.00     2000.00
03851            -880.00     2200.00
03852           -1520.00     2200.00
03853            -900.00     2600.00
03854             880.00     3000.00
03855             380.00     2600.00
03856            -240.00     3200.00
03857             460.00     3000.00
03858             -60.00     3400.00
03859            -160.00     4200.00
03860              80.00     3400.00
03861            -100.00     4200.00
03862             480.00     4400.00
03863            -100.00     3800.00
03864            -340.00     4800.00
03865             180.00     4600.00
03866            -260.00     4600.00
03867             -20.00     5200.00
03868              80.00     4800.00
03869             -60.00     5600.00
03870             -80.00     5400.00
03871            -160.00     5400.00
03872             140.00     6000.00
03873            -140.00     5800.00
03874            -140.00     6200.00
03875               0.00     6200.00
03876            -100.00     6400.00
03877            -100.00     6600.00
03878            -180.00     6600.00
03879             -40.00     7200.00
03880            -100.00     6600.00
03881            -100.00     7000.00
03882            -100.00     7400.00
03883            -140.00     7400.00
03884            -160.00     7600.00
03885            -140.00     7400.00
03886            -100.00     7600.00
03887            -180.00     7800.00
03888            -160.00     7800.00
03889            -200.00     8000.00
03890            -160.00     8200.00
03891            -180.00     8200.00
03892            -180.00     8400.00
03893            -220.00     8400.00
03894            -300.00     8400.00
03895            -240.00     8600.00
03896            -240.00     8600.00
03897            -260.00     8800.00
03898            -260.00     9000.00
03899            -300.00     9000.00
03900            -320.00     9000.00
03901            -320.00     9000.00
03902            -300.00     9200.00
03903            -320.00     9200.00
03904            -380.00     9200.00
03905            -400.00     9400.00
03906            -400.00     9400.00
03907            -460.00     9400.00
03908            -460.00     9400.00
03909            -480.00     9400.00
03910            -480.00     9600.00
03911            -500.00     9800.00
03912            -540.00     9800.00
03913            -580.00     9800.00
03914            -640.00     9800.00
03915            -620.00     9800.00
03916            -640.00    10000.00
03917            -700.00     9800.00
03918            -740.00     9800.00
03919            -780.00     9800.00
03920            -820.00     9800.00
03921            -860.00     9800.00
03922            -900.00     9800.00
03923            -960.00     9800.00
03924           -1000.00     9800.00
03925           -1060.00    10000.00
03926           -1120.00     9800.00
03927           -1200.00     9800.00
03928           -1240.00     9800.00
03929           -1280.00     9800.00
03930           -1320.00     9800.00
03931           -1380.00     9600.00
03932           -1420.00     9800.00
03933           -1440.00     9800.00
03934           -1500.00     9600.00
03935           -1500.00     9800.00
03936           -1520.00     9400.00
03937           -1520.00     9400.00
03938           -1520.00     9400.00
03939           -1520.00     9400.00
03940           -1540.00     9400.00
03941           -1520.00     9200.00
03942           -1460.00     9000.00
03943           -1440.00     9200.00
03944           -1380.00     9000.00
03945           -1340.00     9000.00
03946           -1280.00     9000.00
03947           -1220.00     8600.00
03948           -1140.00     8600.00
03949           -1100.00     8600.00
03950           -1040.00     8600.00
03951            -980.00     8400.00
03952            -940.00     8200.00
03953            -880.00     8200.00
03954            -820.00     8200.00
03955            -780.00     8200.00
03956            -700.00     7800.00
03957            -660.00     7600.00
03958            -640.00     7800.00
03959            -580.00     7600.00
03960            -560.00     7400.00
03961            -500.00     7200.00
03962            -480.00     7200.00
03963            -420.00     7000.00
03964            -420.00     6800.00
03965            -420.00     6800.00
03966            -380.00     6800.00
03967            -360.00     6600.00
03968            -320.00     6400.00
03969            -320.00     6200.00
03970            -300.00     6000.00
03971            -260.00     6000.00
03972            -260.00     5800.00
03973            -260.00     5600.00
03974            -240.00     5400.00
03975            -240.00     5400.00
03976            -220.00     5200.00
03977            -220.00     5000.00
03978            -200.00     4800.00
03979            -220.00     4600.00
03980            -220.00     4600.00
03981            -180.00     4400.00
03982            -160.00     4200.00
03983            -160.00     4000.00
03984            -160.00     3800.00
03985            -160.00     3800.00
03986            -160.00     3600.00
03987            -140.00     3400.00
03988            -140.00     3200.00
03989            -120.00     3000.00
03990            -120.00     2800.00
03991            -140.00     2600.00
03992            -140.00     2600.00
03993            -140.00     2200.00
03994            -100.00     2200.00
03995             -80.00     1800.00
03996            -100.00     1800.00
03997            -100.00     1600.00
03998            -100.00     1400.00
03999            -100.00     1200.00
04000            -100.00     1000.00
04001             -80.00      800.00
04002             -80.00      600.00
04003             -60.00      600.00
04004             -60.00      400.00
04005             -60.00      200.00
04006             -60.00     -200.00
04007             -20.00     -400.00
04008              20.00     -400.00
04009              80.00     -600.00
04010              60.00     -600.00
04011              40.00    -1000.00
04012               0.00     -800.00
04013               0.00    -1200.00
04014              60.00    -1400.00
04015             220.00    -1400.00
04016             780.00    -1800.00
04017             800.00    -2200.00
04018             -20.00    -2200.00
04019            -780.00    -2600.00
04020           -1060.00    -2600.00
04021            -820.00    -2200.00
04022             420.00    -2800.00
04023             400.00    -3400.00
04024            -160.00    -3000.00
04025             340.00    -3800.00
04026             120.00    -3400.00
04027               0.00    -3400.00
04028             220.00    -4200.00
04029             -80.00    -3800.00
04030             240.00    -4400.00
04031             240.00    -4400.00
04032            -140.00    -4600.00
04033             -20.00    -5000.00
04034               0.00    -4600.00
04035             100.00    -5000.00
04036              80.00    -5400.00
04037             100.00    -5200.00
04038              60.00    -5800.00
04039               0.00    -5800.00
04040             220.00    -6000.00
04041             100.00    -6000.00
04042              40.00    -6200.00
04043             140.00    -6600.00
04044             140.00    -6200.00
04045             100.00    -6600.00
04046              20.00    -6800.00
04047             120.00    -6800.00
04048             180.00    -7000.00
04049             140.00    -7000.00
04050             100.00    -7400.00
04051             160.00    -7200.00
04052             140.00    -7600.00
04053             160.00    -7800.00
04054             220.00    -7600.00
04055             160.00    -7800.00
04056             140.00    -8000.00
04057             180.00    -8200.00
04058             220.00    -8200.00
04059             200.00    -8400.00
04060             220.00    -8400.00
04061             240.00    -8600.00
04062             220.00    -8600.00
04063             240.00    -8600.00
04064             260.00    -8800.00
04065             300.00    -9000.00
04066             300.00    -9000.00
04067             300.00    -9000.00
04068             320.00    -9200.00
04069             320.00    -9200.00
04070             360.00    -9400.00
04071             420.00    -9400.00
04072             400.00    -9400.00
04073             380.00    -9400.00
04074             420.00    -9400.00
04075             420.00    -9400.00
04076             460.00    -9600.00
04077             500.00    -9600.00
04078             540.00    -9800.00
04079             540.00    -9800.00
04080             560.00    -9800.00
04081             580.00    -9800.00
04082             620.00    -9600.00
04083             640.00    -9800.00
04084             720.00    -9800.00
04085             740.00    -9800.00
04086             780.00   -10000.00
04087             800.00    -9800.00
04088             860.00    -9800.00
04089             900.00    -9800.00
04090             960.00    -9800.00
04091            1020.00    -9800.00
04092            1060.00    -9800.00
04093            1100.00   -10000.00
04094            1180.00    -9800.00
04095            1220.00    -9800.00
04096            1260.00    -9800.00
04097            1340.00    -9800.00
04098            1380.00    -9600.00
04099            1420.00    -9800.00
04100            1440.00    -9800.00
04101            1480.00    -9600.00
04102            1500.00    -9400.00
04103            1520.00    -9600.00
04104            1540.00    -9400.00
04105            1540.00    -9400.00
04106            1540.00    -9400.00
04107            1500.00    -9400.00
04108            1500.00    -9200.00
04109            1480.00    -9200.00
04110            1440.00    -9200.00
04111            1420.00    -9000.00
04112            1360.00    -9000.00
04113            1280.00    -9000.00
04114            1220.00    -9000.00
04115            1180.00    -8600.00
04116            1100.00    -8600.00
04117            1060.00    -8400.00
04118            1020.00    -8600.00
04119             940.00    -8400.00
04120             860.00    -8400.00
04121             800.00    -8200.00
04122             780.00    -8200.00
04123             740.00    -7800.00
04124             660.00    -7600.00
04125             640.00    -7600.00
04126             580.00    -7600.00
04127             540.00    -7600.00
04128             520.00    -7200.00
04129             500.00    -7200.00
04130             460.00    -7000.00
04131             420.00    -7000.00
04132             420.00    -6800.00
04133             380.00    -6600.00
04134             340.00    -6600.00
04135             340.00    -6400.00
04136             320.00    -6200.00
04137             320.00    -6200.00
04138             300.00    -6000.00
04139             280.00    -5800.00
04140             240.00    -5800.00
04141             240.00    -5600.00
04142             220.00    -5400.00
04143             220.00    -5200.00
04144             220.00    -5000.00
04145             220.00    -5000.00
04146             180.00    -4800.00
04147             180.00    -4600.00
04148             160.00    -4400.00
04149             180.00    -4200.00
04150             160.00    -4000.00
04151             160.00    -3800.00
04152             140.00    -3800.00
04153             140.00    -3600.00
04154             140.00    -3400.00
04155             120.00    -3200.00
04156             140.00    -3000.00
04157             140.00    -2800.00
04158             140.00    -2800.00
04159             120.00    -2600.00
04160             100.00    -2200.00
04161             100.00    -2000.00
04162             100.00    -2000.00
04163             100.00    -1800.00
04164             100.00    -1800.00
04165              80.00    -1400.00
04166              80.00    -1200.00
04167              60.00    -1200.00
04168              80.00     -800.00
04169              80.00     -600.00
04170              80.00     -600.00
04171              80.00     -400.00
04172              60.00     -200.00
04173              60.00      200.00
04174              80.00      400.00
04175              80.00      400.00
04176             180.00      600.00
04177             160.00      800.00
04178             140.00     1000.00
04179             100.00     1000.00
04180              80.00     1200.00
04181             120.00     1400.00
04182             460.00     1800.00
04183            1120.00     2000.00
04184             740.00     2000.00
04185            -460.00     2200.00
04186           -1300.00     2000.00
04187           -1400.00     2200.00
04188             240.00     3000.00
04189             880.00     2800.00
04190            -260.00     2800.00
04191             220.00     3400.00
04192             300.00     3000.00
04193            -320.00     4000.00
04194             100.00     3600.00
04195            -100.00     3600.00
04196             220.00     4600.00
04197             300.00     3800.00
04198            -460.00     4400.00
04199              80.00     5000.00
04200             -40.00     4600.00
04201            -220.00     5200.00
04202             140.00     4800.00
04203             -20.00     5400.00
04204             -20.00     5600.00
04205            -160.00     5200.00
04206              20.00     6000.00
04207              20.00     5800.00
04208            -220.00     6000.00
04209               0.00     6400.00
04210             -80.00     6200.00
04211             -60.00     6800.00
04212            -160.00     6200.00
04213            -120.00     6800.00
04214             -20.00     6800.00
04215            -100.00     6800.00
04216             -80.00     7400.00
04217            -140.00     7000.00
04218            -140.00     7400.00
04219            -160.00     7400.00
04220            -100.00     7600.00
04221            -160.00     7800.00
04222            -180.00     7800.00
04223            -160.00     8200.00
04224            -220.00     7800.00
04225            -180.00     8200.00
04226            -160.00     8200.00
04227            -160.00     8200.00
04228            -260.00     8600.00
04229            -260.00     8600.00
04230            -240.00     8600.00
04231            -240.00     8600.00
04232            -260.00     9000.00
04233            -300.00     8600.00
04234            -320.00     9000.00
04235            -340.00     9000.00
04236            -320.00     9000.00
04237            -320.00     9200.00
04238            -340.00     9200.00
04239            -400.00     9400.00
04240            -400.00     9400.00
04241            -420.00     9400.00
04242            -460.00     9400.00
04243            -440.00     9600.00
04244            -480.00     9600.00
04245            -500.00     9800.00
04246            -520.00     9600.00
04247            -580.00     9800.00
04248            -620.00     9600.00
04249            -640.00     9800.00
04250            -620.00     9800.00
04251            -700.00     9800.00
04252            -740.00     9800.00
04253            -760.00     9800.00
04254            -820.00    10000.00
04255            -860.00     9800.00
04256            -900.00     9800.00
04257            -920.00     9800.00
04258            -980.00     9800.00
04259           -1060.00     9800.00
04260           -1100.00     9800.00
04261           -1180.00    10000.00
04262           -1220.00     9800.00
04263           -1260.00     9800.00
04264           -1300.00     9800.00
04265           -1360.00     9800.00
04266           -1380.00     9800.00
04267           -1440.00     9600.00
04268           -1460.00     9600.00
04269           -1500.00     9400.00
04270           -1520.00     9600.00
04271           -1520.00     9600.00
04272           -1520.00     9400.00
04273           -1520.00     9400.00
04274           -1520.00     9200.00
04275           -1520.00     9400.00
04276           -1500.00     9200.00
04277           -1420.00     9200.00
04278           -1380.00     9000.00
04279           -1360.00     9000.00
04280           -1300.00     9000.00
04281           -1260.00     8800.00
04282           -1200.00     8600.00
04283           -1120.00     8600.00
04284           -1060.00     8600.00
04285           -1020.00     8600.00
04286            -960.00     8200.00
04287            -900.00     8400.00
04288            -840.00     8200.00
04289            -800.00     8000.00
04290            -740.00     7800.00
04291            -680.00     7800.00
04292            -640.00     7600.00
04293            -620.00     7600.00
04294            -580.00     7400.00
04295            -540.00     7400.00
04296            -480.00     7200.00
04297            -460.00     7200.00
04298            -420.00     7000.00
04299            -420.00     6800.00
04300            -400.00     6600.00
04301            -340.00     6600.00
04302            -340.00     6400.00
04303            -320.00     6200.00
04304            -320.00     6200.00
04305            -300.00     6000.00
04306            -260.00     6000.00
04307            -260.00     5800.00
04308            -260.00     5600.00
04309            -260.00     5400.00
04310            -220.00     5400.00
04311            -200.00     5000.00
04312            -220.00     5000.00
04313            -220.00     4600.00
04314            -200.00     4600.00
04315            -200.00     4400.00
04316            -180.00     4400.00
04317            -160.00     4000.00
04318            -160.00     3800.00
04319            -160.00     3600.00
04320            -160.00     3400.00
04321            -160.00     3400.00
04322            -140.00     3400.00
04323            -140.00     3000.00
04324            -120.00     2800.00
04325            -140.00     2600.00
04326            -100.00     2600.00
04327            -100.00     2400.00
04328            -140.00     2000.00
04329            -100.00     2200.00
04330            -100.00     1800.00
04331             -80.00     1600.00
04332             -80.00     1400.00
04333            -100.00     1200.00
04334             -80.00     1000.00
04335             -80.00      800.00
04336             -80.00      600.00
04337             -80.00      600.00
04338             -60.00      400.00
04339             -60.00      200.00
04340             -40.00      200.00
04341             -20.00     -200.00
04342              20.00     -200.00
04343              80.00     -400.00
04344              80.00     -600.00
04345              60.00     -800.00
04346               0.00    -1000.00
04347              20.00    -1200.00
04348              40.00    -1200.00
04349             100.00    -1400.00
04350             540.00    -1800.00
04351             940.00    -2000.00
04352             380.00    -2200.00
04353            -540.00    -2400.00
04354            -980.00    -2600.00
04355           -1060.00    -2400.00
04356            -100.00    -2600.00
04357             660.00    -3200.00
04358             -80.00    -3000.00
04359             140.00    -3400.00
04360             320.00    -3600.00
04361            -100.00    -3400.00
04362             220.00    -4000.00
04363               0.00    -4000.00
04364              60.00    -4200.00
04365             380.00    -4400.00
04366             -60.00    -4200.00
04367            -120.00    -5000.00
04368               0.00    -4800.00
04369              60.00    -4800.00
04370             100.00    -5400.00
04371              80.00    -5200.00
04372              80.00    -5400.00
04373             -20.00    -5800.00
04374             140.00    -6000.00
04375             200.00    -6000.00
04376              20.00    -6000.00
04377              80.00    -6600.00
04378             140.00    -6200.00
04379             140.00    -6600.00
04380              60.00    -6800.00
04381              80.00    -6800.00
04382             180.00    -7000.00
04383             160.00    -7000.00
04384             140.00    -7400.00
04385             140.00    -7200.00
04386             160.00    -7400.00
04387             140.00    -7600.00
04388             180.00    -7800.00
04389             180.00    -7800.00
04390             140.00    -8000.00
04391             180.00    -8200.00
04392             220.00    -8200.00
04393             220.00    -8200.00
04394             200.00    -8400.00
04395             260.00    -8400.00
04396             240.00    -8600.00
04397             220.00    -8600.00
04398             260.00    -8800.00
04399             320.00    -8800.00
04400             280.00    -9000.00
04401             300.00    -9000.00
04402             320.00    -9000.00
04403             320.00    -9000.00
04404             340.00    -9200.00
04405             380.00    -9200.00
04406             400.00    -9200.00
04407             400.00    -9400.00
04408             400.00    -9400.00
04409             420.00    -9400.00
04410             460.00    -9400.00
04411             480.00    -9400.00
04412             520.00    -9800.00
04413             560.00    -9600.00
04414             540.00    -9800.00
04415             580.00    -9800.00
04416             600.00    -9800.00
04417             620.00    -9800.00
04418             700.00    -9800.00
04419             740.00    -9800.00
04420             740.00    -9800.00
04421             800.00    -9800.00
04422             840.00    -9800.00
04423             860.00    -9800.00
04424             920.00    -9800.00
04425            1020.00    -9800.00
04426            1060.00    -9800.00
04427            1100.00    -9800.00
04428            1140.00    -9800.00
04429            1180.00    -9800.00
04430            1260.00    -9800.00
04431            1300.00    -9800.00
04432            1360.00    -9800.00
04433            1420.00    -9800.00
04434            1440.00    -9600.00
04435            1460.00    -9600.00
04436            1500.00    -9600.00
04437            1500.00    -9600.00
04438            1540.00    -9400.00
04439            1540.00    -9400.00
04440            1540.00    -9400.00
04441            1520.00    -9400.00
04442            1520.00    -9400.00
04443            1460.00    -9200.00
04444            1440.00    -9200.00
04445            1420.00    -9000.00
04446            1360.00    -9000.00
04447            1320.00    -9000.00
04448            1260.00    -8800.00
04449            1180.00    -8600.00
04450            1140.00    -8600.00
04451            1100.00    -8600.00
04452            1020.00    -8600.00
04453             980.00    -8400.00
04454             880.00    -8400.00
04455             820.00    -8400.00
04456             780.00    -8200.00
04457             760.00    -8000.00
04458             720.00    -7800.00
04459             700.00    -7600.00
04460             620.00    -7600.00
04461             560.00    -7600.00
04462             520.00    -7200.00
04463             480.00    -7200.00
04464             480.00    -7200.00
04465             460.00    -7000.00
04466             420.00    -6800.00
04467             380.00    -6800.00
04468             340.00    -6600.00
04469             340.00    -6400.00
04470             340.00    -6400.00
04471             320.00    -6200.00
04472             320.00    -6200.00
04473             300.00    -6000.00
04474             240.00    -5800.00
04475             240.00    -5800.00
04476             240.00    -5400.00
04477             220.00    -5400.00
04478             220.00    -5200.00
04479             220.00    -5000.00
04480             200.00    -5000.00
04481             180.00    -4600.00
04482             180.00    -4400.00
04483             160.00    -4400.00
04484             160.00    -4200.00
04485             180.00    -4000.00
04486             160.00    -3800.00
04487             140.00    -3600.00
04488             140.00    -3400.00
04489             140.00    -3400.00
04490             140.00    -3000.00
04491             140.00    -3000.00
04492             140.00    -2800.00
04493             100.00    -2400.00
04494             100.00    -2400.00
04495             100.00    -2200.00
04496              80.00    -2200.00
04497             100.00    -1800.00
04498             100.00    -1800.00
04499             100.00    -1600.00
04500              80.00    -1200.00
04501              80.00    -1200.00
04502              60.00     -800.00
04503              60.00     -800.00
04504              60.00     -600.00
04505              80.00     -400.00
04506              60.00     -400.00
04507              80.00        0.00
04508              60.00      400.00
04509              60.00      400.00
04510             140.00      400.00
04511             180.00      600.00
04512             160.00      800.00
04513             120.00     1000.00
04514             100.00     1000.00
04515             100.00     1200.00
04516             220.00     1400.00
04517             860.00     2000.00
04518            1040.00     2000.00
04519              60.00     2200.00
04520           -1040.00     2200.00
04521           -1540.00     2200.00
04522            -580.00     2800.00
04523            1020.00     3000.00
04524             160.00     2800.00
04525            -120.00     3200.00
04526             480.00     2800.00
04527            -200.00     3800.00
04528             -80.00     4200.00
04529              20.00     3400.00
04530             -20.00     4400.00
04531             480.00     4400.00
04532            -240.00     3800.00
04533            -220.00     5000.00
04534             160.00     4400.00
04535            -300.00     5000.00
04536              60.00     5000.00
04537              60.00     5000.00
04538             -20.00     5800.00
04539            -100.00     5200.00
04540            -100.00     5800.00
04541             140.00     6200.00
04542            -160.00     5600.00
04543             -80.00     6200.00
04544             -20.00     6200.00
04545            -100.00     6600.00
04546            -100.00     6600.00
04547            -180.00     6600.00
04548             -20.00     7000.00
04549            -100.00     6800.00
04550             -80.00     7200.00
04551            -100.00     7200.00
04552            -140.00     7400.00
04553            -160.00     7400.00
04554            -120.00     7600.00
04555            -100.00     7800.00
04556            -220.00     7600.00
04557            -180.00     7800.00
04558            -220.00     8000.00
04559            -180.00     8200.00
04560            -180.00     8200.00
04561            -160.00     8200.00
04562            -240.00     8400.00
04563            -280.00     8400.00
04564            -240.00     8600.00
04565            -260.00     8600.00
04566            -260.00     8600.00
04567            -300.00     9000.00
04568            -320.00     9000.00
04569            -340.00     9200.00
04570            -320.00     9200.00
04571            -300.00     9200.00
04572            -340.00     9200.00
04573            -380.00     9400.00
04574            -420.00     9400.00
04575            -420.00     9400.00
04576            -460.00     9400.00
04577            -480.00     9600.00
04578            -460.00     9400.00
04579            -480.00     9600.00
04580            -500.00     9800.00
04581            -540.00     9600.00
04582            -620.00     9800.00
04583            -640.00     9800.00
04584            -640.00     9800.00
04585            -660.00     9800.00
04586            -720.00     9800.00
04587            -760.00     9800.00
04588            -780.00     9800.00
04589            -840.00     9800.00
04590            -860.00    10000.00
04591            -900.00    10000.00
04592            -960.00     9800.00
04593           -1040.00     9800.00
04594           -1060.00     9800.00
04595           -1120.00     9800.00
04596           -1220.00     9800.00
04597           -1240.00     9800.00
04598           -1280.00     9800.00
04599           -1300.00     9800.00
04600           -1380.00     9800.00
04601           -1420.00     9800.00
04602           -1460.00     9800.00
04603           -1480.00     9400.00
04604           -1500.00     9600.00
04605           -1520.00     9400.00
04606           -1540.00     9400.00
04607           -1540.00     9400.00
04608           -1520.00     9400.00
04609           -1520.00     9400.00
04610           -1520.00     9400.00
04611           -1440.00     9200.00
04612           -1420.00     9200.00
04613           -1380.00     9000.00
04614           -1340.00     9000.00
04615           -1280.00     9000.00
04616           -1200.00     8800.00
04617           -1140.00     8600.00
04618           -1080.00     8600.00
04619           -1020.00     8400.00
04620            -980.00     8400.00
04621            -920.00     8400.00
04622            -880.00     8200.00
04623            -800.00     8000.00
04624            -760.00     8000.00
04625            -700.00     7800.00
04626            -660.00     7800.00
04627            -640.00     7600.00
04628            -600.00     7600.00
04629            -560.00     7400.00
04630            -500.00     7200.00
04631            -480.00     7200.00
04632            -420.00     7000.00
04633            -420.00     7000.00
04634            -420.00     6800.00
04635            -380.00     6600.00
04636            -360.00     6600.00
04637            -340.00     6200.00
04638            -320.00     6200.00
04639            -320.00     6200.00
04640            -280.00     6000.00
04641            -280.00     5800.00
04642            -260.00     5800.00
04643            -260.00     5400.00
04644            -240.00     5400.00
04645            -220.00     5200.00
04646            -220.00     5000.00
04647            -220.00     4800.00
04648            -220.00     4600.00
04649            -180.00     4600.00
04650            -180.00     4400.00
04651            -160.00     4200.00
04652            -160.00     4200.00
04653            -160.00     3800.00
04654            -160.00     3600.00
04655            -140.00     3600.00
04656            -140.00     3400.00
04657            -140.00     3400.00
04658            -100.00     3000.00
04659            -100.00     2800.00
04660            -100.00     2600.00
04661            -100.00     2400.00
04662            -100.00     2200.00
04663            -100.00     2200.00
04664            -100.00     1800.00
04665             -80.00     1800.00
04666             -80.00     1600.00
04667            -100.00     1200.00
04668             -80.00     1400.00
04669             -80.00     1200.00
04670             -80.00      800.00
04671             -60.00      600.00
04672             -60.00      400.00
04673             -60.00      200.00
04674             -60.00      200.00
04675             -60.00     -200.00
04676             -20.00     -400.00
04677              60.00     -400.00
04678             100.00     -600.00
04679              60.00     -800.00
04680              20.00    -1000.00
04681              20.00    -1000.00
04682              20.00    -1400.00
04683              60.00    -1400.00
04684             300.00    -1600.00
04685             840.00    -2000.00
04686             720.00    -2200.00
04687            -180.00    -2400.00
04688            -880.00    -2600.00
04689           -1100.00    -2600.00
04690            -660.00    -2600.00
04691             580.00    -3000.00
04692             240.00    -3200.00
04693            -100.00    -3000.00
04694             400.00    -3800.00
04695              20.00    -3400.00
04696              60.00    -3600.00
04697             160.00    -4200.00
04698            -100.00    -4000.00
04699             300.00    -4600.00
04700             160.00    -4400.00
04701            -180.00    -4600.00
04702             -20.00    -5000.00
04703               0.00    -4600.00
04704             100.00    -5200.00
04705              60.00    -5200.00
04706             100.00    -5400.00
04707              20.00    -5800.00
04708              60.00    -5600.00
04709             220.00    -6000.00
04710              80.00    -6000.00
04711              60.00    -6200.00
04712             120.00    -6600.00
04713             160.00    -6400.00
04714             100.00    -7000.00
04715              20.00    -6600.00
04716             160.00    -7000.00
04717             180.00    -7000.00
04718             140.00    -7200.00
04719             140.00    -7400.00
04720             180.00    -7200.00
04721             160.00    -7600.00
04722             180.00    -7600.00
04723             180.00    -7800.00
04724             160.00    -8200.00
04725             160.00    -7800.00
04726             220.00    -8200.00
04727             220.00    -8200.00
04728             220.00    -8400.00
04729             240.00    -8400.00
04730             260.00    -8600.00
04731             220.00    -8600.00
04732             240.00    -8600.00
04733             300.00    -8600.00
04734             320.00    -9000.00
04735             300.00    -9000.00
04736             320.00    -9000.00
04737             320.00    -9000.00
04738             320.00    -9200.00
04739             380.00    -9200.00
04740             420.00    -9200.00
04741             380.00    -9400.00
04742             380.00    -9400.00
04743             420.00    -9400.00
04744             460.00    -9400.00
04745             460.00    -9400.00
04746             500.00    -9600.00
04747             540.00    -9800.00
04748             540.00    -9800.00
04749             580.00    -9800.00
04750             620.00    -9600.00
04751             620.00    -9800.00
04752             660.00    -9800.00
04753             720.00    -9800.00
04754             740.00    -9800.00
04755             780.00    -9800.00
04756             820.00    -9800.00
04757             860.00    -9800.00
04758             880.00    -9800.00
04759             960.00    -9800.00
04760            1040.00    -9800.00
04761            1060.00   -10000.00
04762            1120.00    -9800.00
04763            1180.00    -9800.00
04764            1220.00    -9600.00
04765            1280.00    -9800.00
04766            1340.00    -9600.00
04767            1400.00    -9800.00
04768            1420.00    -9600.00
04769            1440.00    -9800.00
04770            1460.00    -9800.00
04771            1500.00    -9600.00
04772            1520.00    -9600.00
04773            1540.00    -9400.00
04774            1540.00    -9400.00
04775            1520.00    -9400.00
04776            1520.00    -9200.00
04777            1500.00    -9200.00
04778            1460.00    -9200.00
04779            1420.00    -9200.00
04780            1420.00    -9200.00
04781            1340.00    -9000.00
04782            1280.00    -9000.00
04783            1200.00    -8800.00
04784            1140.00    -8800.00
04785            1120.00    -8600.00
04786            1040.00    -8600.00
04787             980.00    -8400.00
04788             940.00    -8200.00
04789             860.00    -8200.00
04790             800.00    -8200.00
04791             780.00    -8000.00
04792             720.00    -7800.00
04793             680.00    -7800.00
04794             640.00    -7600.00
04795             580.00    -7400.00
04796             540.00    -7400.00
04797             520.00    -7200.00
04798             480.00    -7000.00
04799             480.00    -7000.00
04800             460.00    -7000.00
04801             400.00    -6800.00
04802             380.00    -6600.00
04803             340.00    -6600.00
04804             320.00    -6400.00
04805             320.00    -6200.00
04806             300.00    -6200.00
04807             300.00    -6000.00
04808             280.00    -5800.00
04809             240.00    -5600.00
04810             240.00    -5400.00
04811             240.00    -5400.00
04812             220.00    -5200.00
04813             220.00    -5200.00
04814             220.00    -4800.00
04815             180.00    -4600.00
04816             180.00    -4600.00
04817             160.00    -4400.00
04818             160.00    -4400.00
04819             160.00    -4200.00
04820             160.00    -4200.00
04821             160.00    -3600.00
04822             140.00    -3600.00
04823             100.00    -3400.00
04824             120.00    -3200.00
04825             140.00    -3000.00
04826             140.00    -2800.00
04827             100.00    -2600.00
04828             100.00    -2400.00
04829              80.00    -2200.00
04830             100.00    -2200.00
04831             100.00    -2000.00
04832             100.00    -2000.00
04833              80.00    -1600.00
04834              80.00    -1400.00
04835              80.00    -1200.00
04836              80.00     -800.00
04837              60.00     -800.00
04838              80.00     -600.00
04839              60.00     -400.00
04840              60.00     -200.00
04841              60.00     -200.00
04842              60.00      200.00
04843              60.00      400.00
04844             140.00      400.00
04845             160.00      600.00
04846             160.00      600.00
04847             140.00      800.00
04848             140.00     1000.00
04849             100.00     1200.00
04850             140.00     1400.00
04851             580.00     1800.00
04852            1140.00     2000.00
04853             540.00     2000.00
04854            -640.00     2200.00
04855           -1420.00     2000.00
04856           -1240.00     2600.00
04857             560.00     3000.00
04858             720.00     2800.00
04859            -300.00     3000.00
04860             340.00     3000.00
04861             160.00     3400.00
04862            -260.00     4200.00
04863             140.00     3600.00
04864            -100.00     3800.00
04865             340.00     4600.00
04866             140.00     3800.00
04867            -440.00     4600.00
04868             160.00     5000.00
04869            -100.00     4600.00
04870            -160.00     5200.00
04871             140.00     4800.00
04872             -20.00     5600.00
04873             -20.00     5800.00
04874            -180.00     5200.00
04875              80.00     6200.00
04876             -20.00     5800.00
04877            -160.00     6200.00
04878               0.00     6200.00
04879            -100.00     6200.00
04880             -80.00     6600.00
04881            -180.00     6400.00
04882             -80.00     7000.00
04883             -60.00     6800.00
04884            -100.00     7000.00
04885             -80.00     7200.00
04886            -160.00     7000.00
04887            -140.00     7600.00
04888            -140.00     7400.00
04889            -100.00     7600.00
04890            -200.00     7800.00
04891            -180.00     7800.00
04892            -180.00     8200.00
04893            -200.00     8000.00
04894            -160.00     8200.00
04895            -180.00     8200.00
04896            -200.00     8400.00
04897            -300.00     8400.00
04898            -260.00     8600.00
04899            -240.00     8600.00
04900            -240.00     8600.00
04901            -260.00     9000.00
04902            -300.00     9000.00
04903            -340.00     9000.00
04904            -340.00     9200.00
04905            -300.00     9200.00
04906            -320.00     9200.00
04907            -360.00     9200.00
04908            -400.00     9400.00
04909            -400.00     9400.00
04910            -460.00     9400.00
04911            -480.00     9600.00
04912            -480.00     9600.00
04913            -480.00     9600.00
04914            -500.00     9800.00
04915            -540.00     9800.00
04916            -580.00     9800.00
04917            -620.00     9800.00
04918            -620.00    10000.00
04919            -620.00     9800.00
04920            -700.00     9800.00
04921            -740.00    10000.00
04922            -760.00     9800.00
04923            -800.00     9800.00
04924            -860.00     9800.00
04925            -900.00     9800.00
04926            -940.00    10000.00
04927            -980.00     9800.00
04928           -1060.00    10000.00
04929           -1100.00     9800.00
04930           -1180.00     9800.00
04931           -1220.00     9800.00
04932           -1260.00     9800.00
04933           -1300.00     9800.00
04934           -1340.00     9600.00
04935           -1420.00     9800.00
04936           -1440.00     9600.00
04937           -1500.00     9800.00
04938           -1500.00     9600.00
04939           -1520.00     9600.00
04940           -1520.00     9400.00
04941           -1540.00     9400.00
04942           -1540.00     9400.00
04943           -1520.00     9400.00
04944           -1520.00     9200.00
04945           -1460.00     9200.00
04946           -1420.00     9200.00
04947           -1380.00     9000.00
04948           -1360.00     9000.00
04949           -1300.00     9000.00
04950           -1240.00     8800.00
04951           -1180.00     8600.00
04952           -1120.00     8600.00
04953           -1060.00     8600.00
04954           -1020.00     8400.00
04955            -960.00     8400.00
04956            -880.00     8200.00
04957            -860.00     8200.00
04958            -800.00     7800.00
04959            -740.00     7800.00
04960            -680.00     7800.00
04961            -640.00     7800.00
04962            -620.00     7600.00
04963            -580.00     7400.00
04964            -540.00     7400.00
04965            -480.00     7400.00
04966            -460.00     7000.00
04967            -460.00     7000.00
04968            -420.00     6600.00
04969            -400.00     6600.00
04970            -380.00     6600.00
04971            -340.00     6400.00
04972            -320.00     6200.00
04973            -300.00     6200.00
04974            -300.00     5800.00
04975            -300.00     5800.00
04976            -260.00     5800.00
04977            -260.00     5600.00
04978            -240.00     5400.00
04979            -220.00     5200.00
04980            -220.00     5000.00
04981            -220.00     5000.00
04982            -200.00     5000.00
04983            -180.00     4600.00
04984            -180.00     4400.00
04985            -160.00     4200.00
04986            -160.00     4200.00
04987            -160.00     3800.00
04988            -160.00     3600.00
04989            -140.00     3600.00
04990            -140.00     3400.00
04991            -140.00     3400.00
04992            -120.00     3000.00
04993            -120.00     3000.00
04994            -100.00     2800.00
04995            -100.00     2600.00
04996            -120.00     2400.00
04997            -120.00     2000.00
04998            -100.00     2000.00
04999            -100.00     1800.00
05000             -80.00     1400.00
