Unit:(mV)
                     CH1         CH2
Frequency              ? 299.090 kHz
00001               0.00    -1200.00
00002               0.00    -1400.00
00003             160.00    -1600.00
00004             720.00    -1800.00
00005             940.00    -2200.00
00006             160.00    -2400.00
00007            -820.00    -2600.00
00008           -1280.00    -2600.00
00009           -1320.00    -2600.00
00010            -140.00    -2600.00
00011             620.00    -3400.00
00012             140.00    -3000.00
00013             420.00    -3400.00
00014             300.00    -3800.00
00015            -140.00    -3400.00
00016             140.00    -4200.00
00017            -160.00    -4200.00
00018             -20.00    -4400.00
00019             200.00    -4600.00
00020            -160.00    -4600.00
00021            -220.00    -5200.00
00022            -140.00    -4800.00
00023             -20.00    -5000.00
00024             -20.00    -5600.00
00025               0.00    -5400.00
00026               0.00    -5800.00
00027            -140.00    -5800.00
00028              20.00    -6200.00
00029               0.00    -6200.00
00030             -80.00    -6200.00
00031             -20.00    -6600.00
00032             -20.00    -6400.00
00033             -20.00    -6800.00
00034            -100.00    -6800.00
00035            -100.00    -7000.00
00036              20.00    -7400.00
00037             -20.00    -7200.00
00038             -60.00    -7600.00
00039             -20.00    -7200.00
00040             -20.00    -7600.00
00041             -60.00    -8000.00
00042             -20.00    -7800.00
00043             -60.00    -8200.00
00044            -100.00    -8200.00
00045             -80.00    -8200.00
00046               0.00    -8400.00
00047             -20.00    -8600.00
00048             -60.00    -8600.00
00049               0.00    -8600.00
00050             -60.00    -8800.00
00051             -80.00    -8800.00
00052             -40.00    -9000.00
00053             -20.00    -9000.00
00054             -20.00    -9200.00
00055             -60.00    -9200.00
00056             -40.00    -9200.00
00057             -60.00    -9400.00
00058             -20.00    -9400.00
00059               0.00    -9400.00
00060               0.00    -9400.00
00061             -60.00    -9600.00
00062             -60.00    -9600.00
00063             -40.00    -9600.00
00064             -40.00    -9800.00
00065             -20.00    -9600.00
00066               0.00    -9800.00
00067               0.00   -10000.00
00068             -20.00    -9800.00
00069             -20.00   -10000.00
00070             -40.00    -9800.00
00071             -60.00   -10000.00
00072               0.00   -10000.00
00073             -20.00   -10000.00
00074             -20.00   -10200.00
00075             -40.00   -10000.00
00076             -20.00   -10000.00
00077             -20.00   -10000.00
00078             -20.00   -10000.00
00079             -20.00   -10000.00
00080               0.00   -10000.00
00081             -20.00   -10000.00
00082             -20.00   -10000.00
00083             -20.00   -10000.00
00084             -40.00   -10000.00
00085             -20.00   -10000.00
00086               0.00   -10000.00
00087               0.00    -9800.00
00088             -20.00    -9800.00
00089             -20.00   -10000.00
00090               0.00    -9600.00
00091             -20.00    -9800.00
00092               0.00    -9800.00
00093               0.00    -9600.00
00094               0.00    -9600.00
00095             -20.00    -9600.00
00096             -20.00    -9400.00
00097             -20.00    -9400.00
00098               0.00    -9200.00
00099               0.00    -9200.00
00100               0.00    -9200.00
00101               0.00    -9200.00
00102             -60.00    -9000.00
00103             -40.00    -9000.00
00104             -20.00    -8600.00
00105              20.00    -8800.00
00106               0.00    -8600.00
00107               0.00    -8400.00
00108               0.00    -8400.00
00109               0.00    -8400.00
00110             -20.00    -8200.00
00111               0.00    -8200.00
00112              20.00    -8200.00
00113               0.00    -7800.00
00114              20.00    -7600.00
00115               0.00    -7800.00
00116               0.00    -7600.00
00117               0.00    -7200.00
00118               0.00    -7000.00
00119               0.00    -7000.00
00120               0.00    -7000.00
00121              20.00    -6800.00
00122               0.00    -6800.00
00123               0.00    -6600.00
00124               0.00    -6400.00
00125              20.00    -6200.00
00126              20.00    -6000.00
00127              40.00    -5800.00
00128              20.00    -5800.00
00129               0.00    -5600.00
00130               0.00    -5600.00
00131              40.00    -5400.00
00132              20.00    -5200.00
00133              60.00    -5000.00
00134              20.00    -4800.00
00135               0.00    -4800.00
00136              20.00    -4400.00
00137              20.00    -4400.00
00138              20.00    -4200.00
00139              60.00    -4200.00
00140              20.00    -3800.00
00141              20.00    -3600.00
00142              20.00    -3400.00
00143              20.00    -3400.00
00144              20.00    -3000.00
00145              40.00    -2800.00
00146              60.00    -2600.00
00147              40.00    -2600.00
00148              20.00    -2400.00
00149               0.00    -2200.00
00150              20.00    -2000.00
00151              20.00    -1800.00
00152              60.00    -1400.00
00153              60.00    -1600.00
00154              20.00    -1200.00
00155              20.00    -1200.00
00156               0.00     -800.00
00157              40.00     -600.00
00158              60.00     -600.00
00159              20.00     -400.00
00160              60.00     -200.00
00161              60.00      200.00
00162              60.00      200.00
00163              80.00      400.00
00164             180.00      800.00
00165             180.00      600.00
00166             160.00     1000.00
00167             100.00     1000.00
00168              80.00     1400.00
00169             100.00     1400.00
00170             420.00     1800.00
00171            1180.00     2000.00
00172             960.00     2200.00
00173            -280.00     2200.00
00174           -1360.00     2200.00
00175           -1760.00     2400.00
00176            -420.00     3000.00
00177            1020.00     3000.00
00178             260.00     3000.00
00179             440.00     3400.00
00180             540.00     3200.00
00181            -220.00     3800.00
00182             100.00     4000.00
00183            -100.00     3600.00
00184             140.00     4600.00
00185             480.00     4200.00
00186            -260.00     4400.00
00187              20.00     5200.00
00188              60.00     4600.00
00189            -100.00     5200.00
00190             180.00     5200.00
00191             100.00     5400.00
00192             160.00     5800.00
00193             -20.00     5400.00
00194              80.00     6000.00
00195             160.00     6000.00
00196             -60.00     6000.00
00197             100.00     6600.00
00198              60.00     6200.00
00199             100.00     6800.00
00200               0.00     6600.00
00201              20.00     7000.00
00202             120.00     7000.00
00203              80.00     7000.00
00204             100.00     7400.00
00205              60.00     7400.00
00206              60.00     7600.00
00207               0.00     7600.00
00208             100.00     7800.00
00209              80.00     7800.00
00210              40.00     7800.00
00211              20.00     8200.00
00212              40.00     8200.00
00213              80.00     8400.00
00214              60.00     8400.00
00215             100.00     8600.00
00216               0.00     8600.00
00217               0.00     8600.00
00218              20.00     9000.00
00219              60.00     9000.00
00220              60.00     9000.00
00221              20.00     9200.00
00222              20.00     9200.00
00223               0.00     9200.00
00224              60.00     9400.00
00225              80.00     9400.00
00226              60.00     9400.00
00227              20.00     9400.00
00228              20.00     9800.00
00229              20.00     9800.00
00230               0.00     9800.00
00231              40.00     9800.00
00232              60.00     9800.00
00233              60.00     9800.00
00234              60.00    10000.00
00235              20.00     9800.00
00236               0.00    10000.00
00237               0.00    10000.00
00238              20.00    10000.00
00239              60.00    10000.00
00240              20.00    10000.00
00241               0.00    10200.00
00242               0.00    10000.00
00243               0.00    10000.00
00244              20.00    10000.00
00245              40.00    10200.00
00246              60.00    10000.00
00247              60.00    10200.00
00248               0.00    10200.00
00249               0.00    10000.00
00250             -20.00    10000.00
00251               0.00    10000.00
00252              20.00     9800.00
00253              60.00    10200.00
00254              60.00    10000.00
00255               0.00     9800.00
00256              20.00     9800.00
00257               0.00    10000.00
00258              20.00     9800.00
00259              20.00     9800.00
00260              20.00     9800.00
00261              20.00     9600.00
00262               0.00     9600.00
00263               0.00     9400.00
00264              20.00     9400.00
00265              40.00     9400.00
00266              20.00     9400.00
00267               0.00     9200.00
00268               0.00     9200.00
00269               0.00     9000.00
00270               0.00     9000.00
00271              20.00     9000.00
00272               0.00     8800.00
00273               0.00     8600.00
00274               0.00     8600.00
00275               0.00     8400.00
00276               0.00     8400.00
00277             -20.00     8200.00
00278               0.00     8200.00
00279               0.00     8200.00
00280               0.00     7800.00
00281               0.00     7800.00
00282             -20.00     7600.00
00283               0.00     7600.00
00284               0.00     7400.00
00285               0.00     7200.00
00286               0.00     7000.00
00287             -20.00     7000.00
00288             -40.00     6800.00
00289             -20.00     6600.00
00290             -20.00     6600.00
00291             -20.00     6600.00
00292             -20.00     6200.00
00293               0.00     6200.00
00294             -20.00     6000.00
00295             -20.00     5800.00
00296             -20.00     5800.00
00297             -60.00     5400.00
00298             -20.00     5400.00
00299             -20.00     5200.00
00300             -20.00     5000.00
00301             -40.00     4800.00
00302             -60.00     4600.00
00303             -80.00     4400.00
00304             -60.00     4400.00
00305              20.00     4200.00
00306              20.00     4200.00
00307               0.00     3800.00
00308             -20.00     3800.00
00309             -80.00     3600.00
00310             -80.00     3200.00
00311             -60.00     3000.00
00312             -20.00     3000.00
00313             -20.00     2800.00
00314             -60.00     2800.00
00315             -40.00     2400.00
00316             -40.00     2200.00
00317             -40.00     2000.00
00318             -40.00     1800.00
00319             -20.00     1800.00
00320             -40.00     1400.00
00321             -20.00     1400.00
00322             -20.00     1000.00
00323             -20.00     1000.00
00324             -60.00      800.00
00325             -40.00      600.00
00326               0.00      400.00
00327             -20.00      200.00
00328             -20.00        0.00
00329             -60.00     -200.00
00330               0.00     -400.00
00331             100.00     -400.00
00332             120.00     -600.00
00333              80.00     -800.00
00334              20.00    -1000.00
00335               0.00    -1200.00
00336               0.00    -1200.00
00337              60.00    -1600.00
00338             480.00    -1800.00
00339             980.00    -2000.00
00340             500.00    -2200.00
00341            -540.00    -2600.00
00342           -1140.00    -2800.00
00343           -1380.00    -2600.00
00344            -660.00    -2600.00
00345             580.00    -3200.00
00346             220.00    -3000.00
00347             260.00    -3000.00
00348             480.00    -4200.00
00349            -100.00    -3400.00
00350              80.00    -3800.00
00351             -60.00    -4200.00
00352            -160.00    -4200.00
00353             220.00    -4600.00
00354             -80.00    -4400.00
00355            -260.00    -5000.00
00356            -160.00    -5000.00
00357             -80.00    -4800.00
00358               0.00    -5400.00
00359             -40.00    -5400.00
00360              20.00    -5800.00
00361            -100.00    -5800.00
00362             -20.00    -6000.00
00363              80.00    -6200.00
00364             -80.00    -6200.00
00365             -80.00    -6600.00
00366             -60.00    -6600.00
00367             -20.00    -6400.00
00368             -80.00    -7000.00
00369            -100.00    -7000.00
00370               0.00    -7000.00
00371               0.00    -7000.00
00372             -60.00    -7400.00
00373             -60.00    -7400.00
00374             -20.00    -7400.00
00375             -40.00    -7800.00
00376             -20.00    -8000.00
00377             -20.00    -7800.00
00378            -100.00    -8200.00
00379             -80.00    -8200.00
00380             -20.00    -8400.00
00381             -20.00    -8400.00
00382             -60.00    -8600.00
00383             -20.00    -8600.00
00384             -20.00    -8600.00
00385             -80.00    -8800.00
00386             -60.00    -9000.00
00387               0.00    -9000.00
00388             -20.00    -9000.00
00389             -60.00    -9200.00
00390             -60.00    -9200.00
00391             -60.00    -9400.00
00392             -60.00    -9400.00
00393               0.00    -9400.00
00394             -20.00    -9400.00
00395             -60.00    -9600.00
00396             -60.00    -9600.00
00397             -40.00    -9800.00
00398             -20.00    -9800.00
00399             -40.00    -9800.00
00400               0.00    -9800.00
00401               0.00   -10000.00
00402             -20.00   -10000.00
00403             -60.00    -9800.00
00404             -20.00   -10000.00
00405             -40.00    -9800.00
00406               0.00   -10000.00
00407               0.00   -10000.00
00408             -20.00   -10000.00
00409             -60.00   -10000.00
00410             -60.00   -10000.00
00411             -60.00   -10000.00
00412             -60.00   -10000.00
00413               0.00   -10000.00
00414               0.00   -10000.00
00415               0.00   -10000.00
00416             -20.00   -10000.00
00417             -20.00    -9800.00
00418             -20.00   -10000.00
00419             -20.00   -10000.00
00420               0.00   -10000.00
00421               0.00    -9800.00
00422             -20.00    -9800.00
00423             -20.00    -9800.00
00424             -20.00    -9800.00
00425             -20.00    -9800.00
00426             -20.00    -9800.00
00427               0.00    -9600.00
00428               0.00    -9600.00
00429             -20.00    -9400.00
00430             -20.00    -9400.00
00431             -20.00    -9400.00
00432             -20.00    -9400.00
00433             -20.00    -9400.00
00434               0.00    -9200.00
00435               0.00    -9000.00
00436               0.00    -9000.00
00437             -20.00    -9000.00
00438             -20.00    -8800.00
00439               0.00    -8600.00
00440               0.00    -8600.00
00441              20.00    -8600.00
00442               0.00    -8400.00
00443             -20.00    -8400.00
00444             -20.00    -8200.00
00445               0.00    -8200.00
00446               0.00    -8000.00
00447               0.00    -7800.00
00448               0.00    -7800.00
00449               0.00    -7600.00
00450               0.00    -7400.00
00451               0.00    -7200.00
00452              20.00    -7200.00
00453               0.00    -7000.00
00454               0.00    -7000.00
00455               0.00    -6800.00
00456               0.00    -6600.00
00457               0.00    -6600.00
00458               0.00    -6600.00
00459               0.00    -6200.00
00460              40.00    -6200.00
00461              20.00    -6200.00
00462              20.00    -5800.00
00463               0.00    -5800.00
00464               0.00    -5400.00
00465               0.00    -5400.00
00466               0.00    -5200.00
00467               0.00    -5000.00
00468              20.00    -5000.00
00469              20.00    -4600.00
00470               0.00    -4600.00
00471               0.00    -4400.00
00472              60.00    -4200.00
00473              60.00    -4200.00
00474              20.00    -3800.00
00475              20.00    -3600.00
00476               0.00    -3400.00
00477              20.00    -3400.00
00478               0.00    -3200.00
00479              40.00    -3000.00
00480              40.00    -2800.00
00481              20.00    -2600.00
00482              40.00    -2400.00
00483              20.00    -2400.00
00484              20.00    -2000.00
00485              60.00    -2000.00
00486              20.00    -1800.00
00487              60.00    -1400.00
00488              40.00    -1200.00
00489              20.00    -1200.00
00490               0.00    -1000.00
00491              40.00     -800.00
00492              20.00     -600.00
00493              40.00     -400.00
00494              60.00     -200.00
00495              60.00        0.00
00496              60.00      200.00
00497              80.00      200.00
00498             160.00      600.00
00499             180.00      600.00
00500             180.00     1000.00
00501             140.00     1000.00
00502             120.00     1200.00
00503             100.00     1200.00
00504             240.00     1600.00
00505             960.00     2000.00
00506            1180.00     2000.00
00507             160.00     2200.00
00508           -1060.00     2200.00
00509           -1760.00     2200.00
00510           -1100.00     3000.00
00511             800.00     3000.00
00512             580.00     2800.00
00513             220.00     3400.00
00514             700.00     3200.00
00515             -20.00     3600.00
00516             -60.00     4200.00
00517              60.00     3600.00
00518             -80.00     4400.00
00519             520.00     4400.00
00520             -60.00     4000.00
00521            -180.00     5200.00
00522             160.00     4600.00
00523            -160.00     5000.00
00524             140.00     5400.00
00525             140.00     5000.00
00526             140.00     6000.00
00527              60.00     5400.00
00528             -20.00     5800.00
00529             220.00     6200.00
00530             -20.00     6000.00
00531              60.00     6400.00
00532              80.00     6200.00
00533              60.00     6600.00
00534              20.00     6600.00
00535             -20.00     6800.00
00536             100.00     7200.00
00537              80.00     6800.00
00538             100.00     7400.00
00539              60.00     7400.00
00540              60.00     7600.00
00541              20.00     7800.00
00542              60.00     7600.00
00543              80.00     8000.00
00544              20.00     7800.00
00545              40.00     8200.00
00546               0.00     8200.00
00547              60.00     8400.00
00548              60.00     8400.00
00549              80.00     8400.00
00550              20.00     8600.00
00551               0.00     8600.00
00552              20.00     8600.00
00553              60.00     8800.00
00554              80.00     9000.00
00555              60.00     9200.00
00556              60.00     9200.00
00557               0.00     9200.00
00558              60.00     9400.00
00559              60.00     9400.00
00560              60.00     9400.00
00561              60.00     9400.00
00562              20.00     9600.00
00563              20.00     9600.00
00564               0.00     9800.00
00565              20.00     9800.00
00566              60.00     9800.00
00567              60.00    10000.00
00568              60.00     9800.00
00569              40.00    10000.00
00570               0.00    10000.00
00571               0.00    10000.00
00572              20.00    10000.00
00573              60.00    10000.00
00574              20.00    10200.00
00575              40.00    10000.00
00576              60.00    10000.00
00577              20.00    10200.00
00578              20.00    10200.00
00579              20.00    10200.00
00580              20.00    10200.00
00581              20.00    10200.00
00582              40.00    10200.00
00583              40.00    10000.00
00584               0.00    10000.00
00585               0.00    10000.00
00586              60.00    10000.00
00587              20.00    10000.00
00588              20.00    10000.00
00589              20.00    10000.00
00590               0.00     9800.00
00591               0.00    10000.00
00592               0.00     9800.00
00593              20.00     9600.00
00594              20.00     9800.00
00595               0.00     9600.00
00596               0.00     9600.00
00597               0.00     9400.00
00598               0.00     9400.00
00599               0.00     9400.00
00600              20.00     9200.00
00601              20.00     9200.00
00602               0.00     9200.00
00603               0.00     9000.00
00604               0.00     9000.00
00605               0.00     8800.00
00606               0.00     8800.00
00607               0.00     8600.00
00608               0.00     8600.00
00609               0.00     8400.00
00610               0.00     8400.00
00611               0.00     8400.00
00612               0.00     8200.00
00613               0.00     8000.00
00614               0.00     7800.00
00615               0.00     7800.00
00616             -20.00     7800.00
00617             -20.00     7600.00
00618             -20.00     7400.00
00619             -20.00     7200.00
00620               0.00     7400.00
00621             -20.00     7000.00
00622             -20.00     7000.00
00623             -20.00     6800.00
00624             -20.00     6600.00
00625             -20.00     6600.00
00626             -20.00     6200.00
00627             -20.00     6200.00
00628             -20.00     6000.00
00629             -20.00     5800.00
00630             -60.00     5800.00
00631             -20.00     5600.00
00632             -20.00     5400.00
00633             -20.00     5400.00
00634             -20.00     5200.00
00635             -20.00     5200.00
00636             -20.00     4600.00
00637             -60.00     4600.00
00638             -20.00     4400.00
00639             -20.00     4200.00
00640             -20.00     4200.00
00641             -40.00     3800.00
00642             -40.00     3800.00
00643             -20.00     3600.00
00644             -40.00     3400.00
00645             -40.00     3200.00
00646             -20.00     3000.00
00647             -20.00     2800.00
00648             -40.00     2600.00
00649             -40.00     2600.00
00650             -60.00     2200.00
00651             -60.00     2200.00
00652             -60.00     1800.00
00653             -20.00     1800.00
00654             -20.00     1600.00
00655             -40.00     1400.00
00656             -40.00     1000.00
00657             -40.00     1200.00
00658             -20.00      800.00
00659             -60.00      600.00
00660             -40.00      400.00
00661             -60.00      400.00
00662             -20.00     -200.00
00663             -20.00        0.00
00664               0.00     -200.00
00665              80.00     -400.00
00666             100.00     -600.00
00667              80.00     -800.00
00668              20.00    -1000.00
00669               0.00    -1200.00
00670               0.00    -1200.00
00671              20.00    -1400.00
00672             300.00    -1800.00
00673             880.00    -2000.00
00674             780.00    -2200.00
00675            -200.00    -2600.00
00676           -1040.00    -2600.00
00677           -1380.00    -2800.00
00678           -1100.00    -2400.00
00679             320.00    -3000.00
00680             480.00    -3400.00
00681             140.00    -3200.00
00682             500.00    -3800.00
00683              60.00    -3600.00
00684             -60.00    -3400.00
00685              80.00    -4400.00
00686            -240.00    -4200.00
00687             140.00    -4600.00
00688              80.00    -4600.00
00689            -260.00    -4600.00
00690            -180.00    -5200.00
00691            -140.00    -4800.00
00692               0.00    -5400.00
00693             -60.00    -5400.00
00694               0.00    -5800.00
00695             -60.00    -5800.00
00696            -100.00    -5800.00
00697             100.00    -6200.00
00698              20.00    -6000.00
00699               0.00    -6200.00
00700             -20.00    -6600.00
00701             -20.00    -6600.00
00702            -100.00    -6600.00
00703            -180.00    -6800.00
00704            -100.00    -7000.00
00705             -20.00    -7000.00
00706             -60.00    -7200.00
00707               0.00    -7400.00
00708              60.00    -7600.00
00709              20.00    -7800.00
00710              20.00    -7800.00
00711               0.00    -7800.00
00712            -100.00    -8200.00
00713            -160.00    -8200.00
00714            -100.00    -8200.00
00715             -60.00    -8200.00
00716             -40.00    -8600.00
00717             -20.00    -8600.00
00718              20.00    -8600.00
00719               0.00    -8600.00
00720             -20.00    -9000.00
00721               0.00    -9000.00
00722             -20.00    -9000.00
00723             -80.00    -9200.00
00724            -100.00    -9200.00
00725            -100.00    -9200.00
00726            -100.00    -9400.00
00727             -20.00    -9600.00
00728              20.00    -9400.00
00729              20.00    -9400.00
00730               0.00    -9600.00
00731             -20.00    -9800.00
00732             -40.00    -9800.00
00733             -80.00    -9800.00
00734            -100.00    -9800.00
00735             -60.00    -9800.00
00736             -80.00    -9800.00
00737             -60.00   -10000.00
00738               0.00   -10000.00
00739               0.00    -9800.00
00740              20.00   -10000.00
00741               0.00   -10000.00
00742             -60.00   -10000.00
00743             -80.00   -10000.00
00744            -100.00   -10000.00
00745             -60.00   -10000.00
00746             -40.00   -10200.00
00747             -20.00   -10000.00
00748               0.00   -10000.00
00749               0.00   -10000.00
00750               0.00   -10200.00
00751             -20.00   -10000.00
00752             -40.00   -10000.00
00753             -60.00   -10000.00
00754             -20.00    -9800.00
00755             -20.00    -9800.00
00756             -20.00   -10000.00
00757             -20.00   -10000.00
00758             -20.00    -9800.00
00759             -20.00    -9600.00
00760               0.00    -9800.00
00761               0.00    -9600.00
00762               0.00    -9600.00
00763             -20.00    -9600.00
00764             -20.00    -9400.00
00765             -20.00    -9400.00
00766             -20.00    -9400.00
00767               0.00    -9200.00
00768               0.00    -9200.00
00769              20.00    -9200.00
00770               0.00    -9200.00
00771             -20.00    -9000.00
00772             -20.00    -8800.00
00773               0.00    -8800.00
00774               0.00    -8600.00
00775              20.00    -8600.00
00776              20.00    -8400.00
00777             -20.00    -8400.00
00778             -20.00    -8200.00
00779               0.00    -8200.00
00780              20.00    -8200.00
00781              20.00    -7800.00
00782               0.00    -7800.00
00783              20.00    -7600.00
00784               0.00    -7600.00
00785               0.00    -7400.00
00786               0.00    -7200.00
00787              20.00    -7200.00
00788              20.00    -7000.00
00789              20.00    -6800.00
00790               0.00    -6800.00
00791               0.00    -6600.00
00792             -20.00    -6600.00
00793              20.00    -6400.00
00794              20.00    -6200.00
00795              20.00    -6200.00
00796              60.00    -6000.00
00797              20.00    -5800.00
00798               0.00    -5800.00
00799               0.00    -5400.00
00800               0.00    -5400.00
00801              20.00    -5200.00
00802              20.00    -5000.00
00803              40.00    -4600.00
00804               0.00    -4600.00
00805               0.00    -4600.00
00806               0.00    -4200.00
00807              20.00    -4200.00
00808              20.00    -3800.00
00809              20.00    -3800.00
00810               0.00    -3600.00
00811               0.00    -3400.00
00812               0.00    -3400.00
00813              20.00    -3000.00
00814              40.00    -2800.00
00815              60.00    -2600.00
00816              20.00    -2600.00
00817              20.00    -2200.00
00818               0.00    -2200.00
00819              20.00    -2000.00
00820              60.00    -2000.00
00821              40.00    -1600.00
00822              20.00    -1400.00
00823              20.00    -1200.00
00824              20.00     -800.00
00825              20.00     -800.00
00826              20.00     -600.00
00827              20.00     -400.00
00828              20.00     -200.00
00829              60.00        0.00
00830              60.00      200.00
00831              80.00      200.00
00832             140.00      400.00
00833             180.00      600.00
00834             180.00     1000.00
00835             140.00     1000.00
00836             120.00     1200.00
00837             100.00     1400.00
00838             160.00     1400.00
00839             660.00     1800.00
00840            1280.00     2200.00
00841             620.00     2000.00
00842            -700.00     2200.00
00843           -1580.00     2400.00
00844           -1540.00     2600.00
00845             280.00     3200.00
00846             900.00     3000.00
00847             160.00     3200.00
00848             640.00     3400.00
00849             240.00     3400.00
00850            -180.00     4400.00
00851             140.00     3800.00
00852            -140.00     3800.00
00853             380.00     4600.00
00854             240.00     4000.00
00855            -320.00     4600.00
00856             140.00     4800.00
00857             -80.00     4600.00
00858               0.00     5200.00
00859             200.00     5000.00
00860             100.00     5600.00
00861             140.00     5800.00
00862             -60.00     5600.00
00863             200.00     6200.00
00864              60.00     5800.00
00865             -40.00     6200.00
00866             100.00     6400.00
00867              60.00     6400.00
00868              80.00     6800.00
00869             -20.00     6600.00
00870              60.00     7000.00
00871              80.00     7000.00
00872              80.00     7000.00
00873              80.00     7400.00
00874              60.00     7400.00
00875              40.00     7600.00
00876              20.00     7600.00
00877             100.00     7800.00
00878              20.00     7800.00
00879              20.00     8200.00
00880               0.00     8200.00
00881              20.00     8400.00
00882              80.00     8400.00
00883              80.00     8400.00
00884              80.00     8600.00
00885               0.00     8600.00
00886               0.00     8800.00
00887              20.00     9000.00
00888              80.00     9000.00
00889              60.00     9000.00
00890              40.00     9200.00
00891               0.00     9200.00
00892               0.00     9400.00
00893              80.00     9400.00
00894              60.00     9400.00
00895              60.00     9400.00
00896              20.00     9600.00
00897              40.00     9800.00
00898              20.00     9800.00
00899              20.00     9800.00
00900              20.00     9800.00
00901              60.00     9800.00
00902              20.00    10000.00
00903              60.00     9800.00
00904               0.00    10000.00
00905               0.00     9800.00
00906              60.00    10000.00
00907              60.00    10200.00
00908              20.00    10000.00
00909              20.00    10200.00
00910              20.00    10000.00
00911               0.00    10200.00
00912              20.00    10000.00
00913              40.00    10200.00
00914              60.00    10200.00
00915              40.00    10200.00
00916              20.00    10000.00
00917              20.00    10200.00
00918               0.00    10000.00
00919               0.00    10200.00
00920              60.00     9800.00
00921              20.00    10000.00
00922              20.00     9800.00
00923               0.00    10000.00
00924               0.00     9800.00
00925              20.00     9800.00
00926               0.00     9800.00
00927               0.00     9800.00
00928               0.00     9800.00
00929              20.00     9800.00
00930              20.00     9400.00
00931              20.00     9400.00
00932             -20.00     9400.00
00933               0.00     9400.00
00934               0.00     9400.00
00935               0.00     9200.00
00936               0.00     9200.00
00937               0.00     9200.00
00938               0.00     8800.00
00939               0.00     8800.00
00940               0.00     8800.00
00941               0.00     8600.00
00942               0.00     8600.00
00943               0.00     8600.00
00944               0.00     8400.00
00945             -20.00     8400.00
00946             -20.00     8200.00
00947               0.00     8200.00
00948               0.00     8000.00
00949             -20.00     7800.00
00950               0.00     7800.00
00951             -20.00     7600.00
00952             -20.00     7400.00
00953             -20.00     7400.00
00954               0.00     7400.00
00955             -20.00     7000.00
00956             -20.00     7000.00
00957             -20.00     6800.00
00958             -20.00     6600.00
00959             -20.00     6600.00
00960             -20.00     6400.00
00961             -20.00     6200.00
00962             -20.00     6200.00
00963             -20.00     6000.00
00964             -60.00     5800.00
00965             -20.00     5800.00
00966             -20.00     5400.00
00967             -20.00     5400.00
00968             -20.00     5200.00
00969             -20.00     5000.00
00970             -20.00     4800.00
00971             -20.00     4600.00
00972             -20.00     4600.00
00973               0.00     4400.00
00974             -20.00     4200.00
00975             -40.00     4000.00
00976             -20.00     3800.00
00977             -20.00     3600.00
00978             -60.00     3600.00
00979             -20.00     3400.00
00980             -40.00     3200.00
00981             -20.00     3000.00
00982             -20.00     2800.00
00983             -40.00     2600.00
00984             -60.00     2200.00
00985             -40.00     2000.00
00986             -20.00     2000.00
00987             -20.00     1800.00
00988             -20.00     1400.00
00989             -20.00     1400.00
00990             -40.00     1200.00
00991             -60.00     1000.00
00992             -60.00     1000.00
00993             -40.00      600.00
00994             -60.00      600.00
00995             -20.00      400.00
00996             -60.00      200.00
00997             -20.00     -200.00
00998             -20.00     -200.00
00999              60.00     -400.00
01000              80.00     -600.00
01001              80.00     -800.00
01002              40.00     -800.00
01003               0.00    -1000.00
01004             -20.00    -1000.00
01005               0.00    -1400.00
01006             140.00    -1400.00
01007             720.00    -1800.00
01008             940.00    -2200.00
01009             160.00    -2400.00
01010            -820.00    -2600.00
01011           -1280.00    -2800.00
01012           -1360.00    -2600.00
01013            -160.00    -2800.00
01014             640.00    -3400.00
01015             120.00    -3200.00
01016             400.00    -3400.00
01017             280.00    -4000.00
01018            -160.00    -3400.00
01019             140.00    -4400.00
01020            -180.00    -4000.00
01021             -60.00    -4200.00
01022             180.00    -4600.00
01023            -180.00    -4400.00
01024            -220.00    -5000.00
01025            -160.00    -5000.00
01026               0.00    -5000.00
01027             -20.00    -5600.00
01028               0.00    -5200.00
01029               0.00    -5800.00
01030            -100.00    -5800.00
01031               0.00    -6000.00
01032              20.00    -6200.00
01033            -100.00    -6200.00
01034             -20.00    -6600.00
01035             -20.00    -6400.00
01036               0.00    -6800.00
01037            -100.00    -6800.00
01038            -100.00    -6800.00
01039              20.00    -7000.00
01040             -20.00    -7200.00
01041             -60.00    -7400.00
01042             -20.00    -7200.00
01043             -20.00    -7600.00
01044             -60.00    -7800.00
01045             -20.00    -7800.00
01046             -60.00    -8000.00
01047             -80.00    -8200.00
01048             -80.00    -8200.00
01049               0.00    -8200.00
01050             -20.00    -8400.00
01051             -40.00    -8600.00
01052             -20.00    -8600.00
01053             -60.00    -8600.00
01054             -80.00    -8800.00
01055             -20.00    -9000.00
01056             -20.00    -9000.00
01057             -20.00    -9200.00
01058             -60.00    -9200.00
01059             -20.00    -9400.00
01060             -60.00    -9200.00
01061             -40.00    -9400.00
01062               0.00    -9400.00
01063             -20.00    -9400.00
01064             -60.00    -9600.00
01065             -80.00    -9600.00
01066             -60.00    -9800.00
01067             -60.00    -9800.00
01068             -20.00    -9800.00
01069               0.00    -9800.00
01070               0.00   -10000.00
01071             -60.00    -9800.00
01072             -60.00   -10000.00
01073             -60.00   -10000.00
01074             -60.00   -10000.00
01075             -20.00   -10000.00
01076               0.00   -10000.00
01077             -20.00   -10000.00
01078             -60.00   -10000.00
01079             -20.00   -10000.00
01080             -40.00   -10000.00
01081             -40.00   -10000.00
01082             -20.00   -10000.00
01083               0.00   -10200.00
01084             -20.00   -10200.00
01085             -20.00   -10000.00
01086             -40.00   -10000.00
01087             -20.00   -10000.00
01088             -20.00   -10000.00
01089               0.00   -10000.00
01090               0.00    -9800.00
01091             -20.00    -9800.00
01092             -20.00    -9800.00
01093             -20.00    -9600.00
01094             -20.00    -9600.00
01095             -20.00    -9800.00
01096               0.00    -9400.00
01097               0.00    -9400.00
01098               0.00    -9400.00
01099             -20.00    -9400.00
01100             -20.00    -9400.00
01101             -20.00    -9200.00
01102               0.00    -9200.00
01103               0.00    -9200.00
01104               0.00    -9200.00
01105               0.00    -9000.00
01106               0.00    -9000.00
01107               0.00    -9000.00
01108               0.00    -8800.00
01109               0.00    -8600.00
01110               0.00    -8600.00
01111               0.00    -8400.00
01112               0.00    -8200.00
01113               0.00    -8200.00
01114               0.00    -8000.00
01115               0.00    -8000.00
01116              20.00    -7800.00
01117               0.00    -7800.00
01118               0.00    -7600.00
01119               0.00    -7200.00
01120               0.00    -7200.00
01121               0.00    -7200.00
01122              20.00    -7000.00
01123               0.00    -7000.00
01124               0.00    -7000.00
01125               0.00    -6600.00
01126               0.00    -6600.00
01127               0.00    -6200.00
01128               0.00    -6200.00
01129               0.00    -6200.00
01130              20.00    -6000.00
01131              20.00    -5800.00
01132               0.00    -5800.00
01133               0.00    -5400.00
01134               0.00    -5400.00
01135              20.00    -5200.00
01136              20.00    -5000.00
01137              20.00    -4800.00
01138               0.00    -4600.00
01139               0.00    -4600.00
01140               0.00    -4400.00
01141               0.00    -4200.00
01142              20.00    -4000.00
01143              20.00    -3800.00
01144              20.00    -3600.00
01145               0.00    -3400.00
01146               0.00    -3400.00
01147              20.00    -3000.00
01148              20.00    -2800.00
01149              20.00    -2800.00
01150              20.00    -2600.00
01151              20.00    -2400.00
01152              20.00    -2200.00
01153              20.00    -2000.00
01154              60.00    -1800.00
01155              60.00    -1800.00
01156              60.00    -1400.00
01157              40.00    -1200.00
01158              40.00    -1000.00
01159              20.00     -800.00
01160              60.00     -600.00
01161              40.00     -600.00
01162              60.00     -200.00
01163              60.00     -200.00
01164              60.00      200.00
01165              60.00      200.00
01166             100.00      400.00
01167             180.00      600.00
01168             180.00      800.00
01169             160.00      800.00
01170             140.00     1000.00
01171             100.00     1200.00
01172             120.00     1400.00
01173             420.00     1800.00
01174            1180.00     2000.00
01175             960.00     2000.00
01176            -260.00     2200.00
01177           -1320.00     2200.00
01178           -1760.00     2400.00
01179            -420.00     3000.00
01180            1020.00     3000.00
01181             300.00     3000.00
01182             460.00     3400.00
01183             540.00     3000.00
01184            -220.00     4000.00
01185              80.00     4000.00
01186             -80.00     3400.00
01187             100.00     4600.00
01188             480.00     4200.00
01189            -260.00     4400.00
01190               0.00     5200.00
01191              60.00     4600.00
01192            -100.00     5200.00
01193             180.00     5000.00
01194             100.00     5200.00
01195             140.00     5800.00
01196             -40.00     5400.00
01197              80.00     6000.00
01198             180.00     6000.00
01199             -80.00     6000.00
01200              80.00     6400.00
01201              60.00     6200.00
01202              80.00     6800.00
01203               0.00     6600.00
01204               0.00     6800.00
01205             100.00     7200.00
01206              60.00     6800.00
01207              80.00     7400.00
01208              20.00     7200.00
01209              60.00     7600.00
01210               0.00     7600.00
01211             100.00     7800.00
01212              80.00     7800.00
01213               0.00     8000.00
01214               0.00     8200.00
01215               0.00     8200.00
01216              80.00     8400.00
01217              80.00     8400.00
01218             100.00     8600.00
01219               0.00     8600.00
01220               0.00     8600.00
01221              20.00     9000.00
01222              60.00     9000.00
01223              80.00     9000.00
01224              60.00     9200.00
01225              20.00     9400.00
01226              20.00     9200.00
01227              60.00     9400.00
01228              80.00     9400.00
01229              60.00     9400.00
01230              20.00     9600.00
01231              20.00     9800.00
01232              20.00     9800.00
01233              20.00     9800.00
01234              40.00     9800.00
01235              60.00     9800.00
01236              60.00    10000.00
01237              80.00     9800.00
01238              40.00    10200.00
01239               0.00    10000.00
01240              40.00    10000.00
01241              60.00    10000.00
01242              60.00    10200.00
01243              20.00    10000.00
01244              20.00    10200.00
01245              20.00    10000.00
01246              20.00    10000.00
01247              60.00    10000.00
01248              60.00    10200.00
01249              60.00    10000.00
01250              20.00    10000.00
01251              20.00    10000.00
01252               0.00    10000.00
01253               0.00    10000.00
01254              20.00    10000.00
01255              40.00    10000.00
01256              20.00    10000.00
01257              20.00     9800.00
01258               0.00    10000.00
01259               0.00     9800.00
01260               0.00     9800.00
01261               0.00     9800.00
01262              20.00     9800.00
01263              20.00     9800.00
01264               0.00     9400.00
01265               0.00     9600.00
01266             -20.00     9400.00
01267             -20.00     9400.00
01268               0.00     9400.00
01269              20.00     9200.00
01270              20.00     9200.00
01271               0.00     9000.00
01272             -20.00     9000.00
01273               0.00     9000.00
01274             -20.00     8600.00
01275               0.00     8800.00
01276               0.00     8600.00
01277               0.00     8600.00
01278               0.00     8400.00
01279             -20.00     8200.00
01280             -20.00     8200.00
01281               0.00     8200.00
01282               0.00     8000.00
01283               0.00     7800.00
01284             -20.00     7800.00
01285             -20.00     7800.00
01286             -20.00     7600.00
01287               0.00     7400.00
01288              20.00     7000.00
01289             -20.00     7200.00
01290             -60.00     7000.00
01291             -80.00     6800.00
01292             -20.00     6600.00
01293               0.00     6400.00
01294               0.00     6600.00
01295               0.00     6400.00
01296               0.00     6200.00
01297             -20.00     6000.00
01298             -20.00     5800.00
01299             -20.00     5800.00
01300             -20.00     5600.00
01301             -20.00     5400.00
01302             -20.00     5400.00
01303             -20.00     5000.00
01304               0.00     5000.00
01305             -60.00     4600.00
01306             -20.00     4600.00
01307               0.00     4400.00
01308             -40.00     4200.00
01309             -20.00     4000.00
01310             -20.00     4000.00
01311             -20.00     3600.00
01312             -60.00     3600.00
01313             -60.00     3400.00
01314             -20.00     3400.00
01315             -20.00     3000.00
01316               0.00     2800.00
01317             -20.00     2600.00
01318             -60.00     2200.00
01319             -60.00     2200.00
01320             -40.00     2000.00
01321             -20.00     1800.00
01322             -20.00     1800.00
01323             -20.00     1600.00
01324             -40.00     1200.00
01325             -40.00     1200.00
01326             -60.00     1000.00
01327             -60.00      600.00
01328             -60.00      600.00
01329             -60.00      400.00
01330             -20.00      200.00
01331             -20.00      200.00
01332             -60.00     -200.00
01333               0.00     -200.00
01334              80.00     -600.00
01335             100.00     -800.00
01336              60.00     -800.00
01337              20.00    -1000.00
01338               0.00    -1000.00
01339               0.00    -1400.00
01340              60.00    -1400.00
01341             480.00    -1800.00
01342             960.00    -2000.00
01343             500.00    -2400.00
01344            -540.00    -2600.00
01345           -1180.00    -2800.00
01346           -1420.00    -2600.00
01347            -700.00    -2400.00
01348             560.00    -3400.00
01349             260.00    -3200.00
01350             260.00    -3000.00
01351             480.00    -4000.00
01352            -100.00    -3400.00
01353              80.00    -4000.00
01354             -20.00    -4400.00
01355            -160.00    -4200.00
01356             220.00    -4600.00
01357             -60.00    -4400.00
01358            -240.00    -5000.00
01359            -160.00    -5000.00
01360             -80.00    -5000.00
01361               0.00    -5400.00
01362             -20.00    -5400.00
01363              20.00    -5400.00
01364            -100.00    -5800.00
01365             -60.00    -5800.00
01366              60.00    -6000.00
01367             -80.00    -6000.00
01368             -60.00    -6600.00
01369             -40.00    -6600.00
01370               0.00    -6600.00
01371             -60.00    -7000.00
01372            -100.00    -7000.00
01373               0.00    -7000.00
01374               0.00    -7200.00
01375             -60.00    -7200.00
01376             -60.00    -7400.00
01377             -20.00    -7600.00
01378             -60.00    -7600.00
01379             -20.00    -8000.00
01380             -20.00    -8000.00
01381             -80.00    -8000.00
01382             -80.00    -8200.00
01383             -20.00    -8400.00
01384               0.00    -8400.00
01385             -60.00    -8600.00
01386             -20.00    -8600.00
01387             -40.00    -8800.00
01388             -80.00    -8800.00
01389             -80.00    -9000.00
01390             -20.00    -9000.00
01391             -40.00    -9200.00
01392             -60.00    -9200.00
01393             -60.00    -9200.00
01394             -60.00    -9400.00
01395             -60.00    -9400.00
01396               0.00    -9400.00
01397               0.00    -9400.00
01398             -20.00    -9600.00
01399             -60.00    -9800.00
01400             -80.00    -9800.00
01401             -60.00    -9800.00
01402             -60.00    -9800.00
01403             -20.00    -9800.00
01404               0.00    -9800.00
01405             -20.00    -9800.00
01406             -60.00   -10000.00
01407             -40.00    -9800.00
01408             -60.00   -10000.00
01409             -20.00   -10200.00
01410             -20.00   -10000.00
01411             -20.00   -10000.00
01412             -60.00   -10000.00
01413             -60.00   -10000.00
01414             -20.00   -10000.00
01415             -20.00   -10000.00
01416             -20.00   -10000.00
01417               0.00   -10000.00
01418               0.00   -10000.00
01419             -20.00   -10000.00
01420             -40.00   -10000.00
01421             -20.00   -10000.00
01422             -20.00    -9800.00
01423               0.00   -10000.00
01424               0.00    -9800.00
01425             -20.00    -9800.00
01426             -20.00    -9800.00
01427             -20.00    -9800.00
01428               0.00    -9800.00
01429               0.00    -9800.00
01430               0.00    -9600.00
01431               0.00    -9400.00
01432               0.00    -9400.00
01433             -20.00    -9400.00
01434             -20.00    -9400.00
01435               0.00    -9400.00
01436               0.00    -9200.00
01437               0.00    -9200.00
01438               0.00    -9200.00
01439               0.00    -9000.00
01440             -20.00    -8800.00
01441               0.00    -9000.00
01442               0.00    -8600.00
01443               0.00    -8600.00
01444               0.00    -8600.00
01445               0.00    -8200.00
01446               0.00    -8600.00
01447               0.00    -8200.00
01448               0.00    -8000.00
01449               0.00    -8200.00
01450              20.00    -7800.00
01451              20.00    -7600.00
01452               0.00    -7600.00
01453               0.00    -7400.00
01454               0.00    -7400.00
01455               0.00    -7200.00
01456              20.00    -7000.00
01457              20.00    -7000.00
01458               0.00    -7000.00
01459               0.00    -6600.00
01460             -20.00    -6600.00
01461               0.00    -6600.00
01462               0.00    -6400.00
01463               0.00    -6200.00
01464              20.00    -6000.00
01465               0.00    -5800.00
01466               0.00    -5800.00
01467               0.00    -5600.00
01468               0.00    -5400.00
01469              20.00    -5200.00
01470              20.00    -5000.00
01471              40.00    -5000.00
01472               0.00    -4800.00
01473               0.00    -4600.00
01474               0.00    -4400.00
01475              20.00    -4200.00
01476              20.00    -4200.00
01477              20.00    -4000.00
01478              20.00    -3800.00
01479               0.00    -3400.00
01480               0.00    -3400.00
01481              20.00    -3000.00
01482              60.00    -3000.00
01483              20.00    -2800.00
01484              40.00    -2600.00
01485              40.00    -2400.00
01486              20.00    -2200.00
01487              20.00    -2000.00
01488              20.00    -1800.00
01489              40.00    -1800.00
01490              60.00    -1400.00
01491              20.00    -1400.00
01492              20.00    -1000.00
01493              60.00     -800.00
01494              60.00     -600.00
01495              40.00     -600.00
01496              60.00     -400.00
01497              60.00     -200.00
01498              60.00     -200.00
01499              60.00      200.00
01500              80.00      400.00
01501             160.00      400.00
01502             180.00      600.00
01503             180.00      800.00
01504             160.00     1200.00
01505             120.00     1200.00
01506             100.00     1400.00
01507             240.00     1400.00
01508             940.00     1800.00
01509            1180.00     2200.00
01510             220.00     2200.00
01511           -1060.00     2200.00
01512           -1740.00     2200.00
01513           -1100.00     2800.00
01514             800.00     3000.00
01515             600.00     2800.00
01516             220.00     3400.00
01517             700.00     3400.00
01518             -20.00     3600.00
01519             -80.00     4200.00
01520              60.00     3400.00
01521            -100.00     4200.00
01522             500.00     4600.00
01523             -20.00     4000.00
01524            -180.00     5000.00
01525             160.00     4600.00
01526            -140.00     5000.00
01527             100.00     5200.00
01528             140.00     5000.00
01529             140.00     5800.00
01530              60.00     5400.00
01531             -20.00     5800.00
01532             220.00     6200.00
01533             -20.00     5800.00
01534              20.00     6400.00
01535              80.00     6200.00
01536              60.00     6600.00
01537              60.00     6600.00
01538             -20.00     6600.00
01539             100.00     7200.00
01540              60.00     6800.00
01541             100.00     7400.00
01542              60.00     7400.00
01543              40.00     7400.00
01544               0.00     7600.00
01545              60.00     7600.00
01546              80.00     7800.00
01547              20.00     7800.00
01548              60.00     8200.00
01549               0.00     8200.00
01550              60.00     8400.00
01551              60.00     8400.00
01552              80.00     8600.00
01553              60.00     8600.00
01554               0.00     8600.00
01555              20.00     8600.00
01556              60.00     9000.00
01557              80.00     9200.00
01558              60.00     9000.00
01559              40.00     9200.00
01560               0.00     9200.00
01561              60.00     9400.00
01562              80.00     9400.00
01563              60.00     9600.00
01564              60.00     9400.00
01565              40.00     9800.00
01566              20.00     9800.00
01567              20.00     9800.00
01568              20.00     9800.00
01569              60.00     9800.00
01570              60.00    10000.00
01571              60.00    10000.00
01572              60.00    10000.00
01573               0.00    10000.00
01574               0.00    10000.00
01575              60.00    10000.00
01576              60.00    10000.00
01577              20.00    10200.00
01578              40.00    10200.00
01579              20.00    10200.00
01580               0.00    10000.00
01581               0.00    10200.00
01582              40.00    10200.00
01583              20.00    10200.00
01584              20.00    10000.00
01585               0.00    10200.00
01586              20.00    10000.00
01587               0.00    10200.00
01588               0.00    10000.00
01589              20.00    10000.00
01590              40.00     9800.00
01591               0.00    10000.00
01592               0.00     9800.00
01593               0.00     9800.00
01594               0.00    10000.00
01595               0.00     9800.00
01596              20.00     9800.00
01597              20.00     9600.00
01598              20.00     9600.00
01599               0.00     9800.00
01600               0.00     9400.00
01601               0.00     9400.00
01602               0.00     9400.00
01603               0.00     9400.00
01604              20.00     9200.00
01605               0.00     9200.00
01606               0.00     9200.00
01607             -20.00     9000.00
01608               0.00     9000.00
01609               0.00     8800.00
01610               0.00     8600.00
01611               0.00     8600.00
01612               0.00     8400.00
01613             -20.00     8400.00
01614               0.00     8400.00
01615               0.00     8200.00
01616               0.00     8200.00
01617               0.00     7800.00
01618               0.00     7800.00
01619             -20.00     7600.00
01620             -20.00     7600.00
01621               0.00     7600.00
01622              20.00     7200.00
01623               0.00     7400.00
01624               0.00     7000.00
01625             -20.00     7000.00
01626             -40.00     6800.00
01627             -60.00     6600.00
01628               0.00     6600.00
01629               0.00     6400.00
01630               0.00     6200.00
01631             -20.00     6000.00
01632             -20.00     6000.00
01633             -20.00     5800.00
01634             -20.00     5600.00
01635               0.00     5600.00
01636               0.00     5400.00
01637             -60.00     5200.00
01638             -60.00     5000.00
01639             -20.00     4800.00
01640             -20.00     4600.00
01641             -20.00     4400.00
01642             -20.00     4400.00
01643             -20.00     4200.00
01644             -40.00     3800.00
01645             -20.00     3800.00
01646               0.00     3600.00
01647             -20.00     3400.00
01648             -60.00     3000.00
01649             -60.00     3000.00
01650             -20.00     3000.00
01651             -40.00     2800.00
01652             -60.00     2400.00
01653             -20.00     2400.00
01654             -60.00     2000.00
01655             -60.00     1800.00
01656             -40.00     1800.00
01657             -20.00     1400.00
01658             -20.00     1400.00
01659             -40.00     1200.00
01660             -20.00     1000.00
01661             -60.00      800.00
01662             -60.00      600.00
01663             -60.00      400.00
01664             -20.00      400.00
01665             -20.00      200.00
01666             -60.00     -200.00
01667             -20.00     -400.00
01668              80.00     -400.00
01669             100.00     -600.00
01670              80.00     -800.00
01671               0.00     -800.00
01672               0.00    -1000.00
01673             -20.00    -1200.00
01674              20.00    -1400.00
01675             260.00    -1400.00
01676             880.00    -2000.00
01677             800.00    -2200.00
01678            -160.00    -2400.00
01679           -1020.00    -2600.00
01680           -1360.00    -2600.00
01681           -1100.00    -2600.00
01682             300.00    -3000.00
01683             480.00    -3400.00
01684             140.00    -3000.00
01685             500.00    -3800.00
01686              80.00    -3600.00
01687             -20.00    -3600.00
01688             100.00    -4200.00
01689            -220.00    -4200.00
01690              80.00    -4600.00
01691             100.00    -4600.00
01692            -240.00    -4600.00
01693            -160.00    -5000.00
01694            -100.00    -4800.00
01695              20.00    -5400.00
01696             -20.00    -5400.00
01697              20.00    -5400.00
01698             -40.00    -5800.00
01699            -100.00    -5800.00
01700              60.00    -6200.00
01701             -20.00    -6000.00
01702             -80.00    -6200.00
01703             -40.00    -6600.00
01704             -20.00    -6400.00
01705             -60.00    -6800.00
01706            -120.00    -7000.00
01707             -20.00    -6800.00
01708              20.00    -7200.00
01709             -20.00    -7000.00
01710             -60.00    -7400.00
01711             -20.00    -7400.00
01712             -60.00    -7800.00
01713             -20.00    -7800.00
01714             -20.00    -7800.00
01715             -80.00    -8200.00
01716            -100.00    -8200.00
01717             -20.00    -8200.00
01718               0.00    -8400.00
01719             -60.00    -8400.00
01720             -40.00    -8600.00
01721             -20.00    -8600.00
01722             -80.00    -8600.00
01723             -80.00    -9000.00
01724               0.00    -9000.00
01725             -20.00    -9000.00
01726             -80.00    -9200.00
01727             -60.00    -9200.00
01728             -60.00    -9400.00
01729             -60.00    -9400.00
01730             -20.00    -9400.00
01731              20.00    -9400.00
01732             -20.00    -9400.00
01733             -60.00    -9400.00
01734             -60.00    -9600.00
01735             -80.00    -9800.00
01736             -60.00    -9800.00
01737             -20.00    -9800.00
01738               0.00    -9800.00
01739             -40.00   -10000.00
01740             -60.00    -9800.00
01741             -60.00    -9800.00
01742             -60.00   -10000.00
01743             -40.00   -10000.00
01744             -20.00   -10000.00
01745             -20.00   -10000.00
01746             -20.00   -10000.00
01747             -40.00   -10200.00
01748             -20.00   -10000.00
01749             -60.00   -10200.00
01750             -20.00   -10000.00
01751               0.00   -10200.00
01752             -20.00   -10000.00
01753             -20.00   -10000.00
01754             -20.00   -10000.00
01755             -20.00   -10000.00
01756             -20.00   -10000.00
01757               0.00   -10000.00
01758               0.00   -10000.00
01759               0.00    -9800.00
01760             -20.00    -9800.00
01761             -20.00    -9800.00
01762             -20.00    -9800.00
01763             -20.00    -9800.00
01764               0.00    -9800.00
01765               0.00    -9600.00
01766               0.00    -9400.00
01767             -20.00    -9600.00
01768               0.00    -9400.00
01769             -20.00    -9400.00
01770               0.00    -9200.00
01771               0.00    -9200.00
01772               0.00    -9200.00
01773               0.00    -9000.00
01774             -20.00    -9000.00
01775               0.00    -9000.00
01776               0.00    -8600.00
01777               0.00    -8800.00
01778               0.00    -8600.00
01779               0.00    -8600.00
01780               0.00    -8600.00
01781             -20.00    -8200.00
01782             -20.00    -8200.00
01783               0.00    -8200.00
01784               0.00    -7800.00
01785               0.00    -7800.00
01786               0.00    -7800.00
01787               0.00    -7600.00
01788               0.00    -7200.00
01789               0.00    -7400.00
01790              20.00    -7200.00
01791              20.00    -7000.00
01792               0.00    -7000.00
01793               0.00    -6800.00
01794               0.00    -6600.00
01795               0.00    -6600.00
01796              20.00    -6400.00
01797              20.00    -6200.00
01798              20.00    -6000.00
01799               0.00    -6000.00
01800               0.00    -5800.00
01801               0.00    -5600.00
01802               0.00    -5400.00
01803              20.00    -5400.00
01804              20.00    -5200.00
01805              20.00    -5000.00
01806              20.00    -4800.00
01807               0.00    -4600.00
01808              20.00    -4600.00
01809              20.00    -4200.00
01810              20.00    -4400.00
01811              20.00    -3800.00
01812              40.00    -3800.00
01813              20.00    -3600.00
01814              20.00    -3400.00
01815              20.00    -3400.00
01816              20.00    -3000.00
01817              20.00    -2800.00
01818              60.00    -2800.00
01819              40.00    -2400.00
01820              20.00    -2400.00
01821              20.00    -2000.00
01822              20.00    -2000.00
01823              60.00    -1800.00
01824              60.00    -1800.00
01825              60.00    -1200.00
01826              20.00    -1200.00
01827              20.00    -1000.00
01828              20.00     -800.00
01829              20.00     -600.00
01830              60.00     -400.00
01831              60.00     -200.00
01832              60.00        0.00
01833              60.00      200.00
01834              60.00      200.00
01835             120.00      600.00
01836             180.00      600.00
01837             220.00      800.00
01838             160.00     1000.00
01839             100.00     1200.00
01840             100.00     1400.00
01841             140.00     1400.00
01842             660.00     1800.00
01843            1280.00     2000.00
01844             640.00     2200.00
01845            -660.00     2200.00
01846           -1580.00     2200.00
01847           -1580.00     2600.00
01848             240.00     3200.00
01849             900.00     2800.00
01850             140.00     3000.00
01851             620.00     3400.00
01852             300.00     3200.00
01853            -200.00     4200.00
01854             160.00     3800.00
01855            -160.00     3800.00
01856             320.00     4600.00
01857             240.00     4000.00
01858            -320.00     4600.00
01859             140.00     5000.00
01860             -80.00     4600.00
01861               0.00     5400.00
01862             180.00     5000.00
01863              80.00     5600.00
01864             140.00     5800.00
01865             -80.00     5600.00
01866             160.00     6200.00
01867              60.00     5800.00
01868             -60.00     6200.00
01869             120.00     6200.00
01870              60.00     6600.00
01871              80.00     6600.00
01872             -20.00     6600.00
01873              60.00     7200.00
01874              80.00     7000.00
01875             100.00     7000.00
01876              80.00     7400.00
01877              60.00     7400.00
01878              40.00     7800.00
01879               0.00     7600.00
01880             100.00     7800.00
01881              60.00     7800.00
01882              60.00     8200.00
01883              40.00     8200.00
01884              60.00     8400.00
01885              80.00     8400.00
01886              80.00     8600.00
01887              80.00     8600.00
01888               0.00     8600.00
01889              20.00     8600.00
01890              40.00     9000.00
01891              80.00     9000.00
01892              60.00     9000.00
01893              60.00     9000.00
01894               0.00     9200.00
01895              20.00     9400.00
01896              80.00     9400.00
01897              80.00     9400.00
01898              60.00     9400.00
01899              20.00     9400.00
01900              20.00     9800.00
01901              20.00     9800.00
01902               0.00     9800.00
01903              60.00     9800.00
01904              60.00     9800.00
01905              60.00     9800.00
01906              60.00    10000.00
01907              20.00    10000.00
01908               0.00    10000.00
01909              20.00    10000.00
01910              60.00    10000.00
01911              60.00    10000.00
01912              20.00    10000.00
01913              20.00    10200.00
01914              20.00    10200.00
01915               0.00    10000.00
01916              20.00    10000.00
01917              20.00    10200.00
01918              20.00    10000.00
01919              20.00    10200.00
01920              20.00    10000.00
01921               0.00    10000.00
01922               0.00     9800.00
01923              20.00    10200.00
01924              20.00    10000.00
01925              20.00    10000.00
01926               0.00     9800.00
01927               0.00    10000.00
01928               0.00     9800.00
01929               0.00     9800.00
01930               0.00     9800.00
01931               0.00     9800.00
01932              20.00     9400.00
01933               0.00     9600.00
01934               0.00     9600.00
01935               0.00     9400.00
01936               0.00     9400.00
01937              20.00     9400.00
01938              60.00     9400.00
01939               0.00     9200.00
01940               0.00     9200.00
01941               0.00     9000.00
01942               0.00     9000.00
01943               0.00     8800.00
01944               0.00     8600.00
01945               0.00     8600.00
01946               0.00     8600.00
01947               0.00     8600.00
01948               0.00     8400.00
01949               0.00     8200.00
01950               0.00     8000.00
01951              20.00     8200.00
01952               0.00     8000.00
01953             -20.00     7800.00
01954             -20.00     7600.00
01955             -20.00     7600.00
01956               0.00     7400.00
01957               0.00     7400.00
01958               0.00     7000.00
01959               0.00     7000.00
01960               0.00     6600.00
01961             -20.00     6600.00
01962               0.00     6600.00
01963               0.00     6200.00
01964               0.00     6200.00
01965               0.00     6000.00
01966             -20.00     6000.00
01967             -20.00     5800.00
01968             -20.00     5800.00
01969             -20.00     5400.00
01970             -20.00     5400.00
01971             -20.00     5200.00
01972             -20.00     5200.00
01973             -20.00     5000.00
01974             -40.00     4600.00
01975             -20.00     4600.00
01976             -20.00     4200.00
01977             -20.00     4200.00
01978             -20.00     4000.00
01979             -40.00     3800.00
01980             -20.00     3800.00
01981             -60.00     3600.00
01982             -20.00     3200.00
01983             -20.00     3000.00
01984             -20.00     3000.00
01985             -20.00     2800.00
01986             -60.00     2600.00
01987             -60.00     2400.00
01988             -60.00     2000.00
01989             -20.00     2000.00
01990             -20.00     1800.00
01991             -20.00     1600.00
01992             -40.00     1400.00
01993             -60.00     1200.00
01994             -60.00     1200.00
01995             -60.00     1000.00
01996             -40.00      600.00
01997             -40.00      600.00
01998             -60.00      400.00
01999             -40.00      200.00
02000             -20.00      200.00
02001             -20.00     -200.00
02002              60.00     -400.00
02003              80.00     -600.00
02004             100.00     -600.00
02005              60.00     -600.00
02006              20.00    -1000.00
02007             -20.00    -1200.00
02008             -20.00    -1200.00
02009             140.00    -1400.00
02010             700.00    -1800.00
02011             960.00    -2200.00
02012             220.00    -2200.00
02013            -800.00    -2600.00
02014           -1280.00    -2600.00
02015           -1340.00    -2600.00
02016            -180.00    -2800.00
02017             660.00    -3200.00
02018             140.00    -3000.00
02019             400.00    -3400.00
02020             320.00    -3600.00
02021            -140.00    -3400.00
02022             140.00    -4200.00
02023            -160.00    -4200.00
02024             -40.00    -4200.00
02025             220.00    -4600.00
02026            -160.00    -4400.00
02027            -220.00    -5000.00
02028            -140.00    -5000.00
02029               0.00    -5000.00
02030               0.00    -5400.00
02031               0.00    -5200.00
02032               0.00    -5800.00
02033            -140.00    -5800.00
02034              20.00    -6000.00
02035              20.00    -6200.00
02036             -80.00    -6000.00
02037             -20.00    -6600.00
02038             -20.00    -6200.00
02039             -20.00    -6600.00
02040            -100.00    -6800.00
02041            -100.00    -7000.00
02042              20.00    -7200.00
02043             -20.00    -7200.00
02044             -80.00    -7600.00
02045             -40.00    -7400.00
02046             -20.00    -7600.00
02047             -60.00    -7800.00
02048             -20.00    -7800.00
02049             -60.00    -7800.00
02050            -100.00    -8200.00
02051             -60.00    -8200.00
02052             -20.00    -8200.00
02053             -20.00    -8400.00
02054             -80.00    -8600.00
02055             -20.00    -8600.00
02056             -60.00    -8600.00
02057            -100.00    -9000.00
02058             -60.00    -9000.00
02059               0.00    -9000.00
02060             -40.00    -9200.00
02061             -60.00    -9200.00
02062             -60.00    -9400.00
02063             -80.00    -9200.00
02064             -60.00    -9400.00
02065             -20.00    -9400.00
02066               0.00    -9400.00
02067             -40.00    -9400.00
02068             -60.00    -9600.00
02069             -60.00    -9600.00
02070             -60.00    -9800.00
02071             -20.00    -9800.00
02072               0.00    -9800.00
02073             -20.00    -9800.00
02074             -40.00    -9800.00
02075             -20.00   -10000.00
02076             -40.00    -9800.00
02077             -60.00   -10000.00
02078               0.00   -10000.00
02079             -20.00   -10000.00
02080             -40.00   -10000.00
02081             -40.00   -10000.00
02082             -20.00   -10000.00
02083             -20.00   -10000.00
02084             -20.00   -10000.00
02085               0.00   -10000.00
02086               0.00   -10000.00
02087             -20.00   -10000.00
02088             -20.00   -10200.00
02089             -20.00   -10000.00
02090             -20.00   -10000.00
02091             -20.00   -10000.00
02092               0.00   -10000.00
02093               0.00   -10000.00
02094             -20.00    -9800.00
02095               0.00    -9800.00
02096             -20.00    -9800.00
02097             -20.00    -9800.00
02098               0.00    -9600.00
02099               0.00    -9600.00
02100               0.00    -9600.00
02101             -20.00    -9400.00
02102             -20.00    -9400.00
02103             -20.00    -9400.00
02104               0.00    -9400.00
02105               0.00    -9200.00
02106               0.00    -9200.00
02107               0.00    -9200.00
02108               0.00    -9000.00
02109             -20.00    -9000.00
02110               0.00    -9000.00
02111             -20.00    -8800.00
02112               0.00    -8800.00
02113              20.00    -8600.00
02114             -20.00    -8400.00
02115               0.00    -8400.00
02116               0.00    -8200.00
02117             -20.00    -8200.00
02118               0.00    -8200.00
02119               0.00    -7800.00
02120               0.00    -7800.00
02121               0.00    -7600.00
02122               0.00    -7600.00
02123               0.00    -7200.00
02124               0.00    -7200.00
02125               0.00    -7200.00
02126               0.00    -7000.00
02127               0.00    -6800.00
02128               0.00    -6800.00
02129               0.00    -6600.00
02130              20.00    -6400.00
02131              20.00    -6200.00
02132              20.00    -6200.00
02133              20.00    -6000.00
02134               0.00    -6000.00
02135               0.00    -5600.00
02136               0.00    -5400.00
02137              20.00    -5200.00
02138              20.00    -5200.00
02139              40.00    -5000.00
02140              20.00    -5000.00
02141              20.00    -4600.00
02142              20.00    -4600.00
02143              20.00    -4400.00
02144              20.00    -4200.00
02145              60.00    -4000.00
02146              60.00    -3800.00
02147              20.00    -3600.00
02148               0.00    -3400.00
02149             -20.00    -3200.00
02150              20.00    -3000.00
02151              80.00    -3000.00
02152              80.00    -2800.00
02153              60.00    -2600.00
02154              20.00    -2400.00
02155               0.00    -2200.00
02156               0.00    -2000.00
02157              40.00    -2000.00
02158              80.00    -1800.00
02159              60.00    -1400.00
02160              60.00    -1200.00
02161              40.00    -1200.00
02162              20.00     -800.00
02163              20.00     -600.00
02164              20.00     -400.00
02165              60.00     -400.00
02166              80.00     -200.00
02167              60.00      200.00
02168              60.00      200.00
02169             100.00      600.00
02170             160.00      600.00
02171             220.00      800.00
02172             180.00      800.00
02173             140.00     1000.00
02174             100.00     1200.00
02175             100.00     1400.00
02176             380.00     1600.00
02177            1140.00     2000.00
02178             980.00     2000.00
02179            -260.00     2200.00
02180           -1300.00     2200.00
02181           -1760.00     2600.00
02182            -480.00     3000.00
02183            1020.00     3000.00
02184             300.00     3000.00
02185             400.00     3400.00
02186             540.00     3200.00
02187            -160.00     3800.00
02188              80.00     4000.00
02189             -80.00     3600.00
02190             100.00     4600.00
02191             480.00     4200.00
02192            -260.00     4200.00
02193             -60.00     5200.00
02194              60.00     4600.00
02195            -140.00     5200.00
02196             180.00     5000.00
02197             140.00     5200.00
02198             180.00     6000.00
02199             -60.00     5400.00
02200              60.00     6200.00
02201             180.00     6000.00
02202             -60.00     6000.00
02203              80.00     6400.00
02204              60.00     6200.00
02205              80.00     6600.00
02206               0.00     6600.00
02207               0.00     6800.00
02208             100.00     7000.00
02209              80.00     6800.00
02210             100.00     7400.00
02211              60.00     7400.00
02212              60.00     7600.00
02213               0.00     7600.00
02214              80.00     7800.00
02215              60.00     7800.00
02216              20.00     8000.00
02217              60.00     8200.00
02218              20.00     8200.00
02219              80.00     8400.00
02220              80.00     8600.00
02221             100.00     8600.00
02222               0.00     8600.00
02223               0.00     8600.00
02224              20.00     9000.00
02225              60.00     8800.00
02226              80.00     9200.00
02227              60.00     9200.00
02228              20.00     9200.00
02229               0.00     9400.00
02230              60.00     9400.00
02231             100.00     9400.00
02232              80.00     9400.00
02233              20.00     9400.00
02234              20.00     9600.00
02235              20.00     9800.00
02236               0.00     9600.00
02237              20.00     9800.00
02238              60.00     9800.00
02239              40.00    10000.00
02240              60.00    10000.00
02241              20.00    10000.00
02242               0.00    10000.00
02243               0.00    10000.00
02244              40.00    10000.00
02245              20.00    10200.00
02246              20.00    10000.00
02247               0.00    10000.00
02248               0.00    10000.00
02249               0.00    10200.00
02250              20.00    10000.00
02251              20.00    10000.00
02252              40.00    10000.00
02253              20.00    10200.00
02254               0.00    10000.00
02255              20.00    10000.00
02256               0.00    10000.00
02257              20.00    10000.00
02258              40.00    10000.00
02259              20.00    10000.00
02260               0.00     9800.00
02261              20.00    10000.00
02262              20.00     9800.00
02263               0.00    10000.00
02264               0.00     9800.00
02265              20.00     9800.00
02266               0.00     9600.00
02267              20.00     9800.00
02268               0.00     9400.00
02269               0.00     9600.00
02270               0.00     9400.00
02271              20.00     9400.00
02272              20.00     9400.00
02273              20.00     9200.00
02274               0.00     9200.00
02275               0.00     9000.00
02276               0.00     9000.00
02277               0.00     8800.00
02278               0.00     8800.00
02279              20.00     8600.00
02280               0.00     8600.00
02281               0.00     8400.00
02282             -20.00     8400.00
02283               0.00     8200.00
02284               0.00     8200.00
02285               0.00     8200.00
02286               0.00     8000.00
02287               0.00     7800.00
02288             -20.00     7600.00
02289             -20.00     7600.00
02290             -20.00     7400.00
02291               0.00     7400.00
02292               0.00     7000.00
02293             -20.00     7000.00
02294             -20.00     6800.00
02295             -20.00     6800.00
02296               0.00     6600.00
02297               0.00     6600.00
02298               0.00     6200.00
02299               0.00     6200.00
02300             -20.00     6000.00
02301             -20.00     5800.00
02302             -60.00     5800.00
02303             -20.00     5400.00
02304             -20.00     5400.00
02305             -20.00     5200.00
02306             -20.00     5000.00
02307             -20.00     5000.00
02308             -20.00     4600.00
02309             -20.00     4600.00
02310             -60.00     4400.00
02311             -20.00     4200.00
02312             -40.00     4200.00
02313             -20.00     3800.00
02314             -60.00     3800.00
02315             -40.00     3600.00
02316             -40.00     3400.00
02317             -20.00     3200.00
02318             -40.00     3000.00
02319             -20.00     2800.00
02320             -60.00     2600.00
02321             -60.00     2400.00
02322             -60.00     2200.00
02323             -40.00     2000.00
02324             -20.00     1800.00
02325             -20.00     1800.00
02326             -20.00     1400.00
02327             -20.00     1200.00
02328             -40.00     1200.00
02329             -20.00     1000.00
02330             -60.00      600.00
02331             -20.00      600.00
02332             -40.00      400.00
02333             -20.00      200.00
02334             -60.00        0.00
02335             -40.00     -200.00
02336              20.00     -400.00
02337             100.00     -400.00
02338             120.00     -600.00
02339              60.00     -800.00
02340              20.00    -1000.00
02341               0.00    -1200.00
02342               0.00    -1400.00
02343              60.00    -1400.00
02344             460.00    -1800.00
02345             980.00    -2000.00
02346             540.00    -2400.00
02347            -500.00    -2600.00
02348           -1140.00    -2600.00
02349           -1400.00    -2600.00
02350            -720.00    -2400.00
02351             560.00    -3200.00
02352             300.00    -3000.00
02353             240.00    -3000.00
02354             480.00    -3800.00
02355             -80.00    -3600.00
02356              60.00    -3800.00
02357             -20.00    -4200.00
02358            -180.00    -4200.00
02359             220.00    -4600.00
02360             -20.00    -4400.00
02361            -240.00    -5000.00
02362            -140.00    -5000.00
02363             -80.00    -4800.00
02364              20.00    -5400.00
02365             -60.00    -5200.00
02366              40.00    -5400.00
02367             -80.00    -5800.00
02368             -60.00    -5800.00
02369              60.00    -6000.00
02370             -80.00    -6000.00
02371             -60.00    -6600.00
02372             -60.00    -6600.00
02373               0.00    -6600.00
02374             -80.00    -7000.00
02375            -140.00    -6800.00
02376               0.00    -7000.00
02377               0.00    -7200.00
02378             -60.00    -7400.00
02379             -60.00    -7400.00
02380             -20.00    -7400.00
02381             -60.00    -7600.00
02382             -60.00    -7800.00
02383             -20.00    -8000.00
02384            -100.00    -8200.00
02385             -80.00    -8200.00
02386             -20.00    -8200.00
02387             -20.00    -8400.00
02388             -60.00    -8600.00
02389             -20.00    -8600.00
02390             -20.00    -8600.00
02391             -80.00    -8600.00
02392             -60.00    -9000.00
02393             -20.00    -9000.00
02394             -20.00    -9200.00
02395             -60.00    -9000.00
02396             -60.00    -9200.00
02397             -20.00    -9200.00
02398             -60.00    -9200.00
02399               0.00    -9400.00
02400               0.00    -9400.00
02401             -40.00    -9600.00
02402             -60.00    -9800.00
02403             -60.00    -9400.00
02404             -20.00    -9800.00
02405             -20.00    -9800.00
02406               0.00    -9800.00
02407               0.00    -9800.00
02408             -60.00   -10000.00
02409             -40.00   -10000.00
02410             -40.00    -9800.00
02411             -60.00    -9800.00
02412             -20.00   -10000.00
02413               0.00   -10000.00
02414             -20.00   -10000.00
02415             -20.00   -10000.00
02416             -60.00   -10000.00
02417             -40.00   -10000.00
02418             -20.00   -10000.00
02419               0.00   -10000.00
02420               0.00   -10000.00
02421               0.00   -10000.00
02422             -20.00    -9800.00
02423             -20.00   -10000.00
02424             -20.00   -10000.00
02425             -20.00    -9800.00
02426               0.00   -10000.00
02427               0.00    -9800.00
02428             -20.00    -9800.00
02429             -20.00    -9800.00
02430             -20.00    -9800.00
02431             -20.00    -9800.00
02432               0.00    -9800.00
02433               0.00    -9600.00
02434             -20.00    -9600.00
02435               0.00    -9400.00
02436             -20.00    -9400.00
02437             -20.00    -9400.00
02438             -20.00    -9400.00
02439             -20.00    -9200.00
02440               0.00    -9200.00
02441               0.00    -9000.00
02442               0.00    -9000.00
02443             -20.00    -9000.00
02444               0.00    -8800.00
02445               0.00    -8800.00
02446               0.00    -8600.00
02447               0.00    -8600.00
02448               0.00    -8400.00
02449               0.00    -8200.00
02450             -20.00    -8200.00
02451             -20.00    -8200.00
02452               0.00    -8000.00
02453               0.00    -7800.00
02454              20.00    -7800.00
02455               0.00    -7600.00
02456             -20.00    -7400.00
02457               0.00    -7200.00
02458               0.00    -7200.00
02459              20.00    -7000.00
02460              20.00    -7000.00
02461              20.00    -6800.00
02462               0.00    -6600.00
02463               0.00    -6600.00
02464               0.00    -6600.00
02465              20.00    -6400.00
02466              20.00    -6200.00
02467              20.00    -6000.00
02468               0.00    -5800.00
02469               0.00    -5800.00
02470               0.00    -5400.00
02471              20.00    -5400.00
02472              20.00    -5200.00
02473              40.00    -5000.00
02474              60.00    -5000.00
02475               0.00    -4600.00
02476               0.00    -4600.00
02477              20.00    -4400.00
02478              40.00    -4200.00
02479              20.00    -4200.00
02480              60.00    -3800.00
02481              20.00    -3600.00
02482               0.00    -3400.00
02483              20.00    -3400.00
02484              20.00    -3000.00
02485              40.00    -3000.00
02486              60.00    -2800.00
02487              60.00    -2600.00
02488              20.00    -2600.00
02489              20.00    -2200.00
02490              20.00    -2000.00
02491              40.00    -1800.00
02492              60.00    -1800.00
02493              60.00    -1400.00
02494              60.00    -1200.00
02495              40.00    -1200.00
02496              20.00     -800.00
02497              20.00     -800.00
02498              40.00     -400.00
02499              40.00     -200.00
02500              60.00     -200.00
02501              60.00        0.00
02502              60.00      200.00
02503              80.00      400.00
02504             160.00      400.00
02505             180.00      600.00
02506             180.00     1000.00
02507             140.00     1200.00
02508             100.00     1200.00
02509             100.00     1400.00
02510             220.00     1400.00
02511             900.00     1800.00
02512            1200.00     2200.00
02513             240.00     2200.00
02514           -1020.00     2200.00
02515           -1740.00     2400.00
02516           -1140.00     2800.00
02517             740.00     3000.00
02518             620.00     2800.00
02519             220.00     3400.00
02520             660.00     3400.00
02521               0.00     3400.00
02522             -80.00     4400.00
02523              80.00     3400.00
02524            -100.00     4200.00
02525             500.00     4600.00
02526             -20.00     4000.00
02527            -220.00     5200.00
02528             160.00     4600.00
02529            -140.00     5200.00
02530             100.00     5400.00
02531             140.00     5000.00
02532             140.00     5800.00
02533              60.00     5600.00
02534             -20.00     5600.00
02535             220.00     6200.00
02536               0.00     5800.00
02537              20.00     6400.00
02538             100.00     6200.00
02539              60.00     6600.00
02540              60.00     6800.00
02541             -20.00     6600.00
02542             100.00     7200.00
02543              80.00     7000.00
02544             100.00     7400.00
02545              60.00     7400.00
02546              60.00     7400.00
02547              20.00     7600.00
02548              40.00     7600.00
02549             100.00     8000.00
02550              20.00     7800.00
02551              60.00     8200.00
02552               0.00     8200.00
02553              60.00     8400.00
02554              80.00     8400.00
02555             100.00     8600.00
02556              60.00     8600.00
02557               0.00     8600.00
02558              20.00     9000.00
02559              80.00     8800.00
02560              80.00     9000.00
02561              60.00     9200.00
02562              20.00     9200.00
02563             -20.00     9400.00
02564              20.00     9200.00
02565              80.00     9400.00
02566              80.00     9400.00
02567              60.00     9400.00
02568              20.00     9600.00
02569              20.00     9600.00
02570               0.00     9800.00
02571              20.00     9800.00
02572              60.00     9800.00
02573              60.00    10000.00
02574              60.00    10000.00
02575              40.00    10000.00
02576               0.00    10000.00
02577               0.00     9800.00
02578              20.00    10200.00
02579              80.00    10000.00
02580              20.00    10000.00
02581               0.00    10000.00
02582              20.00    10000.00
02583               0.00    10000.00
02584               0.00    10200.00
02585              20.00    10200.00
02586              20.00    10200.00
02587              20.00    10200.00
02588              40.00    10200.00
02589              20.00    10000.00
02590               0.00    10200.00
02591               0.00    10000.00
02592              20.00    10000.00
02593              20.00    10000.00
02594              20.00    10000.00
02595              20.00     9800.00
02596               0.00    10000.00
02597               0.00     9800.00
02598               0.00     9800.00
02599              20.00     9800.00
02600              20.00     9800.00
02601              60.00     9800.00
02602              20.00     9800.00
02603               0.00     9600.00
02604               0.00     9400.00
02605               0.00     9400.00
02606              20.00     9400.00
02607               0.00     9400.00
02608              20.00     9200.00
02609               0.00     9200.00
02610               0.00     9200.00
02611               0.00     9000.00
02612              20.00     8800.00
02613               0.00     8600.00
02614               0.00     8600.00
02615               0.00     8400.00
02616             -20.00     8400.00
02617             -20.00     8200.00
02618               0.00     8200.00
02619               0.00     8000.00
02620               0.00     7800.00
02621               0.00     7800.00
02622             -20.00     7800.00
02623               0.00     7600.00
02624             -20.00     7600.00
02625               0.00     7400.00
02626               0.00     7200.00
02627             -20.00     7000.00
02628             -20.00     7000.00
02629             -20.00     6800.00
02630             -20.00     6600.00
02631             -40.00     6600.00
02632             -20.00     6200.00
02633             -20.00     6200.00
02634             -20.00     6000.00
02635             -20.00     5800.00
02636             -20.00     5800.00
02637             -60.00     5800.00
02638             -20.00     5400.00
02639             -20.00     5400.00
02640             -20.00     5200.00
02641             -20.00     5000.00
02642             -60.00     4800.00
02643             -20.00     4600.00
02644             -40.00     4400.00
02645             -20.00     4200.00
02646             -20.00     4200.00
02647             -20.00     4000.00
02648             -40.00     3600.00
02649             -40.00     3600.00
02650             -40.00     3400.00
02651             -20.00     3400.00
02652             -20.00     3000.00
02653             -20.00     3000.00
02654             -40.00     2800.00
02655             -60.00     2400.00
02656             -60.00     2400.00
02657             -20.00     2000.00
02658             -20.00     2000.00
02659             -20.00     1800.00
02660             -20.00     1800.00
02661             -20.00     1400.00
02662             -40.00     1200.00
02663             -40.00     1000.00
02664             -60.00     1000.00
02665             -20.00      800.00
02666             -40.00      600.00
02667             -20.00      400.00
02668             -60.00      200.00
02669             -20.00        0.00
02670               0.00     -400.00
02671              60.00     -400.00
02672             100.00     -600.00
02673             100.00     -600.00
02674              60.00    -1000.00
02675               0.00    -1000.00
02676               0.00    -1400.00
02677               0.00    -1200.00
02678             240.00    -1600.00
02679             860.00    -2000.00
02680             820.00    -2400.00
02681            -120.00    -2200.00
02682            -980.00    -2400.00
02683           -1340.00    -2600.00
02684           -1120.00    -2600.00
02685             240.00    -2800.00
02686             480.00    -3400.00
02687             140.00    -3000.00
02688             520.00    -3800.00
02689              80.00    -3600.00
02690             -60.00    -3600.00
02691             100.00    -4200.00
02692            -220.00    -4200.00
02693             100.00    -4600.00
02694             100.00    -4600.00
02695            -240.00    -4600.00
02696            -180.00    -5000.00
02697            -120.00    -4800.00
02698               0.00    -5200.00
02699             -20.00    -5400.00
02700               0.00    -5400.00
02701             -60.00    -5800.00
02702            -120.00    -5800.00
02703              60.00    -6200.00
02704             -20.00    -6000.00
02705             -80.00    -6200.00
02706             -60.00    -6600.00
02707             -20.00    -6600.00
02708             -20.00    -6800.00
02709            -140.00    -6800.00
02710             -60.00    -6800.00
02711              20.00    -7000.00
02712             -60.00    -7400.00
02713             -60.00    -7600.00
02714             -20.00    -7400.00
02715             -60.00    -7600.00
02716             -60.00    -7800.00
02717             -20.00    -7800.00
02718             -80.00    -8000.00
02719             -80.00    -8200.00
02720             -60.00    -8200.00
02721               0.00    -8400.00
02722             -60.00    -8400.00
02723             -60.00    -8600.00
02724               0.00    -8600.00
02725             -60.00    -8600.00
02726             -80.00    -9000.00
02727             -20.00    -9000.00
02728             -20.00    -9200.00
02729             -40.00    -9200.00
02730             -60.00    -9200.00
02731             -20.00    -9200.00
02732             -60.00    -9400.00
02733             -20.00    -9400.00
02734               0.00    -9400.00
02735               0.00    -9400.00
02736             -60.00    -9800.00
02737             -60.00    -9600.00
02738             -60.00    -9800.00
02739             -60.00    -9800.00
02740             -20.00    -9800.00
02741               0.00    -9800.00
02742             -20.00    -9800.00
02743             -60.00    -9800.00
02744             -60.00   -10000.00
02745             -20.00   -10000.00
02746               0.00    -9800.00
02747               0.00   -10000.00
02748             -20.00    -9800.00
02749             -60.00   -10200.00
02750             -60.00   -10000.00
02751             -20.00   -10000.00
02752             -20.00   -10000.00
02753             -20.00   -10000.00
02754               0.00   -10000.00
02755               0.00   -10000.00
02756               0.00   -10000.00
02757             -20.00    -9800.00
02758             -40.00   -10000.00
02759             -20.00   -10000.00
02760             -20.00    -9800.00
02761               0.00    -9800.00
02762               0.00    -9800.00
02763             -20.00    -9800.00
02764             -20.00    -9800.00
02765             -40.00    -9800.00
02766             -20.00    -9800.00
02767             -20.00    -9800.00
02768               0.00    -9600.00
02769             -20.00    -9400.00
02770             -20.00    -9400.00
02771             -20.00    -9400.00
02772             -20.00    -9400.00
02773             -20.00    -9200.00
02774               0.00    -9400.00
02775               0.00    -9200.00
02776               0.00    -9200.00
02777             -20.00    -9000.00
02778               0.00    -9000.00
02779               0.00    -8800.00
02780               0.00    -8600.00
02781               0.00    -8600.00
02782               0.00    -8400.00
02783               0.00    -8400.00
02784             -20.00    -8400.00
02785               0.00    -8200.00
02786              20.00    -8200.00
02787               0.00    -7800.00
02788               0.00    -7800.00
02789               0.00    -7600.00
02790               0.00    -7600.00
02791               0.00    -7400.00
02792               0.00    -7400.00
02793              20.00    -7200.00
02794              20.00    -7000.00
02795               0.00    -6800.00
02796              20.00    -6800.00
02797               0.00    -6600.00
02798               0.00    -6600.00
02799              20.00    -6400.00
02800               0.00    -6200.00
02801              40.00    -6000.00
02802              20.00    -6000.00
02803               0.00    -5800.00
02804               0.00    -5800.00
02805               0.00    -5400.00
02806              40.00    -5400.00
02807              60.00    -5000.00
02808              60.00    -5000.00
02809              20.00    -4600.00
02810               0.00    -4600.00
02811               0.00    -4400.00
02812               0.00    -4400.00
02813              60.00    -4000.00
02814              60.00    -4000.00
02815              20.00    -3800.00
02816              20.00    -3600.00
02817               0.00    -3600.00
02818               0.00    -3200.00
02819               0.00    -3000.00
02820              40.00    -2800.00
02821              60.00    -2800.00
02822              20.00    -2600.00
02823               0.00    -2200.00
02824              20.00    -2000.00
02825              20.00    -2000.00
02826              40.00    -1800.00
02827              60.00    -1800.00
02828              20.00    -1400.00
02829              40.00    -1200.00
02830              20.00     -800.00
02831               0.00     -800.00
02832              40.00     -600.00
02833              60.00     -400.00
02834              40.00     -200.00
02835              20.00     -200.00
02836              60.00      200.00
02837              60.00      400.00
02838             140.00      600.00
02839             180.00      600.00
02840             180.00     1000.00
02841             140.00     1000.00
02842             100.00     1000.00
02843              80.00     1400.00
02844             140.00     1400.00
02845             640.00     1800.00
02846            1260.00     2200.00
02847             660.00     2200.00
02848            -640.00     2200.00
02849           -1560.00     2400.00
02850           -1600.00     2600.00
02851             180.00     3200.00
02852             940.00     2800.00
02853             160.00     3000.00
02854             620.00     3400.00
02855             320.00     3400.00
02856            -220.00     4200.00
02857             140.00     3800.00
02858            -160.00     3800.00
02859             320.00     4600.00
02860             280.00     4200.00
02861            -300.00     4600.00
02862             140.00     5000.00
02863             -60.00     4600.00
02864             -20.00     5400.00
02865             180.00     5000.00
02866             100.00     5800.00
02867             140.00     5800.00
02868             -80.00     5600.00
02869             180.00     6200.00
02870             100.00     5800.00
02871             -20.00     6200.00
02872             120.00     6600.00
02873              20.00     6200.00
02874              80.00     6800.00
02875             -20.00     6600.00
02876              80.00     7000.00
02877             100.00     7000.00
02878              80.00     7000.00
02879              80.00     7400.00
02880              60.00     7400.00
02881              40.00     7600.00
02882              20.00     7600.00
02883             100.00     8000.00
02884              60.00     7800.00
02885              20.00     8000.00
02886              20.00     8200.00
02887              60.00     8400.00
02888              80.00     8400.00
02889              60.00     8600.00
02890              60.00     8600.00
02891             -20.00     8600.00
02892              20.00     8800.00
02893              60.00     9000.00
02894              80.00     9000.00
02895              60.00     9200.00
02896              20.00     9200.00
02897               0.00     9400.00
02898               0.00     9400.00
02899              60.00     9400.00
02900              80.00     9400.00
02901              60.00     9400.00
02902              20.00     9400.00
02903              20.00     9600.00
02904               0.00     9600.00
02905               0.00     9800.00
02906              20.00     9800.00
02907              40.00     9800.00
02908              60.00    10000.00
02909              60.00    10000.00
02910              20.00    10000.00
02911               0.00    10000.00
02912              20.00    10000.00
02913              60.00    10200.00
02914              60.00    10000.00
02915              20.00    10000.00
02916              40.00    10000.00
02917              20.00    10200.00
02918               0.00    10000.00
02919              20.00    10200.00
02920              20.00    10200.00
02921              20.00    10000.00
02922              20.00    10200.00
02923              20.00    10200.00
02924               0.00    10000.00
02925               0.00    10000.00
02926              20.00    10200.00
02927              60.00    10000.00
02928              20.00    10200.00
02929              20.00    10000.00
02930              20.00    10000.00
02931               0.00     9800.00
02932               0.00    10000.00
02933               0.00     9800.00
02934               0.00     9800.00
02935              20.00     9800.00
02936              20.00     9600.00
02937               0.00     9600.00
02938               0.00     9400.00
02939               0.00     9400.00
02940              20.00     9400.00
02941              20.00     9200.00
02942               0.00     9200.00
02943               0.00     9200.00
02944               0.00     9200.00
02945               0.00     8800.00
02946               0.00     9000.00
02947               0.00     8800.00
02948               0.00     8600.00
02949               0.00     8600.00
02950               0.00     8400.00
02951             -20.00     8200.00
02952             -20.00     8400.00
02953               0.00     8000.00
02954               0.00     7800.00
02955               0.00     8000.00
02956             -20.00     7800.00
02957             -20.00     7600.00
02958             -20.00     7600.00
02959             -20.00     7400.00
02960               0.00     7400.00
02961             -20.00     7000.00
02962             -20.00     7000.00
02963               0.00     6800.00
02964             -20.00     6600.00
02965             -20.00     6600.00
02966             -20.00     6400.00
02967             -20.00     6200.00
02968             -20.00     6000.00
02969             -20.00     6000.00
02970             -20.00     5800.00
02971             -20.00     5800.00
02972             -20.00     5400.00
02973             -20.00     5400.00
02974             -20.00     5200.00
02975             -20.00     5000.00
02976             -20.00     5000.00
02977             -60.00     4800.00
02978             -80.00     4600.00
02979             -60.00     4200.00
02980             -20.00     4200.00
02981             -20.00     4000.00
02982             -20.00     3800.00
02983             -20.00     3600.00
02984             -40.00     3600.00
02985             -20.00     3400.00
02986             -20.00     3000.00
02987             -20.00     2800.00
02988             -60.00     2800.00
02989             -80.00     2600.00
02990             -60.00     2400.00
02991             -60.00     2200.00
02992             -20.00     1800.00
02993             -20.00     1800.00
02994             -20.00     1600.00
02995             -40.00     1400.00
02996             -20.00     1200.00
02997             -20.00     1200.00
02998             -40.00      800.00
02999             -20.00      600.00
03000             -20.00      600.00
03001             -60.00      400.00
03002             -20.00      200.00
03003             -20.00      200.00
03004             -20.00     -200.00
03005              20.00     -400.00
03006             100.00     -400.00
03007             120.00     -800.00
03008              80.00     -800.00
03009              20.00    -1000.00
03010               0.00    -1200.00
03011               0.00    -1400.00
03012             100.00    -1600.00
03013             660.00    -2000.00
03014             960.00    -2200.00
03015             220.00    -2200.00
03016            -800.00    -2600.00
03017           -1280.00    -2600.00
03018           -1340.00    -2600.00
03019            -220.00    -2600.00
03020             700.00    -3400.00
03021             160.00    -3000.00
03022             380.00    -3400.00
03023             300.00    -3800.00
03024            -160.00    -3400.00
03025             100.00    -4200.00
03026            -160.00    -4200.00
03027             -60.00    -4400.00
03028             220.00    -4600.00
03029            -160.00    -4400.00
03030            -220.00    -5200.00
03031            -160.00    -5000.00
03032             -20.00    -5000.00
03033               0.00    -5400.00
03034             -20.00    -5400.00
03035               0.00    -5800.00
03036            -100.00    -5800.00
03037               0.00    -6000.00
03038              20.00    -6200.00
03039            -100.00    -6200.00
03040             -40.00    -6600.00
03041             -20.00    -6400.00
03042             -20.00    -6800.00
03043            -100.00    -7000.00
03044            -100.00    -6800.00
03045               0.00    -7200.00
03046             -20.00    -7000.00
03047             -60.00    -7400.00
03048             -20.00    -7400.00
03049             -20.00    -7400.00
03050             -60.00    -7800.00
03051             -20.00    -7800.00
03052             -60.00    -7800.00
03053             -80.00    -8200.00
03054             -60.00    -8200.00
03055               0.00    -8200.00
03056               0.00    -8600.00
03057             -60.00    -8400.00
03058             -20.00    -8600.00
03059             -60.00    -8600.00
03060             -80.00    -8800.00
03061             -40.00    -9000.00
03062               0.00    -8800.00
03063             -20.00    -9200.00
03064             -60.00    -9000.00
03065             -60.00    -9200.00
03066             -60.00    -9400.00
03067             -60.00    -9200.00
03068               0.00    -9400.00
03069               0.00    -9400.00
03070             -40.00    -9400.00
03071             -60.00    -9800.00
03072             -60.00    -9800.00
03073             -60.00    -9800.00
03074             -20.00    -9600.00
03075               0.00    -9800.00
03076               0.00    -9800.00
03077             -20.00    -9800.00
03078             -40.00    -9800.00
03079             -40.00   -10000.00
03080             -40.00   -10000.00
03081             -20.00    -9800.00
03082               0.00   -10000.00
03083             -20.00   -10000.00
03084             -60.00   -10000.00
03085             -20.00    -9800.00
03086             -60.00   -10000.00
03087             -40.00   -10000.00
03088               0.00   -10000.00
03089             -20.00   -10200.00
03090             -20.00   -10000.00
03091             -20.00   -10000.00
03092             -20.00   -10000.00
03093             -40.00   -10000.00
03094             -20.00   -10000.00
03095               0.00   -10000.00
03096              20.00    -9800.00
03097             -20.00    -9800.00
03098             -20.00    -9800.00
03099             -40.00    -9800.00
03100             -20.00    -9800.00
03101               0.00    -9800.00
03102               0.00    -9800.00
03103               0.00    -9400.00
03104             -20.00    -9400.00
03105             -20.00    -9400.00
03106             -20.00    -9400.00
03107             -20.00    -9400.00
03108               0.00    -9400.00
03109               0.00    -9200.00
03110             -20.00    -9200.00
03111             -20.00    -9000.00
03112             -20.00    -9000.00
03113               0.00    -8600.00
03114               0.00    -8600.00
03115               0.00    -8600.00
03116               0.00    -8600.00
03117               0.00    -8400.00
03118               0.00    -8400.00
03119             -20.00    -8200.00
03120               0.00    -8200.00
03121              20.00    -8200.00
03122               0.00    -7800.00
03123               0.00    -7800.00
03124               0.00    -7600.00
03125             -20.00    -7400.00
03126               0.00    -7200.00
03127              20.00    -7200.00
03128              20.00    -7000.00
03129              20.00    -7000.00
03130               0.00    -6800.00
03131              20.00    -6600.00
03132               0.00    -6600.00
03133               0.00    -6400.00
03134               0.00    -6200.00
03135              20.00    -6000.00
03136              20.00    -6000.00
03137              20.00    -5800.00
03138               0.00    -5600.00
03139               0.00    -5400.00
03140               0.00    -5400.00
03141              20.00    -5200.00
03142              60.00    -5000.00
03143              20.00    -5000.00
03144              20.00    -4600.00
03145               0.00    -4400.00
03146               0.00    -4200.00
03147              20.00    -4200.00
03148              20.00    -4000.00
03149              40.00    -3600.00
03150              20.00    -3600.00
03151              20.00    -3400.00
03152              20.00    -3400.00
03153              20.00    -3000.00
03154              20.00    -2800.00
03155              60.00    -2800.00
03156              40.00    -2600.00
03157              20.00    -2600.00
03158               0.00    -2200.00
03159              20.00    -2000.00
03160              20.00    -1800.00
03161              20.00    -1800.00
03162              60.00    -1400.00
03163              60.00    -1400.00
03164              20.00    -1200.00
03165              20.00     -800.00
03166              40.00     -600.00
03167              40.00     -600.00
03168              40.00     -400.00
03169              60.00     -200.00
03170              40.00      200.00
03171              60.00      200.00
03172              80.00      400.00
03173             160.00      600.00
03174             200.00      600.00
03175             160.00     1000.00
03176             120.00     1000.00
03177             100.00     1200.00
03178              80.00     1400.00
03179             380.00     1800.00
03180            1140.00     1800.00
03181            1020.00     2000.00
03182            -180.00     2200.00
03183           -1280.00     2200.00
03184           -1780.00     2400.00
03185            -540.00     3000.00
03186             980.00     3000.00
03187             320.00     2800.00
03188             400.00     3400.00
03189             580.00     3000.00
03190            -180.00     3800.00
03191              60.00     4000.00
03192             -60.00     3600.00
03193              80.00     4600.00
03194             500.00     4200.00
03195            -240.00     4200.00
03196             -20.00     5200.00
03197              80.00     4600.00
03198            -140.00     5200.00
03199             220.00     5200.00
03200             120.00     5200.00
03201             140.00     6000.00
03202             -40.00     5400.00
03203              60.00     6000.00
03204             200.00     6000.00
03205             -40.00     6000.00
03206             100.00     6600.00
03207              60.00     6200.00
03208              60.00     6800.00
03209               0.00     6600.00
03210               0.00     6800.00
03211             140.00     7200.00
03212              80.00     7000.00
03213             120.00     7400.00
03214              20.00     7400.00
03215              20.00     7600.00
03216               0.00     7600.00
03217             100.00     7800.00
03218              60.00     7800.00
03219              20.00     7800.00
03220              40.00     8200.00
03221               0.00     8200.00
03222              60.00     8400.00
03223              60.00     8400.00
03224              80.00     8600.00
03225               0.00     8600.00
03226               0.00     8600.00
03227              60.00     8800.00
03228              80.00     9000.00
03229              60.00     9000.00
03230              20.00     9000.00
03231               0.00     9200.00
03232             -20.00     9200.00
03233              60.00     9400.00
03234              80.00     9400.00
03235              80.00     9400.00
03236              20.00     9400.00
03237              20.00     9600.00
03238               0.00     9800.00
03239               0.00     9800.00
03240              20.00     9800.00
03241              60.00     9800.00
03242              60.00    10000.00
03243              60.00     9800.00
03244              20.00    10000.00
03245              20.00    10000.00
03246               0.00    10000.00
03247              60.00    10200.00
03248              60.00    10000.00
03249              20.00    10200.00
03250              20.00    10000.00
03251              20.00    10200.00
03252               0.00    10200.00
03253              20.00    10200.00
03254              20.00    10200.00
03255              40.00    10200.00
03256              60.00    10000.00
03257              60.00    10200.00
03258              20.00    10000.00
03259               0.00    10000.00
03260               0.00    10000.00
03261              20.00    10000.00
03262              40.00    10000.00
03263              60.00    10000.00
03264              20.00    10000.00
03265               0.00     9800.00
03266               0.00     9800.00
03267               0.00     9800.00
03268              20.00     9800.00
03269              20.00     9600.00
03270              20.00     9600.00
03271               0.00     9400.00
03272             -20.00     9400.00
03273               0.00     9400.00
03274               0.00     9400.00
03275              20.00     9400.00
03276              20.00     9200.00
03277               0.00     9200.00
03278               0.00     9200.00
03279               0.00     9000.00
03280               0.00     8800.00
03281               0.00     8600.00
03282               0.00     8600.00
03283               0.00     8600.00
03284             -20.00     8400.00
03285               0.00     8400.00
03286               0.00     8200.00
03287               0.00     8200.00
03288               0.00     8200.00
03289               0.00     7800.00
03290             -20.00     7800.00
03291             -20.00     7600.00
03292             -20.00     7600.00
03293             -20.00     7400.00
03294               0.00     7200.00
03295               0.00     7000.00
03296               0.00     7000.00
03297             -20.00     6800.00
03298             -20.00     6800.00
03299             -20.00     6600.00
03300               0.00     6400.00
03301             -20.00     6200.00
03302             -20.00     6200.00
03303             -20.00     6000.00
03304             -20.00     5800.00
03305             -40.00     5800.00
03306             -20.00     5600.00
03307             -20.00     5400.00
03308             -20.00     5200.00
03309               0.00     5000.00
03310             -20.00     5000.00
03311             -60.00     4800.00
03312             -40.00     4600.00
03313             -20.00     4400.00
03314             -20.00     4400.00
03315             -20.00     4200.00
03316             -40.00     3800.00
03317             -20.00     3800.00
03318             -20.00     3600.00
03319             -20.00     3400.00
03320             -20.00     3200.00
03321             -20.00     3000.00
03322             -20.00     2800.00
03323             -20.00     2800.00
03324             -60.00     2200.00
03325             -60.00     2200.00
03326             -40.00     2000.00
03327             -20.00     1800.00
03328             -20.00     1800.00
03329             -20.00     1400.00
03330             -60.00     1400.00
03331             -60.00     1200.00
03332             -60.00     1000.00
03333             -20.00      800.00
03334             -20.00      600.00
03335             -20.00      400.00
03336             -40.00      200.00
03337             -20.00      200.00
03338             -20.00        0.00
03339               0.00     -200.00
03340             100.00     -400.00
03341             100.00     -600.00
03342              80.00     -800.00
03343              20.00    -1000.00
03344               0.00    -1000.00
03345               0.00    -1400.00
03346              40.00    -1400.00
03347             420.00    -1600.00
03348             960.00    -2200.00
03349             580.00    -2200.00
03350            -480.00    -2400.00
03351           -1140.00    -2800.00
03352           -1420.00    -2600.00
03353            -760.00    -2600.00
03354             540.00    -3200.00
03355             320.00    -3200.00
03356             240.00    -3000.00
03357             500.00    -3800.00
03358             -60.00    -3400.00
03359              20.00    -3800.00
03360             -40.00    -4400.00
03361            -220.00    -4200.00
03362             160.00    -4600.00
03363             -80.00    -4400.00
03364            -320.00    -5000.00
03365            -100.00    -5000.00
03366               0.00    -4800.00
03367             140.00    -5400.00
03368              20.00    -5400.00
03369              60.00    -5400.00
03370            -140.00    -5800.00
03371            -200.00    -5800.00
03372             -60.00    -6200.00
03373            -140.00    -6000.00
03374             -20.00    -6200.00
03375              20.00    -6600.00
03376              60.00    -6400.00
03377               0.00    -7000.00
03378             -80.00    -7000.00
03379               0.00    -7000.00
03380             -20.00    -7000.00
03381            -100.00    -7400.00
03382            -100.00    -7600.00
03383             -80.00    -7400.00
03384             -80.00    -7800.00
03385             -20.00    -7800.00
03386               0.00    -7800.00
03387             -20.00    -8200.00
03388             -20.00    -8200.00
03389               0.00    -8400.00
03390               0.00    -8400.00
03391             -80.00    -8600.00
03392            -100.00    -8600.00
03393            -100.00    -8600.00
03394            -100.00    -8800.00
03395             -60.00    -8800.00
03396              20.00    -9000.00
03397              20.00    -9000.00
03398               0.00    -9200.00
03399             -20.00    -9200.00
03400             -60.00    -9200.00
03401            -100.00    -9400.00
03402             -60.00    -9400.00
03403             -60.00    -9400.00
03404             -60.00    -9400.00
03405             -40.00    -9600.00
03406             -20.00    -9800.00
03407             -20.00    -9800.00
03408               0.00    -9800.00
03409               0.00    -9800.00
03410               0.00   -10000.00
03411             -80.00    -9800.00
03412             -80.00   -10000.00
03413             -80.00    -9800.00
03414             -60.00   -10000.00
03415             -20.00   -10000.00
03416               0.00   -10000.00
03417               0.00   -10000.00
03418             -60.00   -10200.00
03419             -60.00   -10000.00
03420             -60.00   -10000.00
03421             -60.00   -10000.00
03422             -20.00   -10000.00
03423             -20.00   -10000.00
03424             -20.00   -10000.00
03425             -20.00   -10000.00
03426             -40.00   -10000.00
03427             -20.00   -10000.00
03428               0.00    -9800.00
03429               0.00   -10000.00
03430               0.00   -10000.00
03431             -20.00    -9800.00
03432             -60.00    -9800.00
03433             -20.00    -9800.00
03434             -20.00    -9800.00
03435             -20.00    -9800.00
03436               0.00    -9600.00
03437             -20.00    -9600.00
03438               0.00    -9600.00
03439             -20.00    -9400.00
03440             -20.00    -9400.00
03441             -20.00    -9400.00
03442               0.00    -9200.00
03443               0.00    -9200.00
03444               0.00    -9200.00
03445               0.00    -9200.00
03446               0.00    -9000.00
03447             -20.00    -8800.00
03448               0.00    -9000.00
03449               0.00    -8600.00
03450              20.00    -8600.00
03451             -20.00    -8400.00
03452               0.00    -8600.00
03453               0.00    -8200.00
03454              20.00    -8000.00
03455              20.00    -8200.00
03456               0.00    -7800.00
03457               0.00    -7800.00
03458               0.00    -7800.00
03459               0.00    -7200.00
03460               0.00    -7200.00
03461               0.00    -7200.00
03462              20.00    -7000.00
03463              40.00    -7000.00
03464              20.00    -6800.00
03465               0.00    -6800.00
03466               0.00    -6600.00
03467               0.00    -6400.00
03468               0.00    -6200.00
03469              20.00    -6200.00
03470              60.00    -6000.00
03471              20.00    -5800.00
03472               0.00    -5400.00
03473               0.00    -5400.00
03474               0.00    -5400.00
03475              20.00    -5200.00
03476              20.00    -5200.00
03477              20.00    -5000.00
03478               0.00    -4600.00
03479               0.00    -4600.00
03480               0.00    -4400.00
03481              20.00    -4200.00
03482              20.00    -4200.00
03483              60.00    -3800.00
03484              40.00    -3600.00
03485              20.00    -3600.00
03486              20.00    -3400.00
03487              20.00    -3400.00
03488              20.00    -3000.00
03489              20.00    -2800.00
03490              60.00    -2600.00
03491              60.00    -2400.00
03492              20.00    -2200.00
03493              20.00    -2000.00
03494              20.00    -2000.00
03495              60.00    -1800.00
03496              60.00    -1400.00
03497              20.00    -1400.00
03498              20.00    -1200.00
03499              20.00     -800.00
03500              40.00     -800.00
03501              40.00     -400.00
03502              60.00     -400.00
03503              60.00     -200.00
03504              60.00        0.00
03505              60.00      200.00
03506              80.00      400.00
03507             140.00      400.00
03508             200.00      600.00
03509             180.00     1000.00
03510             160.00     1000.00
03511             100.00     1200.00
03512             100.00     1400.00
03513             220.00     1400.00
03514             900.00     2000.00
03515            1220.00     2200.00
03516             300.00     2200.00
03517            -980.00     2200.00
03518           -1700.00     2200.00
03519           -1200.00     3000.00
03520             720.00     3000.00
03521             660.00     2800.00
03522             200.00     3400.00
03523             700.00     3200.00
03524              20.00     3600.00
03525            -100.00     4200.00
03526              60.00     3600.00
03527            -100.00     4200.00
03528             500.00     4600.00
03529              20.00     4000.00
03530            -220.00     5000.00
03531             160.00     4600.00
03532            -160.00     5000.00
03533             100.00     5400.00
03534             160.00     5000.00
03535             160.00     5800.00
03536              80.00     5600.00
03537             -60.00     5800.00
03538             180.00     6200.00
03539               0.00     6000.00
03540              40.00     6600.00
03541             100.00     6200.00
03542              80.00     6600.00
03543              20.00     6800.00
03544             -40.00     6800.00
03545              80.00     7400.00
03546             100.00     7000.00
03547             100.00     7200.00
03548              60.00     7400.00
03549               0.00     7400.00
03550               0.00     7800.00
03551              60.00     7800.00
03552              80.00     7800.00
03553              20.00     7800.00
03554              60.00     8400.00
03555             -20.00     8200.00
03556              20.00     8200.00
03557              80.00     8400.00
03558             100.00     8400.00
03559              60.00     8800.00
03560               0.00     8600.00
03561              40.00     9000.00
03562              20.00     9000.00
03563              60.00     9000.00
03564              60.00     9000.00
03565              20.00     9200.00
03566               0.00     9400.00
03567              60.00     9200.00
03568              80.00     9400.00
03569              80.00     9400.00
03570              20.00     9400.00
03571              20.00     9600.00
03572              20.00     9800.00
03573              20.00     9800.00
03574              40.00     9800.00
03575              60.00     9800.00
03576              60.00    10000.00
03577              60.00     9800.00
03578              40.00    10000.00
03579              20.00    10000.00
03580              20.00    10000.00
03581              60.00    10200.00
03582              60.00    10200.00
03583               0.00    10200.00
03584               0.00    10000.00
03585              20.00    10200.00
03586              20.00    10200.00
03587              60.00    10200.00
03588              60.00    10000.00
03589              40.00    10200.00
03590              20.00    10000.00
03591               0.00    10200.00
03592              20.00    10000.00
03593               0.00    10200.00
03594               0.00    10000.00
03595              20.00    10000.00
03596              40.00     9800.00
03597              40.00    10000.00
03598              20.00     9800.00
03599               0.00    10000.00
03600              20.00     9800.00
03601              20.00     9800.00
03602              20.00     9800.00
03603              20.00     9800.00
03604               0.00     9800.00
03605               0.00     9600.00
03606             -20.00     9400.00
03607             -20.00     9400.00
03608               0.00     9400.00
03609              20.00     9200.00
03610              20.00     9200.00
03611               0.00     9200.00
03612             -20.00     9200.00
03613               0.00     9000.00
03614               0.00     9000.00
03615               0.00     8800.00
03616               0.00     8600.00
03617               0.00     8600.00
03618               0.00     8400.00
03619             -20.00     8400.00
03620             -20.00     8200.00
03621             -20.00     8200.00
03622               0.00     8200.00
03623               0.00     8000.00
03624               0.00     7800.00
03625             -20.00     7600.00
03626             -20.00     7600.00
03627               0.00     7400.00
03628             -20.00     7200.00
03629               0.00     7200.00
03630             -20.00     7000.00
03631             -20.00     7000.00
03632             -20.00     6800.00
03633             -20.00     6600.00
03634             -20.00     6600.00
03635               0.00     6400.00
03636             -20.00     6200.00
03637             -20.00     6000.00
03638             -20.00     6000.00
03639             -20.00     5800.00
03640             -20.00     5600.00
03641             -20.00     5400.00
03642             -20.00     5200.00
03643             -20.00     5000.00
03644             -20.00     5000.00
03645             -20.00     4800.00
03646             -20.00     4600.00
03647             -20.00     4600.00
03648             -20.00     4200.00
03649             -20.00     4200.00
03650             -20.00     4000.00
03651             -20.00     3800.00
03652             -20.00     3600.00
03653             -20.00     3400.00
03654             -20.00     3400.00
03655             -20.00     3000.00
03656             -20.00     3000.00
03657             -20.00     2800.00
03658             -60.00     2400.00
03659             -60.00     2200.00
03660             -20.00     2200.00
03661             -20.00     2000.00
03662             -20.00     1800.00
03663             -20.00     1600.00
03664             -40.00     1400.00
03665             -60.00     1200.00
03666             -20.00     1000.00
03667             -60.00     1000.00
03668             -40.00      600.00
03669             -20.00      400.00
03670             -20.00      400.00
03671             -20.00        0.00
03672             -20.00        0.00
03673             -20.00     -200.00
03674              60.00     -400.00
03675             100.00     -600.00
03676             100.00     -800.00
03677              20.00    -1000.00
03678               0.00    -1200.00
03679             -20.00    -1200.00
03680               0.00    -1400.00
03681             260.00    -1600.00
03682             860.00    -1800.00
03683             820.00    -2200.00
03684            -120.00    -2200.00
03685            -980.00    -2600.00
03686           -1360.00    -2600.00
03687           -1140.00    -2600.00
03688             220.00    -2800.00
03689             520.00    -3400.00
03690             100.00    -3000.00
03691             500.00    -3600.00
03692             100.00    -3600.00
03693             -80.00    -3600.00
03694              80.00    -4400.00
03695            -220.00    -4200.00
03696              80.00    -4600.00
03697             140.00    -4400.00
03698            -240.00    -4600.00
03699            -180.00    -5200.00
03700            -120.00    -4800.00
03701               0.00    -5400.00
03702             -20.00    -5400.00
03703              20.00    -5400.00
03704             -20.00    -5800.00
03705            -100.00    -5800.00
03706              60.00    -6200.00
03707             -20.00    -6000.00
03708             -80.00    -6200.00
03709             -20.00    -6600.00
03710             -20.00    -6200.00
03711             -20.00    -7000.00
03712            -120.00    -6800.00
03713             -20.00    -7000.00
03714              20.00    -7000.00
03715             -20.00    -7200.00
03716             -60.00    -7400.00
03717             -20.00    -7400.00
03718             -60.00    -7600.00
03719             -60.00    -7800.00
03720             -20.00    -7800.00
03721             -60.00    -8000.00
03722             -80.00    -8200.00
03723             -40.00    -8200.00
03724               0.00    -8200.00
03725             -20.00    -8600.00
03726             -60.00    -8600.00
03727             -20.00    -8600.00
03728             -60.00    -8800.00
03729             -60.00    -8800.00
03730             -20.00    -8800.00
03731             -20.00    -9000.00
03732             -60.00    -9200.00
03733             -60.00    -9200.00
03734             -60.00    -9200.00
03735             -60.00    -9400.00
03736             -20.00    -9400.00
03737               0.00    -9400.00
03738             -20.00    -9400.00
03739             -60.00    -9600.00
03740             -60.00    -9800.00
03741             -60.00    -9400.00
03742             -60.00    -9800.00
03743             -20.00    -9800.00
03744               0.00    -9800.00
03745             -40.00    -9800.00
03746             -60.00    -9800.00
03747             -20.00   -10000.00
03748             -60.00    -9800.00
03749             -60.00   -10000.00
03750             -20.00   -10000.00
03751             -20.00   -10000.00
03752             -60.00   -10000.00
03753             -40.00   -10000.00
03754             -20.00   -10200.00
03755             -60.00   -10000.00
03756             -60.00   -10000.00
03757               0.00   -10200.00
03758             -20.00   -10000.00
03759             -20.00   -10200.00
03760             -20.00   -10000.00
03761             -20.00   -10000.00
03762             -60.00   -10000.00
03763             -20.00    -9800.00
03764              20.00    -9800.00
03765               0.00    -9800.00
03766               0.00    -9800.00
03767             -20.00    -9800.00
03768             -20.00    -9800.00
03769             -20.00    -9800.00
03770             -20.00    -9600.00
03771               0.00    -9400.00
03772               0.00    -9400.00
03773             -20.00    -9400.00
03774             -20.00    -9400.00
03775             -20.00    -9200.00
03776               0.00    -9200.00
03777              20.00    -9200.00
03778               0.00    -9200.00
03779               0.00    -9000.00
03780               0.00    -9000.00
03781               0.00    -9000.00
03782               0.00    -8800.00
03783               0.00    -8600.00
03784               0.00    -8600.00
03785               0.00    -8400.00
03786               0.00    -8400.00
03787               0.00    -8200.00
03788               0.00    -8200.00
03789               0.00    -8000.00
03790               0.00    -8000.00
03791              20.00    -7800.00
03792               0.00    -7600.00
03793               0.00    -7600.00
03794               0.00    -7400.00
03795               0.00    -7200.00
03796               0.00    -7000.00
03797               0.00    -7000.00
03798              20.00    -7000.00
03799               0.00    -6800.00
03800               0.00    -6800.00
03801               0.00    -6600.00
03802               0.00    -6200.00
03803               0.00    -6200.00
03804               0.00    -6200.00
03805               0.00    -6000.00
03806               0.00    -5800.00
03807               0.00    -5400.00
03808               0.00    -5400.00
03809              20.00    -5200.00
03810               0.00    -5200.00
03811              20.00    -5000.00
03812              20.00    -4800.00
03813               0.00    -4600.00
03814               0.00    -4600.00
03815              20.00    -4200.00
03816              20.00    -4200.00
03817              20.00    -3800.00
03818              40.00    -3800.00
03819              20.00    -3600.00
03820               0.00    -3400.00
03821              20.00    -3200.00
03822              20.00    -3000.00
03823              20.00    -3000.00
03824              60.00    -2600.00
03825              20.00    -2600.00
03826              20.00    -2200.00
03827              20.00    -2200.00
03828              20.00    -2000.00
03829              20.00    -1800.00
03830              60.00    -1400.00
03831              60.00    -1400.00
03832              40.00    -1200.00
03833              40.00     -800.00
03834              40.00     -800.00
03835              60.00     -600.00
03836              60.00     -600.00
03837              60.00     -400.00
03838              60.00        0.00
03839              60.00      200.00
03840              80.00      400.00
03841             120.00      600.00
03842             180.00      600.00
03843             200.00      800.00
03844             160.00     1000.00
03845             120.00     1200.00
03846             100.00     1400.00
03847             140.00     1400.00
03848             620.00     1800.00
03849            1260.00     2200.00
03850             720.00     2200.00
03851            -580.00     2200.00
03852           -1520.00     2200.00
03853           -1620.00     2600.00
03854             140.00     3000.00
03855             960.00     3000.00
03856             160.00     3200.00
03857             600.00     3400.00
03858             340.00     3400.00
03859            -200.00     4200.00
03860             140.00     3800.00
03861            -140.00     3800.00
03862             300.00     4600.00
03863             300.00     4000.00
03864            -300.00     4400.00
03865             140.00     5200.00
03866             -20.00     4600.00
03867             -20.00     5400.00
03868             180.00     5000.00
03869              80.00     5800.00
03870             140.00     5800.00
03871             -80.00     5600.00
03872             160.00     6200.00
03873             100.00     6000.00
03874             -20.00     6200.00
03875             100.00     6200.00
03876              40.00     6600.00
03877              80.00     6800.00
03878             -60.00     6600.00
03879              80.00     7000.00
03880              80.00     6800.00
03881              80.00     7200.00
03882              80.00     7400.00
03883              60.00     7400.00
03884              20.00     7800.00
03885               0.00     7600.00
03886             100.00     7800.00
03887              40.00     7800.00
03888              20.00     8200.00
03889              20.00     8200.00
03890              20.00     8400.00
03891              60.00     8400.00
03892              80.00     8400.00
03893              80.00     8600.00
03894               0.00     8600.00
03895              20.00     8600.00
03896              60.00     9000.00
03897              80.00     8800.00
03898              60.00     9200.00
03899              20.00     9200.00
03900               0.00     9200.00
03901               0.00     9400.00
03902              60.00     9400.00
03903              80.00     9400.00
03904              60.00     9400.00
03905              20.00     9600.00
03906               0.00     9800.00
03907              20.00     9800.00
03908               0.00     9800.00
03909              40.00     9800.00
03910              60.00     9800.00
03911              60.00    10000.00
03912              60.00    10000.00
03913              20.00    10000.00
03914               0.00    10000.00
03915              20.00    10000.00
03916              60.00    10200.00
03917              60.00    10000.00
03918              20.00    10000.00
03919              20.00    10000.00
03920               0.00    10200.00
03921              20.00    10000.00
03922              20.00    10200.00
03923              60.00    10200.00
03924              20.00    10000.00
03925              20.00    10000.00
03926              40.00    10200.00
03927              20.00    10000.00
03928               0.00    10000.00
03929              20.00    10000.00
03930              20.00    10200.00
03931              20.00     9800.00
03932              20.00    10000.00
03933               0.00     9800.00
03934               0.00     9800.00
03935               0.00     9800.00
03936              20.00     9800.00
03937               0.00     9800.00
03938              20.00     9800.00
03939               0.00     9600.00
03940               0.00     9600.00
03941               0.00     9400.00
03942               0.00     9400.00
03943              20.00     9400.00
03944               0.00     9400.00
03945               0.00     9200.00
03946               0.00     9000.00
03947             -20.00     9200.00
03948             -20.00     9000.00
03949               0.00     8800.00
03950               0.00     8600.00
03951               0.00     8600.00
03952             -20.00     8600.00
03953             -20.00     8400.00
03954             -20.00     8400.00
03955             -20.00     8200.00
03956               0.00     8200.00
03957               0.00     8000.00
03958               0.00     8000.00
03959             -20.00     7600.00
03960             -20.00     7600.00
03961             -20.00     7600.00
03962               0.00     7400.00
03963               0.00     7400.00
03964             -20.00     7000.00
03965             -20.00     7000.00
03966             -20.00     6800.00
03967             -20.00     6800.00
03968             -20.00     6600.00
03969             -20.00     6400.00
03970             -20.00     6200.00
03971             -40.00     6200.00
03972               0.00     6200.00
03973             -20.00     5800.00
03974             -20.00     5800.00
03975             -20.00     5600.00
03976             -20.00     5400.00
03977             -20.00     5200.00
03978             -20.00     5200.00
03979             -20.00     4800.00
03980             -20.00     4600.00
03981             -20.00     4600.00
03982             -20.00     4400.00
03983             -20.00     4200.00
03984             -20.00     4000.00
03985             -40.00     3800.00
03986             -20.00     3600.00
03987             -20.00     3600.00
03988             -40.00     3200.00
03989             -20.00     3000.00
03990             -20.00     3000.00
03991             -20.00     2800.00
03992             -40.00     2800.00
03993             -60.00     2200.00
03994             -60.00     2200.00
03995             -20.00     2000.00
03996             -20.00     1800.00
03997             -20.00     1800.00
03998             -20.00     1400.00
03999             -20.00     1200.00
04000             -60.00     1200.00
04001             -60.00      800.00
04002             -60.00      800.00
04003             -60.00      600.00
04004             -60.00      400.00
04005             -20.00      200.00
04006             -20.00     -200.00
04007             -20.00     -200.00
04008              40.00     -400.00
04009             100.00     -600.00
04010             100.00     -600.00
04011              60.00     -800.00
04012               0.00    -1000.00
04013             -20.00    -1200.00
04014               0.00    -1400.00
04015             140.00    -1600.00
04016             640.00    -1800.00
04017             960.00    -2200.00
04018             240.00    -2200.00
04019            -740.00    -2600.00
04020           -1260.00    -2600.00
04021           -1360.00    -2600.00
04022            -300.00    -2600.00
04023             640.00    -3400.00
04024             140.00    -3000.00
04025             380.00    -3400.00
04026             320.00    -3800.00
04027            -140.00    -3200.00
04028             140.00    -4200.00
04029            -140.00    -4200.00
04030             -80.00    -4200.00
04031             220.00    -4800.00
04032            -160.00    -4400.00
04033            -200.00    -5200.00
04034            -140.00    -4800.00
04035             -20.00    -5000.00
04036               0.00    -5600.00
04037             -20.00    -5200.00
04038              20.00    -5800.00
04039            -100.00    -5800.00
04040               0.00    -6000.00
04041              60.00    -6200.00
04042             -80.00    -6200.00
04043             -60.00    -6600.00
04044             -20.00    -6400.00
04045               0.00    -6600.00
04046             -80.00    -7000.00
04047             -80.00    -6800.00
04048              20.00    -7000.00
04049               0.00    -7000.00
04050             -60.00    -7400.00
04051             -60.00    -7400.00
04052             -20.00    -7600.00
04053             -60.00    -7800.00
04054             -20.00    -7800.00
04055             -20.00    -7800.00
04056            -100.00    -8200.00
04057             -80.00    -8200.00
04058               0.00    -8200.00
04059             -20.00    -8600.00
04060             -60.00    -8600.00
04061             -20.00    -8600.00
04062             -40.00    -8800.00
04063             -80.00    -9000.00
04064             -60.00    -9000.00
04065             -20.00    -9000.00
04066             -20.00    -9000.00
04067             -80.00    -9200.00
04068             -60.00    -9200.00
04069             -60.00    -9400.00
04070             -60.00    -9400.00
04071               0.00    -9400.00
04072               0.00    -9400.00
04073             -60.00    -9600.00
04074             -60.00    -9800.00
04075             -60.00    -9600.00
04076             -60.00    -9800.00
04077             -20.00    -9800.00
04078               0.00    -9800.00
04079             -20.00    -9800.00
04080             -60.00    -9800.00
04081             -60.00    -9800.00
04082             -60.00   -10000.00
04083             -60.00   -10000.00
04084             -20.00   -10000.00
04085               0.00   -10000.00
04086             -40.00   -10000.00
04087             -60.00   -10000.00
04088             -60.00   -10000.00
04089             -20.00   -10000.00
04090             -60.00   -10000.00
04091             -20.00   -10000.00
04092               0.00   -10000.00
04093               0.00   -10000.00
04094             -20.00   -10000.00
04095             -40.00   -10000.00
04096             -40.00    -9800.00
04097             -20.00    -9800.00
04098               0.00   -10000.00
04099              20.00    -9800.00
04100               0.00    -9800.00
04101             -40.00    -9800.00
04102             -60.00    -9800.00
04103             -20.00    -9800.00
04104               0.00    -9800.00
04105               0.00    -9400.00
04106               0.00    -9400.00
04107               0.00    -9400.00
04108             -20.00    -9400.00
04109             -20.00    -9200.00
04110             -20.00    -9400.00
04111               0.00    -9000.00
04112              20.00    -9200.00
04113               0.00    -9000.00
04114             -20.00    -9000.00
04115             -20.00    -8800.00
04116               0.00    -8800.00
04117              20.00    -8600.00
04118              20.00    -8600.00
04119              20.00    -8400.00
04120             -20.00    -8400.00
04121             -20.00    -8400.00
04122               0.00    -8200.00
04123               0.00    -8200.00
04124               0.00    -7800.00
04125               0.00    -7800.00
04126              20.00    -7600.00
04127               0.00    -7600.00
04128             -20.00    -7600.00
04129               0.00    -7200.00
04130               0.00    -7200.00
04131               0.00    -7000.00
04132              20.00    -6800.00
04133               0.00    -6800.00
04134               0.00    -6800.00
04135               0.00    -6600.00
04136               0.00    -6400.00
04137               0.00    -6400.00
04138              20.00    -6000.00
04139              20.00    -6000.00
04140               0.00    -5800.00
04141               0.00    -5800.00
04142               0.00    -5400.00
04143               0.00    -5200.00
04144              20.00    -5400.00
04145              20.00    -5000.00
04146              20.00    -4800.00
04147               0.00    -4600.00
04148               0.00    -4600.00
04149               0.00    -4200.00
04150              20.00    -4200.00
04151              20.00    -4000.00
04152              20.00    -3800.00
04153              20.00    -3600.00
04154               0.00    -3600.00
04155              20.00    -3400.00
04156              20.00    -3000.00
04157              60.00    -3000.00
04158              40.00    -2600.00
04159              60.00    -2600.00
04160              20.00    -2200.00
04161              20.00    -2200.00
04162              20.00    -2000.00
04163              40.00    -1800.00
04164              60.00    -1400.00
04165              60.00    -1400.00
04166              60.00    -1200.00
04167              20.00    -1000.00
04168              40.00     -800.00
04169              20.00     -800.00
04170              60.00     -600.00
04171              60.00     -200.00
04172              60.00     -200.00
04173              80.00      200.00
04174              60.00      200.00
04175             100.00      400.00
04176             160.00      600.00
04177             220.00      600.00
04178             160.00     1000.00
04179             140.00     1000.00
04180             100.00     1200.00
04181             100.00     1400.00
04182             380.00     1600.00
04183            1140.00     2000.00
04184            1040.00     2000.00
04185            -160.00     2200.00
04186           -1260.00     2200.00
04187           -1760.00     2400.00
04188            -580.00     3000.00
04189             980.00     3000.00
04190             340.00     2800.00
04191             380.00     3400.00
04192             620.00     3200.00
04193            -160.00     4000.00
04194              60.00     4000.00
04195             -60.00     3600.00
04196              60.00     4600.00
04197             500.00     4200.00
04198            -240.00     4200.00
04199             -20.00     5000.00
04200             100.00     4600.00
04201            -160.00     5200.00
04202             180.00     5200.00
04203             100.00     5200.00
04204             140.00     6000.00
04205             -20.00     5200.00
04206              60.00     5800.00
04207             180.00     6000.00
04208             -60.00     6000.00
04209              80.00     6200.00
04210              80.00     6200.00
04211              60.00     6800.00
04212               0.00     6600.00
04213               0.00     6800.00
04214             100.00     7000.00
04215              80.00     7000.00
04216             100.00     7400.00
04217              60.00     7400.00
04218              20.00     7600.00
04219               0.00     7600.00
04220              80.00     7800.00
04221              80.00     8000.00
04222              20.00     7800.00
04223              60.00     8200.00
04224              20.00     8200.00
04225              80.00     8400.00
04226              80.00     8400.00
04227              80.00     8600.00
04228               0.00     8800.00
04229               0.00     8800.00
04230              20.00     9000.00
04231              60.00     9000.00
04232              80.00     9200.00
04233              60.00     9000.00
04234              20.00     9400.00
04235               0.00     9400.00
04236              80.00     9400.00
04237              80.00     9400.00
04238              60.00     9400.00
04239              60.00     9400.00
04240              20.00     9800.00
04241              20.00     9600.00
04242              20.00     9800.00
04243              60.00    10000.00
04244              60.00     9800.00
04245              60.00    10000.00
04246              80.00    10000.00
04247              20.00    10000.00
04248               0.00    10000.00
04249              20.00    10000.00
04250              60.00    10000.00
04251              60.00    10000.00
04252              20.00    10000.00
04253              20.00    10200.00
04254              20.00    10200.00
04255              20.00    10200.00
04256              20.00    10000.00
04257              20.00    10200.00
04258              20.00    10200.00
04259              20.00    10200.00
04260              40.00    10200.00
04261              20.00    10200.00
04262               0.00    10000.00
04263               0.00    10200.00
04264              20.00    10200.00
04265              20.00    10000.00
04266               0.00    10000.00
04267               0.00    10000.00
04268               0.00     9800.00
04269               0.00     9800.00
04270               0.00     9800.00
04271              20.00     9800.00
04272              20.00     9800.00
04273               0.00     9600.00
04274               0.00     9800.00
04275               0.00     9400.00
04276               0.00     9400.00
04277               0.00     9200.00
04278              20.00     9400.00
04279               0.00     9200.00
04280               0.00     9200.00
04281               0.00     9000.00
04282               0.00     9000.00
04283             -20.00     9000.00
04284               0.00     8800.00
04285               0.00     8600.00
04286               0.00     8600.00
04287               0.00     8600.00
04288             -20.00     8400.00
04289               0.00     8200.00
04290               0.00     8200.00
04291               0.00     8000.00
04292               0.00     7800.00
04293               0.00     7800.00
04294             -20.00     7600.00
04295             -20.00     7400.00
04296             -20.00     7400.00
04297             -20.00     7400.00
04298               0.00     7000.00
04299               0.00     7000.00
04300             -20.00     7000.00
04301               0.00     6800.00
04302             -20.00     6800.00
04303             -20.00     6400.00
04304               0.00     6200.00
04305             -20.00     6200.00
04306             -20.00     6000.00
04307             -20.00     5800.00
04308             -20.00     5800.00
04309             -20.00     5400.00
04310             -20.00     5400.00
04311               0.00     5200.00
04312             -20.00     5200.00
04313             -20.00     5000.00
04314             -60.00     4800.00
04315             -20.00     4600.00
04316             -20.00     4400.00
04317             -20.00     4200.00
04318             -20.00     4200.00
04319             -20.00     4000.00
04320             -40.00     3800.00
04321             -60.00     3600.00
04322             -40.00     3400.00
04323             -20.00     3000.00
04324             -20.00     3000.00
04325             -20.00     2800.00
04326             -60.00     2800.00
04327             -60.00     2200.00
04328             -80.00     2200.00
04329             -20.00     2200.00
04330             -20.00     2000.00
04331             -20.00     1800.00
04332             -20.00     1400.00
04333             -60.00     1400.00
04334             -60.00     1000.00
04335             -60.00     1200.00
04336             -40.00      600.00
04337             -60.00      600.00
04338             -20.00      400.00
04339             -40.00      200.00
04340             -40.00      200.00
04341             -60.00     -400.00
04342               0.00     -200.00
04343             100.00     -400.00
04344             100.00     -600.00
04345              60.00     -800.00
04346              20.00     -800.00
04347             -20.00    -1200.00
04348             -20.00    -1200.00
04349              60.00    -1400.00
04350             420.00    -1600.00
04351             980.00    -2200.00
04352             580.00    -2200.00
04353            -460.00    -2400.00
04354           -1140.00    -2600.00
04355           -1380.00    -2600.00
04356            -780.00    -2600.00
04357             540.00    -3000.00
04358             320.00    -3200.00
04359             220.00    -3000.00
04360             480.00    -3800.00
04361             -80.00    -3400.00
04362              60.00    -3800.00
04363               0.00    -4400.00
04364            -180.00    -4200.00
04365             200.00    -4600.00
04366               0.00    -4400.00
04367            -260.00    -4800.00
04368            -160.00    -5000.00
04369             -80.00    -4800.00
04370              60.00    -5400.00
04371             -20.00    -5400.00
04372              20.00    -5600.00
04373             -80.00    -5800.00
04374             -60.00    -5800.00
04375              80.00    -6000.00
04376             -60.00    -6000.00
04377             -60.00    -6600.00
04378             -20.00    -6400.00
04379             -20.00    -6600.00
04380             -60.00    -6800.00
04381            -140.00    -6800.00
04382               0.00    -7000.00
04383               0.00    -7000.00
04384             -60.00    -7400.00
04385             -60.00    -7600.00
04386             -20.00    -7400.00
04387             -60.00    -7800.00
04388             -20.00    -7800.00
04389             -20.00    -7800.00
04390             -80.00    -8200.00
04391            -100.00    -8200.00
04392             -40.00    -8400.00
04393               0.00    -8200.00
04394             -60.00    -8400.00
04395             -20.00    -8600.00
04396             -20.00    -8600.00
04397             -80.00    -8800.00
04398             -60.00    -8800.00
04399             -20.00    -9000.00
04400             -20.00    -9000.00
04401             -80.00    -9200.00
04402             -60.00    -9200.00
04403             -60.00    -9200.00
04404             -60.00    -9400.00
04405             -20.00    -9400.00
04406               0.00    -9400.00
04407             -40.00    -9600.00
04408             -60.00    -9600.00
04409             -60.00    -9600.00
04410             -60.00    -9800.00
04411             -20.00    -9800.00
04412               0.00    -9800.00
04413               0.00    -9800.00
04414             -40.00   -10000.00
04415             -20.00    -9800.00
04416             -20.00   -10000.00
04417             -60.00   -10000.00
04418             -20.00   -10000.00
04419               0.00   -10000.00
04420             -20.00   -10000.00
04421             -40.00   -10000.00
04422             -40.00   -10000.00
04423             -20.00   -10000.00
04424             -20.00   -10200.00
04425             -20.00   -10000.00
04426               0.00   -10000.00
04427             -20.00   -10000.00
04428             -20.00   -10000.00
04429             -20.00   -10000.00
04430             -20.00    -9800.00
04431             -20.00   -10000.00
04432             -20.00    -9800.00
04433               0.00   -10000.00
04434               0.00    -9800.00
04435             -20.00    -9800.00
04436               0.00    -9800.00
04437             -20.00    -9800.00
04438             -20.00    -9800.00
04439               0.00    -9800.00
04440               0.00    -9600.00
04441               0.00    -9600.00
04442             -20.00    -9400.00
04443             -20.00    -9400.00
04444               0.00    -9400.00
04445               0.00    -9200.00
04446               0.00    -9200.00
04447               0.00    -9000.00
04448               0.00    -9000.00
04449             -20.00    -9000.00
04450               0.00    -8800.00
04451               0.00    -8800.00
04452               0.00    -8600.00
04453               0.00    -8600.00
04454               0.00    -8400.00
04455             -20.00    -8200.00
04456               0.00    -8400.00
04457               0.00    -8200.00
04458               0.00    -8200.00
04459               0.00    -7800.00
04460               0.00    -7800.00
04461               0.00    -7600.00
04462               0.00    -7600.00
04463               0.00    -7600.00
04464               0.00    -7200.00
04465              20.00    -7200.00
04466               0.00    -7000.00
04467               0.00    -6800.00
04468               0.00    -6600.00
04469               0.00    -6600.00
04470               0.00    -6400.00
04471               0.00    -6200.00
04472               0.00    -6200.00
04473              20.00    -6000.00
04474               0.00    -6000.00
04475               0.00    -5800.00
04476               0.00    -5800.00
04477               0.00    -5400.00
04478              20.00    -5200.00
04479              20.00    -5200.00
04480              20.00    -5000.00
04481               0.00    -4800.00
04482               0.00    -4600.00
04483               0.00    -4600.00
04484              20.00    -4200.00
04485              60.00    -4200.00
04486              20.00    -3800.00
04487              20.00    -3600.00
04488              20.00    -3600.00
04489               0.00    -3400.00
04490               0.00    -3000.00
04491              20.00    -2800.00
04492              40.00    -2800.00
04493              20.00    -2800.00
04494              20.00    -2400.00
04495              20.00    -2200.00
04496              20.00    -2200.00
04497              20.00    -2000.00
04498              60.00    -1800.00
04499              60.00    -1400.00
04500              60.00    -1200.00
04501              60.00    -1200.00
04502              20.00     -800.00
04503              20.00     -600.00
04504              60.00     -600.00
04505              60.00     -400.00
04506              60.00     -200.00
04507              60.00        0.00
04508              60.00      200.00
04509              80.00      400.00
04510             160.00      600.00
04511             200.00      600.00
04512             220.00      800.00
04513             160.00     1000.00
04514             100.00     1400.00
04515             100.00     1400.00
04516             220.00     1400.00
04517             880.00     2000.00
04518            1220.00     2000.00
04519             320.00     2000.00
04520            -960.00     2200.00
04521           -1700.00     2200.00
04522           -1220.00     3000.00
04523             700.00     3200.00
04524             680.00     2800.00
04525             180.00     3400.00
04526             680.00     3400.00
04527              60.00     3400.00
04528            -100.00     4200.00
04529              80.00     3600.00
04530            -100.00     4200.00
04531             480.00     4600.00
04532              20.00     3800.00
04533            -240.00     5000.00
04534             180.00     5000.00
04535            -140.00     5000.00
04536              80.00     5400.00
04537             160.00     4800.00
04538             100.00     5800.00
04539              60.00     5400.00
04540             -60.00     5800.00
04541             220.00     6200.00
04542               0.00     5800.00
04543              20.00     6600.00
04544             100.00     6200.00
04545              60.00     6600.00
04546              40.00     6600.00
04547             -20.00     6600.00
04548              80.00     7400.00
04549              80.00     6800.00
04550             140.00     7400.00
04551              80.00     7400.00
04552              60.00     7600.00
04553               0.00     7600.00
04554              60.00     7600.00
04555             100.00     7800.00
04556              20.00     8000.00
04557              60.00     8200.00
04558              20.00     8200.00
04559              60.00     8400.00
04560              80.00     8400.00
04561             100.00     8400.00
04562              60.00     8600.00
04563               0.00     8600.00
04564              20.00     8600.00
04565              60.00     9000.00
04566              60.00     9200.00
04567              60.00     9000.00
04568              20.00     9400.00
04569              20.00     9400.00
04570              60.00     9400.00
04571             100.00     9400.00
04572              80.00     9400.00
04573              60.00     9400.00
04574              20.00     9600.00
04575              60.00     9800.00
04576              20.00     9800.00
04577              20.00     9800.00
04578              60.00     9800.00
04579              60.00     9800.00
04580              80.00    10000.00
04581              60.00    10000.00
04582               0.00    10000.00
04583               0.00    10000.00
04584              40.00    10000.00
04585              60.00    10000.00
04586              40.00    10000.00
04587               0.00    10000.00
04588              20.00    10000.00
04589               0.00    10200.00
04590              20.00    10000.00
04591              20.00    10000.00
04592              20.00    10000.00
04593              20.00    10000.00
04594              60.00    10000.00
04595              20.00    10200.00
04596               0.00    10000.00
04597              20.00    10200.00
04598              20.00    10000.00
04599              20.00    10000.00
04600               0.00    10000.00
04601               0.00    10000.00
04602               0.00     9800.00
04603               0.00     9800.00
04604               0.00     9800.00
04605              20.00     9800.00
04606               0.00     9800.00
04607              20.00     9600.00
04608               0.00     9600.00
04609               0.00     9400.00
04610             -20.00     9600.00
04611               0.00     9400.00
04612              20.00     9400.00
04613              20.00     9200.00
04614               0.00     9200.00
04615             -20.00     9000.00
04616               0.00     9000.00
04617               0.00     8800.00
04618               0.00     8800.00
04619               0.00     8600.00
04620               0.00     8600.00
04621             -20.00     8600.00
04622             -20.00     8400.00
04623               0.00     8200.00
04624               0.00     8200.00
04625               0.00     8200.00
04626               0.00     7800.00
04627               0.00     7800.00
04628               0.00     7600.00
04629             -20.00     7600.00
04630               0.00     7400.00
04631               0.00     7400.00
04632               0.00     7000.00
04633               0.00     7000.00
04634             -20.00     6800.00
04635             -20.00     6800.00
04636               0.00     6600.00
04637             -20.00     6600.00
04638               0.00     6200.00
04639             -20.00     6200.00
04640               0.00     6000.00
04641               0.00     6000.00
04642             -20.00     5800.00
04643             -40.00     5800.00
04644             -20.00     5400.00
04645             -20.00     5600.00
04646             -20.00     5200.00
04647             -20.00     5000.00
04648             -20.00     4800.00
04649             -40.00     4600.00
04650             -20.00     4600.00
04651             -20.00     4200.00
04652             -20.00     4000.00
04653             -20.00     4000.00
04654             -20.00     3800.00
04655             -20.00     3600.00
04656             -40.00     3400.00
04657             -60.00     3200.00
04658             -20.00     3200.00
04659             -60.00     3000.00
04660             -20.00     2800.00
04661             -20.00     2600.00
04662             -60.00     2200.00
04663             -60.00     1800.00
04664             -60.00     2000.00
04665             -40.00     1800.00
04666             -20.00     1400.00
04667             -20.00     1400.00
04668             -40.00     1200.00
04669             -60.00     1200.00
04670             -60.00      800.00
04671             -60.00      600.00
04672             -80.00      400.00
04673             -20.00      400.00
04674             -40.00      200.00
04675             -20.00        0.00
04676               0.00     -400.00
04677              80.00     -400.00
04678             120.00     -600.00
04679              80.00     -600.00
04680              40.00    -1000.00
04681               0.00    -1200.00
04682             -20.00    -1200.00
04683               0.00    -1600.00
04684             240.00    -1400.00
04685             840.00    -2000.00
04686             860.00    -2200.00
04687             -80.00    -2200.00
04688            -960.00    -2600.00
04689           -1340.00    -2600.00
04690           -1180.00    -2400.00
04691             200.00    -2800.00
04692             540.00    -3400.00
04693             140.00    -3000.00
04694             500.00    -3800.00
04695             140.00    -3600.00
04696             -80.00    -3400.00
04697             120.00    -4400.00
04698            -220.00    -4000.00
04699             100.00    -4600.00
04700             160.00    -4600.00
04701            -220.00    -4600.00
04702            -180.00    -5000.00
04703            -160.00    -4600.00
04704               0.00    -5200.00
04705             -20.00    -5200.00
04706              40.00    -5400.00
04707              20.00    -5800.00
04708             -80.00    -5800.00
04709              60.00    -6200.00
04710             -40.00    -6000.00
04711            -100.00    -6200.00
04712             -60.00    -6600.00
04713             -20.00    -6200.00
04714               0.00    -6800.00
04715            -100.00    -7000.00
04716             -40.00    -7000.00
04717               0.00    -7000.00
04718             -60.00    -7200.00
04719             -80.00    -7400.00
04720             -20.00    -7400.00
04721             -60.00    -7600.00
04722             -60.00    -8000.00
04723             -20.00    -7800.00
04724             -80.00    -8200.00
04725             -80.00    -8200.00
04726             -20.00    -8200.00
04727               0.00    -8400.00
04728             -20.00    -8600.00
04729             -20.00    -8600.00
04730             -20.00    -8600.00
04731             -80.00    -8800.00
04732             -80.00    -9000.00
04733             -20.00    -9000.00
04734             -20.00    -9000.00
04735             -60.00    -9200.00
04736             -60.00    -9200.00
04737             -40.00    -9200.00
04738             -80.00    -9400.00
04739             -60.00    -9400.00
04740             -20.00    -9400.00
04741             -20.00    -9600.00
04742             -60.00    -9600.00
04743             -60.00    -9400.00
04744             -40.00    -9800.00
04745             -60.00    -9800.00
04746             -20.00    -9800.00
04747               0.00    -9800.00
04748             -20.00   -10000.00
04749             -40.00   -10000.00
04750             -20.00    -9800.00
04751             -40.00   -10000.00
04752             -20.00   -10000.00
04753               0.00   -10000.00
04754             -20.00   -10000.00
04755             -20.00   -10000.00
04756             -20.00   -10000.00
04757             -20.00   -10000.00
04758             -20.00   -10000.00
04759             -60.00   -10000.00
04760             -20.00   -10000.00
04761             -20.00   -10000.00
04762             -20.00   -10000.00
04763             -20.00   -10000.00
04764             -20.00    -9800.00
04765               0.00   -10000.00
04766               0.00   -10000.00
04767               0.00   -10000.00
04768               0.00    -9800.00
04769               0.00    -9800.00
04770             -20.00    -9800.00
04771             -20.00    -9800.00
04772             -20.00    -9800.00
04773               0.00    -9600.00
04774              20.00    -9400.00
04775               0.00    -9400.00
04776               0.00    -9400.00
04777             -20.00    -9400.00
04778             -20.00    -9200.00
04779             -20.00    -9200.00
04780               0.00    -9200.00
04781               0.00    -9000.00
04782               0.00    -9200.00
04783             -20.00    -9200.00
04784             -20.00    -9000.00
04785             -20.00    -8800.00
04786               0.00    -8800.00
04787              20.00    -8600.00
04788              20.00    -8400.00
04789               0.00    -8600.00
04790             -20.00    -8400.00
04791             -20.00    -8200.00
04792               0.00    -8000.00
04793               0.00    -7800.00
04794               0.00    -7800.00
04795               0.00    -7600.00
04796               0.00    -7600.00
04797               0.00    -7400.00
04798               0.00    -7200.00
04799               0.00    -7200.00
04800              20.00    -7000.00
04801              20.00    -7000.00
04802               0.00    -6800.00
04803               0.00    -6600.00
04804             -20.00    -6600.00
04805             -20.00    -6400.00
04806               0.00    -6200.00
04807               0.00    -6200.00
04808              20.00    -6000.00
04809              20.00    -5800.00
04810              20.00    -5400.00
04811              20.00    -5400.00
04812              20.00    -5400.00
04813              20.00    -5200.00
04814               0.00    -5000.00
04815              20.00    -4600.00
04816              20.00    -4600.00
04817              20.00    -4400.00
04818              20.00    -4200.00
04819              20.00    -4200.00
04820              20.00    -3800.00
04821              20.00    -3800.00
04822              20.00    -3400.00
04823              20.00    -3400.00
04824              20.00    -3200.00
04825              20.00    -3000.00
04826              20.00    -2800.00
04827              60.00    -2800.00
04828              20.00    -2400.00
04829              20.00    -2200.00
04830              20.00    -2200.00
04831              60.00    -2000.00
04832              60.00    -1800.00
04833              60.00    -1600.00
04834              60.00    -1400.00
04835              20.00    -1200.00
04836              20.00    -1200.00
04837              40.00     -800.00
04838              40.00     -600.00
04839              60.00     -400.00
04840              60.00     -200.00
04841              60.00     -200.00
04842              60.00      200.00
04843              80.00      400.00
04844             140.00      400.00
04845             200.00      600.00
04846             200.00      600.00
04847             160.00     1000.00
04848             120.00     1000.00
04849              80.00     1400.00
04850             140.00     1400.00
04851             580.00     1800.00
04852            1260.00     2000.00
04853             740.00     2000.00
04854            -580.00     2200.00
04855           -1520.00     2200.00
04856           -1640.00     2600.00
04857              80.00     3000.00
04858             960.00     2800.00
04859             160.00     3000.00
04860             580.00     3400.00
04861             340.00     3400.00
04862            -220.00     4200.00
04863             140.00     3800.00
04864            -140.00     3600.00
04865             300.00     4600.00
04866             300.00     4200.00
04867            -300.00     4400.00
04868             100.00     5000.00
04869             -40.00     4600.00
04870             -60.00     5400.00
04871             200.00     5000.00
04872              80.00     5600.00
04873             140.00     5800.00
04874             -80.00     5400.00
04875             160.00     6200.00
04876             120.00     5800.00
04877             -60.00     6200.00
04878             120.00     6400.00
04879              60.00     6400.00
04880              80.00     6800.00
04881             -20.00     6600.00
04882              60.00     7200.00
04883             100.00     7000.00
04884              80.00     7200.00
04885             100.00     7400.00
04886              60.00     7400.00
04887              60.00     7600.00
04888               0.00     7600.00
04889             120.00     8000.00
04890              20.00     7800.00
04891              60.00     8200.00
04892              20.00     8200.00
04893              20.00     8400.00
04894              80.00     8400.00
04895              80.00     8400.00
04896              80.00     8400.00
04897               0.00     8600.00
04898              20.00     9000.00
04899              40.00     9000.00
04900              80.00     9200.00
04901              80.00     9000.00
04902              60.00     9200.00
04903              20.00     9400.00
04904              20.00     9200.00
04905              60.00     9400.00
04906              60.00     9600.00
04907              60.00     9400.00
04908              20.00     9600.00
04909              40.00     9800.00
04910               0.00     9800.00
04911               0.00     9800.00
04912              40.00     9800.00
04913              60.00     9800.00
04914              60.00     9800.00
04915              60.00     9800.00
04916              20.00    10000.00
04917               0.00     9800.00
04918              20.00    10000.00
04919              60.00    10000.00
04920              20.00    10200.00
04921               0.00    10200.00
04922               0.00    10000.00
04923               0.00    10000.00
04924              20.00    10200.00
04925              20.00    10000.00
04926              60.00    10200.00
04927              20.00    10200.00
04928               0.00    10000.00
04929               0.00    10000.00
04930               0.00    10000.00
04931               0.00    10000.00
04932              20.00    10200.00
04933              40.00    10000.00
04934              20.00    10000.00
04935               0.00     9800.00
04936               0.00     9800.00
04937               0.00     9800.00
04938               0.00     9800.00
04939               0.00     9800.00
04940              20.00     9800.00
04941              20.00     9800.00
04942              20.00     9400.00
04943               0.00     9600.00
04944               0.00     9400.00
04945               0.00     9400.00
04946              20.00     9400.00
04947              60.00     9400.00
04948              20.00     9200.00
04949               0.00     9000.00
04950               0.00     9000.00
04951               0.00     9000.00
04952               0.00     9000.00
04953              20.00     8800.00
04954               0.00     8600.00
04955               0.00     8600.00
04956               0.00     8400.00
04957               0.00     8400.00
04958             -20.00     8200.00
04959               0.00     8200.00
04960              20.00     8000.00
04961               0.00     7800.00
04962               0.00     7800.00
04963             -20.00     7800.00
04964             -20.00     7400.00
04965               0.00     7600.00
04966               0.00     7400.00
04967               0.00     7000.00
04968             -20.00     7000.00
04969             -20.00     6800.00
04970             -20.00     6600.00
04971             -20.00     6600.00
04972               0.00     6400.00
04973             -20.00     6200.00
04974               0.00     6200.00
04975               0.00     6000.00
04976             -20.00     6000.00
04977             -20.00     5600.00
04978             -20.00     5400.00
04979             -20.00     5400.00
04980             -20.00     5200.00
04981             -20.00     5000.00
04982             -20.00     4800.00
04983             -40.00     4600.00
04984             -40.00     4600.00
04985             -20.00     4400.00
04986             -20.00     4200.00
04987             -20.00     3800.00
04988             -20.00     3800.00
04989             -40.00     3800.00
04990             -60.00     3600.00
04991             -20.00     3400.00
04992             -40.00     3000.00
04993             -20.00     3000.00
04994             -40.00     2800.00
04995             -20.00     2600.00
04996             -60.00     2200.00
04997             -60.00     2200.00
04998             -20.00     2000.00
04999             -20.00     1800.00
05000             -40.00     1400.00
