Unit:(mV)
                     CH1         CH2
Frequency              ? 299.064 kHz
00001              20.00    -1200.00
00002              80.00    -1200.00
00003             520.00    -1800.00
00004            1040.00    -2000.00
00005             580.00    -2200.00
00006            -480.00    -2400.00
00007           -1180.00    -2600.00
00008           -1440.00    -2600.00
00009            -500.00    -2400.00
00010             720.00    -3200.00
00011             220.00    -3000.00
00012             340.00    -3200.00
00013             540.00    -3800.00
00014             -20.00    -3400.00
00015             180.00    -3800.00
00016              20.00    -4200.00
00017             -80.00    -4200.00
00018             340.00    -4400.00
00019              60.00    -4400.00
00020            -160.00    -5000.00
00021             -80.00    -4800.00
00022              60.00    -4800.00
00023             100.00    -5400.00
00024              80.00    -5200.00
00025             140.00    -5400.00
00026               0.00    -5600.00
00027              80.00    -5800.00
00028             220.00    -6000.00
00029              20.00    -6000.00
00030              80.00    -6400.00
00031             140.00    -6200.00
00032             100.00    -6200.00
00033              60.00    -6800.00
00034              20.00    -6600.00
00035             160.00    -7000.00
00036             160.00    -7000.00
00037             100.00    -7200.00
00038             100.00    -7400.00
00039             140.00    -7400.00
00040             100.00    -7600.00
00041             140.00    -7600.00
00042             120.00    -7800.00
00043              80.00    -7800.00
00044              80.00    -8000.00
00045             140.00    -8200.00
00046             160.00    -8200.00
00047             140.00    -8400.00
00048             160.00    -8400.00
00049             140.00    -8400.00
00050              80.00    -8600.00
00051             140.00    -8600.00
00052             180.00    -8800.00
00053             160.00    -9000.00
00054             140.00    -9000.00
00055             140.00    -9000.00
00056             140.00    -9000.00
00057             140.00    -9200.00
00058             180.00    -9200.00
00059             220.00    -9200.00
00060             160.00    -9400.00
00061             160.00    -9400.00
00062             160.00    -9400.00
00063             160.00    -9600.00
00064             160.00    -9600.00
00065             220.00    -9600.00
00066             180.00    -9800.00
00067             160.00    -9800.00
00068             160.00    -9600.00
00069             160.00    -9800.00
00070             160.00    -9800.00
00071             180.00    -9800.00
00072             220.00    -9800.00
00073             180.00    -9800.00
00074             180.00    -9800.00
00075             180.00    -9800.00
00076             180.00    -9800.00
00077             180.00    -9800.00
00078             180.00    -9800.00
00079             220.00    -9800.00
00080             160.00    -9800.00
00081             180.00    -9800.00
00082             220.00    -9800.00
00083             180.00    -9800.00
00084             180.00    -9800.00
00085             220.00    -9800.00
00086             220.00    -9800.00
00087             200.00    -9800.00
00088             180.00    -9600.00
00089             180.00    -9600.00
00090             180.00    -9400.00
00091             220.00    -9400.00
00092             220.00    -9400.00
00093             220.00    -9400.00
00094             160.00    -9400.00
00095             160.00    -9400.00
00096             160.00    -9400.00
00097             180.00    -9200.00
00098             220.00    -9200.00
00099             220.00    -9000.00
00100             220.00    -8800.00
00101             160.00    -9000.00
00102             160.00    -8800.00
00103             160.00    -8600.00
00104             160.00    -8800.00
00105             220.00    -8400.00
00106             220.00    -8400.00
00107             180.00    -8200.00
00108             140.00    -8400.00
00109             140.00    -8000.00
00110             160.00    -8000.00
00111             180.00    -7800.00
00112             200.00    -7800.00
00113             180.00    -7600.00
00114             160.00    -7400.00
00115             160.00    -7200.00
00116             140.00    -7000.00
00117             160.00    -7000.00
00118             160.00    -7000.00
00119             180.00    -6800.00
00120             160.00    -6600.00
00121             160.00    -6600.00
00122             160.00    -6600.00
00123             140.00    -6400.00
00124             160.00    -6200.00
00125             160.00    -6000.00
00126             160.00    -5800.00
00127             140.00    -5800.00
00128             160.00    -5600.00
00129             140.00    -5400.00
00130             140.00    -5400.00
00131             140.00    -5200.00
00132             140.00    -5000.00
00133             140.00    -4800.00
00134             140.00    -4600.00
00135             120.00    -4600.00
00136             140.00    -4200.00
00137             120.00    -4200.00
00138             140.00    -3800.00
00139             140.00    -3800.00
00140             140.00    -3600.00
00141             100.00    -3400.00
00142             120.00    -3200.00
00143             100.00    -3000.00
00144             100.00    -3000.00
00145             140.00    -2800.00
00146             100.00    -2600.00
00147              80.00    -2400.00
00148              60.00    -2200.00
00149              80.00    -2000.00
00150              80.00    -1800.00
00151             100.00    -1800.00
00152              80.00    -1400.00
00153              80.00    -1200.00
00154              60.00    -1200.00
00155              60.00     -800.00
00156              60.00     -600.00
00157              60.00     -600.00
00158              80.00     -400.00
00159              80.00     -200.00
00160              60.00        0.00
00161              60.00      200.00
00162              60.00      400.00
00163             160.00      600.00
00164             200.00      600.00
00165             180.00     1000.00
00166             100.00     1000.00
00167              60.00     1200.00
00168              60.00     1400.00
00169             180.00     1400.00
00170             920.00     1800.00
00171            1200.00     2000.00
00172             220.00     2000.00
00173           -1100.00     2000.00
00174           -1900.00     2200.00
00175           -1140.00     2800.00
00176             820.00     3000.00
00177             480.00     2800.00
00178             120.00     3400.00
00179             660.00     3000.00
00180            -100.00     3400.00
00181            -180.00     4200.00
00182               0.00     3400.00
00183            -160.00     4200.00
00184             420.00     4400.00
00185            -100.00     3800.00
00186            -300.00     5000.00
00187              60.00     4600.00
00188            -260.00     5000.00
00189              20.00     5200.00
00190              60.00     4800.00
00191               0.00     5800.00
00192             -80.00     5200.00
00193            -160.00     5800.00
00194             140.00     6000.00
00195            -140.00     5600.00
00196            -100.00     6200.00
00197               0.00     6200.00
00198            -100.00     6600.00
00199             -80.00     6600.00
00200            -160.00     6600.00
00201             -20.00     7000.00
00202             -60.00     6800.00
00203             -20.00     7000.00
00204             -80.00     7200.00
00205            -120.00     7400.00
00206            -100.00     7400.00
00207            -100.00     7600.00
00208             -60.00     7800.00
00209            -140.00     7800.00
00210            -100.00     7800.00
00211            -140.00     8000.00
00212            -100.00     8200.00
00213            -100.00     8400.00
00214             -60.00     8200.00
00215            -120.00     8400.00
00216            -180.00     8400.00
00217            -140.00     8600.00
00218            -140.00     8600.00
00219            -100.00     8600.00
00220            -100.00     8800.00
00221            -140.00     9000.00
00222            -180.00     9000.00
00223            -140.00     9200.00
00224            -100.00     9200.00
00225            -140.00     9400.00
00226            -140.00     9200.00
00227            -160.00     9400.00
00228            -180.00     9400.00
00229            -180.00     9400.00
00230            -160.00     9400.00
00231            -160.00     9400.00
00232            -160.00     9600.00
00233            -140.00     9600.00
00234            -160.00     9800.00
00235            -200.00     9800.00
00236            -220.00     9800.00
00237            -160.00     9800.00
00238            -160.00     9800.00
00239            -180.00     9800.00
00240            -180.00    10000.00
00241            -180.00     9800.00
00242            -220.00    10000.00
00243            -200.00    10000.00
00244            -180.00    10000.00
00245            -160.00     9800.00
00246            -160.00     9800.00
00247            -180.00     9800.00
00248            -220.00     9800.00
00249            -220.00     9800.00
00250            -200.00     9600.00
00251            -180.00     9800.00
00252            -180.00     9800.00
00253            -160.00     9800.00
00254            -180.00     9800.00
00255            -180.00     9600.00
00256            -180.00     9800.00
00257            -180.00     9400.00
00258            -180.00     9400.00
00259            -180.00     9400.00
00260            -180.00     9400.00
00261            -160.00     9400.00
00262            -180.00     9400.00
00263            -180.00     9200.00
00264            -180.00     9200.00
00265            -160.00     9200.00
00266            -180.00     9000.00
00267            -220.00     9000.00
00268            -200.00     8800.00
00269            -180.00     8800.00
00270            -160.00     8600.00
00271            -180.00     8600.00
00272            -160.00     8600.00
00273            -160.00     8400.00
00274            -160.00     8200.00
00275            -160.00     8200.00
00276            -160.00     8200.00
00277            -180.00     8000.00
00278            -180.00     7800.00
00279            -160.00     7800.00
00280            -160.00     7600.00
00281            -180.00     7400.00
00282            -180.00     7400.00
00283            -160.00     7200.00
00284            -140.00     7200.00
00285            -160.00     7000.00
00286            -160.00     6800.00
00287            -160.00     6800.00
00288            -160.00     6600.00
00289            -160.00     6600.00
00290            -160.00     6200.00
00291            -160.00     6200.00
00292            -160.00     6200.00
00293            -160.00     6000.00
00294            -160.00     5800.00
00295            -160.00     5600.00
00296            -140.00     5400.00
00297            -160.00     5400.00
00298            -140.00     5200.00
00299            -140.00     5200.00
00300            -120.00     4800.00
00301            -160.00     4600.00
00302            -140.00     4400.00
00303            -120.00     4400.00
00304            -140.00     4200.00
00305            -100.00     4000.00
00306            -140.00     3800.00
00307            -100.00     3800.00
00308            -100.00     3600.00
00309            -100.00     3400.00
00310            -100.00     3000.00
00311            -100.00     3000.00
00312            -100.00     2800.00
00313            -100.00     2600.00
00314            -100.00     2400.00
00315            -100.00     2200.00
00316            -100.00     2000.00
00317            -100.00     1800.00
00318             -80.00     1800.00
00319             -80.00     1600.00
00320             -80.00     1200.00
00321             -60.00     1200.00
00322             -80.00     1000.00
00323             -80.00     1000.00
00324             -60.00      600.00
00325             -60.00      400.00
00326             -20.00      400.00
00327             -20.00      200.00
00328             -60.00        0.00
00329             -20.00     -200.00
00330              60.00     -400.00
00331             140.00     -600.00
00332             140.00     -600.00
00333              60.00     -800.00
00334              20.00    -1200.00
00335               0.00    -1200.00
00336              20.00    -1400.00
00337             300.00    -1400.00
00338             940.00    -2000.00
00339             880.00    -2200.00
00340             -80.00    -2200.00
00341            -960.00    -2600.00
00342           -1420.00    -2600.00
00343           -1060.00    -2400.00
00344             460.00    -2800.00
00345             480.00    -3200.00
00346             140.00    -2800.00
00347             620.00    -3800.00
00348             140.00    -3600.00
00349              20.00    -3600.00
00350             160.00    -4200.00
00351            -140.00    -3800.00
00352             220.00    -4400.00
00353             220.00    -4400.00
00354            -160.00    -4400.00
00355            -100.00    -5000.00
00356               0.00    -4600.00
00357             100.00    -5200.00
00358              60.00    -5400.00
00359             140.00    -5400.00
00360              80.00    -5800.00
00361               0.00    -5600.00
00362             220.00    -6000.00
00363              80.00    -6000.00
00364              20.00    -6200.00
00365             100.00    -6600.00
00366             120.00    -6200.00
00367              60.00    -6800.00
00368              20.00    -6800.00
00369             100.00    -6800.00
00370             160.00    -7000.00
00371             100.00    -7200.00
00372             100.00    -7400.00
00373             120.00    -7200.00
00374             140.00    -7600.00
00375             140.00    -7600.00
00376             140.00    -7600.00
00377              80.00    -7800.00
00378              60.00    -7800.00
00379             140.00    -8200.00
00380             160.00    -8000.00
00381             140.00    -8400.00
00382             140.00    -8400.00
00383             160.00    -8400.00
00384             100.00    -8600.00
00385             100.00    -8600.00
00386             160.00    -8800.00
00387             160.00    -8800.00
00388             160.00    -9000.00
00389             140.00    -9000.00
00390             140.00    -9000.00
00391             140.00    -9200.00
00392             180.00    -9200.00
00393             220.00    -9200.00
00394             160.00    -9400.00
00395             140.00    -9400.00
00396             160.00    -9400.00
00397             140.00    -9400.00
00398             140.00    -9400.00
00399             180.00    -9400.00
00400             180.00    -9600.00
00401             160.00    -9800.00
00402             180.00    -9800.00
00403             160.00    -9600.00
00404             160.00    -9800.00
00405             180.00    -9800.00
00406             220.00    -9800.00
00407             180.00    -9800.00
00408             180.00    -9800.00
00409             160.00    -9800.00
00410             180.00    -9800.00
00411             160.00    -9800.00
00412             180.00    -9800.00
00413             220.00    -9800.00
00414             220.00    -9800.00
00415             200.00    -9800.00
00416             180.00    -9600.00
00417             180.00    -9800.00
00418             180.00    -9800.00
00419             180.00    -9800.00
00420             220.00    -9800.00
00421             220.00    -9600.00
00422             200.00    -9600.00
00423             180.00    -9400.00
00424             160.00    -9400.00
00425             180.00    -9400.00
00426             180.00    -9400.00
00427             220.00    -9400.00
00428             200.00    -9200.00
00429             180.00    -9200.00
00430             180.00    -9200.00
00431             160.00    -9200.00
00432             180.00    -9200.00
00433             220.00    -9000.00
00434             220.00    -9000.00
00435             180.00    -9000.00
00436             160.00    -8600.00
00437             180.00    -8600.00
00438             160.00    -8600.00
00439             180.00    -8600.00
00440             220.00    -8400.00
00441             180.00    -8600.00
00442             160.00    -8200.00
00443             160.00    -8200.00
00444             160.00    -8000.00
00445             160.00    -7800.00
00446             220.00    -7800.00
00447             220.00    -7600.00
00448             160.00    -7600.00
00449             140.00    -7400.00
00450             140.00    -7200.00
00451             160.00    -7200.00
00452             200.00    -7000.00
00453             180.00    -6800.00
00454             140.00    -6800.00
00455             140.00    -6600.00
00456             140.00    -6600.00
00457             160.00    -6200.00
00458             160.00    -6200.00
00459             180.00    -6200.00
00460             160.00    -5800.00
00461             140.00    -5800.00
00462             140.00    -5800.00
00463             140.00    -5600.00
00464             160.00    -5400.00
00465             140.00    -5200.00
00466             140.00    -5000.00
00467             140.00    -4800.00
00468             160.00    -4600.00
00469             140.00    -4600.00
00470             140.00    -4400.00
00471             140.00    -4400.00
00472             100.00    -4200.00
00473             100.00    -3800.00
00474             140.00    -3600.00
00475             120.00    -3400.00
00476             100.00    -3400.00
00477             100.00    -3200.00
00478             100.00    -3000.00
00479             100.00    -2800.00
00480             100.00    -2600.00
00481             100.00    -2400.00
00482              80.00    -2200.00
00483              80.00    -2200.00
00484              80.00    -1800.00
00485              80.00    -1800.00
00486              80.00    -1800.00
00487              80.00    -1400.00
00488              80.00    -1200.00
00489              60.00     -800.00
00490              60.00     -800.00
00491              80.00     -600.00
00492              60.00     -600.00
00493              60.00     -400.00
00494              60.00     -200.00
00495              60.00        0.00
00496              60.00      200.00
00497             140.00      400.00
00498             180.00      600.00
00499             180.00      800.00
00500             140.00     1000.00
00501              80.00     1000.00
00502              80.00     1200.00
00503             120.00     1400.00
00504             620.00     1800.00
00505            1260.00     2000.00
00506             700.00     2000.00
00507            -680.00     2000.00
00508           -1660.00     2000.00
00509           -1740.00     2400.00
00510             220.00     3000.00
00511             880.00     2800.00
00512              20.00     3000.00
00513             580.00     3000.00
00514             260.00     3000.00
00515            -320.00     4200.00
00516              60.00     3600.00
00517            -220.00     3600.00
00518             240.00     4600.00
00519             240.00     3800.00
00520            -400.00     4400.00
00521               0.00     5000.00
00522            -160.00     4400.00
00523            -140.00     5200.00
00524             100.00     4600.00
00525             -20.00     5400.00
00526              20.00     5600.00
00527            -180.00     5400.00
00528              80.00     6000.00
00529             -20.00     5600.00
00530            -180.00     6000.00
00531               0.00     6200.00
00532             -80.00     6200.00
00533             -80.00     6800.00
00534            -140.00     6400.00
00535             -60.00     7000.00
00536             -60.00     6800.00
00537             -80.00     7000.00
00538             -60.00     7400.00
00539            -120.00     7200.00
00540            -100.00     7600.00
00541            -100.00     7600.00
00542             -60.00     7600.00
00543            -140.00     7800.00
00544            -120.00     7800.00
00545            -140.00     8200.00
00546            -160.00     8200.00
00547            -100.00     8200.00
00548             -60.00     8200.00
00549             -80.00     8400.00
00550            -180.00     8400.00
00551            -160.00     8600.00
00552            -140.00     8600.00
00553            -120.00     8600.00
00554            -100.00     9000.00
00555            -160.00     9000.00
00556            -180.00     9000.00
00557            -160.00     9000.00
00558            -100.00     9000.00
00559            -140.00     9400.00
00560            -160.00     9200.00
00561            -160.00     9400.00
00562            -160.00     9400.00
00563            -180.00     9400.00
00564            -180.00     9400.00
00565            -160.00     9600.00
00566            -160.00     9800.00
00567            -160.00     9600.00
00568            -160.00     9800.00
00569            -180.00     9800.00
00570            -220.00     9800.00
00571            -160.00     9800.00
00572            -160.00     9800.00
00573            -160.00    10000.00
00574            -180.00     9800.00
00575            -180.00     9800.00
00576            -220.00    10000.00
00577            -220.00    10000.00
00578            -180.00     9800.00
00579            -160.00    10000.00
00580            -160.00     9800.00
00581            -180.00     9800.00
00582            -180.00     9800.00
00583            -220.00     9800.00
00584            -220.00     9800.00
00585            -180.00     9800.00
00586            -160.00     9800.00
00587            -160.00     9800.00
00588            -180.00     9800.00
00589            -220.00     9600.00
00590            -180.00     9800.00
00591            -180.00     9800.00
00592            -140.00     9600.00
00593            -140.00     9600.00
00594            -160.00     9600.00
00595            -220.00     9400.00
00596            -240.00     9400.00
00597            -260.00     9200.00
00598            -240.00     9200.00
00599            -180.00     9200.00
00600            -140.00     9000.00
00601            -100.00     9000.00
00602            -140.00     8800.00
00603            -140.00     8800.00
00604            -160.00     8600.00
00605            -180.00     8600.00
00606            -260.00     8400.00
00607            -240.00     8400.00
00608            -220.00     8400.00
00609            -180.00     8400.00
00610            -140.00     8200.00
00611            -100.00     7800.00
00612            -140.00     7800.00
00613            -140.00     7800.00
00614            -160.00     7600.00
00615            -180.00     7600.00
00616            -180.00     7400.00
00617            -220.00     7400.00
00618            -200.00     7000.00
00619            -180.00     7000.00
00620            -160.00     7000.00
00621            -140.00     6800.00
00622            -140.00     6800.00
00623            -140.00     6600.00
00624            -140.00     6600.00
00625            -160.00     6200.00
00626            -160.00     6200.00
00627            -180.00     6000.00
00628            -180.00     5800.00
00629            -180.00     5800.00
00630            -160.00     5600.00
00631            -100.00     5400.00
00632            -100.00     5200.00
00633            -100.00     5000.00
00634            -120.00     5000.00
00635            -160.00     4600.00
00636            -180.00     4600.00
00637            -160.00     4200.00
00638            -140.00     4400.00
00639            -120.00     4000.00
00640            -100.00     3800.00
00641            -100.00     3800.00
00642            -100.00     3600.00
00643            -100.00     3400.00
00644            -140.00     3400.00
00645            -100.00     3000.00
00646            -120.00     3000.00
00647            -100.00     2800.00
00648            -100.00     2400.00
00649            -100.00     2200.00
00650             -80.00     2200.00
00651             -60.00     2000.00
00652             -60.00     1800.00
00653             -60.00     1600.00
00654             -80.00     1400.00
00655             -80.00     1400.00
00656             -80.00     1000.00
00657             -80.00     1000.00
00658             -80.00      800.00
00659             -60.00      600.00
00660             -40.00      400.00
00661             -40.00      200.00
00662             -20.00        0.00
00663               0.00     -200.00
00664              60.00     -400.00
00665             100.00     -600.00
00666             100.00     -600.00
00667              80.00    -1000.00
00668              20.00    -1000.00
00669              20.00    -1200.00
00670              20.00    -1400.00
00671             160.00    -1600.00
00672             720.00    -1800.00
00673            1040.00    -2200.00
00674             320.00    -2200.00
00675            -740.00    -2600.00
00676           -1280.00    -2600.00
00677           -1380.00    -2600.00
00678             -80.00    -2600.00
00679             720.00    -3200.00
00680             140.00    -3000.00
00681             480.00    -3400.00
00682             400.00    -3600.00
00683             -80.00    -3400.00
00684             220.00    -4000.00
00685             -80.00    -4200.00
00686              20.00    -4200.00
00687             320.00    -4600.00
00688             -80.00    -4400.00
00689            -140.00    -5000.00
00690             -20.00    -4600.00
00691             100.00    -5000.00
00692              80.00    -5400.00
00693              60.00    -5200.00
00694              80.00    -5600.00
00695             -60.00    -5600.00
00696             160.00    -6000.00
00697             200.00    -6200.00
00698              20.00    -6000.00
00699             100.00    -6600.00
00700             100.00    -6400.00
00701              80.00    -6600.00
00702              40.00    -6800.00
00703              60.00    -6600.00
00704             160.00    -7000.00
00705             140.00    -7000.00
00706             100.00    -7400.00
00707             100.00    -7400.00
00708             100.00    -7400.00
00709             120.00    -7600.00
00710             140.00    -7600.00
00711             120.00    -7800.00
00712              60.00    -8000.00
00713             100.00    -8200.00
00714             160.00    -8000.00
00715             140.00    -8200.00
00716             140.00    -8400.00
00717             160.00    -8400.00
00718             140.00    -8600.00
00719             140.00    -8600.00
00720             160.00    -8600.00
00721             160.00    -8600.00
00722             140.00    -8800.00
00723             140.00    -9000.00
00724             140.00    -9000.00
00725             140.00    -9200.00
00726             160.00    -9200.00
00727             180.00    -9200.00
00728             180.00    -9200.00
00729             140.00    -9400.00
00730             140.00    -9400.00
00731             160.00    -9400.00
00732             160.00    -9400.00
00733             180.00    -9400.00
00734             200.00    -9400.00
00735             180.00    -9800.00
00736             160.00    -9600.00
00737             160.00    -9800.00
00738             160.00    -9800.00
00739             160.00    -9600.00
00740             220.00    -9800.00
00741             220.00    -9800.00
00742             160.00    -9800.00
00743             180.00    -9800.00
00744             180.00    -9800.00
00745             160.00    -9800.00
00746             180.00    -9800.00
00747             200.00    -9800.00
00748             180.00    -9800.00
00749             160.00    -9800.00
00750             180.00    -9800.00
00751             180.00    -9800.00
00752             180.00    -9800.00
00753             220.00    -9800.00
00754             220.00    -9800.00
00755             180.00    -9800.00
00756             160.00    -9600.00
00757             180.00    -9800.00
00758             160.00    -9400.00
00759             180.00    -9400.00
00760             180.00    -9400.00
00761             140.00    -9400.00
00762             180.00    -9400.00
00763             220.00    -9200.00
00764             240.00    -9400.00
00765             220.00    -9200.00
00766             160.00    -9200.00
00767             160.00    -9000.00
00768             160.00    -9000.00
00769             160.00    -9000.00
00770             180.00    -8800.00
00771             180.00    -8800.00
00772             180.00    -8600.00
00773             180.00    -8600.00
00774             220.00    -8400.00
00775             180.00    -8600.00
00776             160.00    -8200.00
00777             140.00    -8200.00
00778             160.00    -8000.00
00779             180.00    -7800.00
00780             220.00    -7800.00
00781             180.00    -7600.00
00782             160.00    -7600.00
00783             160.00    -7400.00
00784             160.00    -7200.00
00785             160.00    -7200.00
00786             160.00    -7000.00
00787             180.00    -7000.00
00788             180.00    -6800.00
00789             160.00    -6600.00
00790             160.00    -6600.00
00791             160.00    -6200.00
00792             140.00    -6200.00
00793             160.00    -6000.00
00794             160.00    -6000.00
00795             160.00    -5800.00
00796             140.00    -5800.00
00797             140.00    -5400.00
00798             160.00    -5600.00
00799             140.00    -5200.00
00800             160.00    -5000.00
00801             160.00    -5000.00
00802             140.00    -5000.00
00803             100.00    -4600.00
00804             100.00    -4400.00
00805             140.00    -4400.00
00806             160.00    -4200.00
00807             140.00    -3800.00
00808             140.00    -3600.00
00809             100.00    -3600.00
00810              80.00    -3400.00
00811              80.00    -3200.00
00812             100.00    -3000.00
00813             100.00    -2800.00
00814             100.00    -2600.00
00815             100.00    -2600.00
00816              60.00    -2400.00
00817              80.00    -2200.00
00818              80.00    -2000.00
00819              80.00    -1800.00
00820             100.00    -1400.00
00821              80.00    -1400.00
00822              60.00    -1200.00
00823              60.00    -1200.00
00824              60.00     -800.00
00825              60.00     -600.00
00826              60.00     -600.00
00827              60.00     -400.00
00828              60.00     -200.00
00829              60.00        0.00
00830              60.00      200.00
00831              80.00      400.00
00832             160.00      400.00
00833             180.00      600.00
00834             160.00      800.00
00835             120.00     1000.00
00836              80.00     1200.00
00837              60.00     1400.00
00838             320.00     1600.00
00839            1100.00     2000.00
00840            1040.00     2000.00
00841            -140.00     2000.00
00842           -1380.00     2200.00
00843           -1940.00     2200.00
00844            -620.00     3000.00
00845            1020.00     3000.00
00846             220.00     2800.00
00847             320.00     3400.00
00848             580.00     3000.00
00849            -260.00     3800.00
00850             -60.00     3800.00
00851            -100.00     3400.00
00852             -20.00     4400.00
00853             460.00     4200.00
00854            -300.00     4000.00
00855            -160.00     5200.00
00856               0.00     4600.00
00857            -240.00     5000.00
00858             100.00     5000.00
00859               0.00     5200.00
00860              20.00     5800.00
00861            -140.00     5200.00
00862             -80.00     5800.00
00863             100.00     6000.00
00864            -180.00     5800.00
00865               0.00     6200.00
00866             -20.00     6200.00
00867             -80.00     6600.00
00868            -100.00     6400.00
00869            -140.00     6600.00
00870             -20.00     7000.00
00871             -80.00     6800.00
00872             -20.00     7400.00
00873            -100.00     7200.00
00874            -100.00     7400.00
00875            -140.00     7400.00
00876             -80.00     7600.00
00877            -100.00     7800.00
00878            -140.00     7600.00
00879            -100.00     7800.00
00880            -160.00     7800.00
00881            -100.00     8200.00
00882            -100.00     8200.00
00883            -100.00     8400.00
00884            -160.00     8400.00
00885            -160.00     8400.00
00886            -140.00     8600.00
00887            -140.00     8600.00
00888            -100.00     8800.00
00889            -160.00     9000.00
00890            -160.00     9000.00
00891            -200.00     9000.00
00892            -140.00     9200.00
00893            -120.00     9200.00
00894            -160.00     9200.00
00895            -160.00     9200.00
00896            -180.00     9400.00
00897            -160.00     9400.00
00898            -220.00     9400.00
00899            -160.00     9400.00
00900            -160.00     9400.00
00901            -160.00     9600.00
00902            -140.00     9800.00
00903            -180.00     9800.00
00904            -220.00     9800.00
00905            -180.00     9600.00
00906            -160.00     9800.00
00907            -160.00     9800.00
00908            -180.00     9800.00
00909            -180.00     9800.00
00910            -160.00     9800.00
00911            -180.00    10000.00
00912            -160.00     9800.00
00913            -180.00    10000.00
00914            -180.00     9800.00
00915            -160.00     9800.00
00916            -180.00    10000.00
00917            -180.00     9800.00
00918            -220.00     9800.00
00919            -180.00     9800.00
00920            -160.00     9800.00
00921            -160.00     9800.00
00922            -160.00     9600.00
00923            -160.00     9800.00
00924            -180.00     9800.00
00925            -180.00     9800.00
00926            -180.00     9400.00
00927            -180.00     9400.00
00928            -160.00     9400.00
00929            -160.00     9400.00
00930            -180.00     9400.00
00931            -200.00     9200.00
00932            -180.00     9200.00
00933            -160.00     9200.00
00934            -160.00     9200.00
00935            -160.00     9000.00
00936            -180.00     9000.00
00937            -180.00     8800.00
00938            -180.00     8600.00
00939            -160.00     8600.00
00940            -160.00     8600.00
00941            -160.00     8400.00
00942            -180.00     8400.00
00943            -180.00     8200.00
00944            -180.00     8200.00
00945            -180.00     8200.00
00946            -180.00     8000.00
00947            -160.00     7800.00
00948            -160.00     7600.00
00949            -160.00     7600.00
00950            -180.00     7400.00
00951            -180.00     7200.00
00952            -160.00     7200.00
00953            -160.00     7000.00
00954            -160.00     7000.00
00955            -160.00     6800.00
00956            -160.00     6800.00
00957            -160.00     6600.00
00958            -140.00     6600.00
00959            -160.00     6200.00
00960            -160.00     6200.00
00961            -140.00     6000.00
00962            -160.00     5800.00
00963            -160.00     5800.00
00964            -160.00     5600.00
00965            -160.00     5400.00
00966            -140.00     5400.00
00967            -120.00     5200.00
00968            -140.00     5200.00
00969            -140.00     4600.00
00970            -160.00     4600.00
00971            -140.00     4400.00
00972            -120.00     4400.00
00973            -100.00     4200.00
00974            -100.00     3800.00
00975            -140.00     3800.00
00976            -120.00     3600.00
00977            -100.00     3400.00
00978            -100.00     3400.00
00979            -100.00     3200.00
00980            -100.00     3000.00
00981            -100.00     2800.00
00982            -100.00     2400.00
00983            -100.00     2400.00
00984            -100.00     2200.00
00985             -80.00     2000.00
00986             -80.00     2000.00
00987             -60.00     1800.00
00988             -60.00     1400.00
00989             -80.00     1400.00
00990             -60.00     1000.00
00991             -80.00     1000.00
00992             -80.00     1000.00
00993             -60.00      600.00
00994             -60.00      600.00
00995             -60.00      400.00
00996             -20.00      200.00
00997             -20.00     -200.00
00998               0.00     -200.00
00999             100.00     -400.00
01000             120.00     -600.00
01001             100.00     -600.00
01002              60.00    -1000.00
01003              20.00    -1200.00
01004               0.00    -1200.00
01005              80.00    -1400.00
01006             460.00    -1600.00
01007            1020.00    -2000.00
01008             700.00    -2200.00
01009            -400.00    -2400.00
01010           -1120.00    -2600.00
01011           -1460.00    -2600.00
01012            -700.00    -2200.00
01013             660.00    -3000.00
01014             300.00    -3000.00
01015             240.00    -3000.00
01016             580.00    -3800.00
01017             -20.00    -3400.00
01018             140.00    -3600.00
01019              60.00    -4200.00
01020            -100.00    -3800.00
01021             320.00    -4400.00
01022              80.00    -4400.00
01023            -180.00    -4600.00
01024             -80.00    -4600.00
01025              20.00    -4600.00
01026             120.00    -5400.00
01027              60.00    -5200.00
01028             140.00    -5400.00
01029              20.00    -5600.00
01030              60.00    -5800.00
01031             220.00    -6000.00
01032              20.00    -6000.00
01033              60.00    -6400.00
01034             100.00    -6400.00
01035             100.00    -6200.00
01036              60.00    -6600.00
01037              20.00    -6800.00
01038             140.00    -7000.00
01039             160.00    -7000.00
01040             100.00    -7200.00
01041             100.00    -7600.00
01042             140.00    -7400.00
01043             100.00    -7400.00
01044             120.00    -7800.00
01045             140.00    -7600.00
01046              60.00    -7800.00
01047              80.00    -7800.00
01048             160.00    -8000.00
01049             140.00    -8200.00
01050             140.00    -8400.00
01051             160.00    -8400.00
01052             160.00    -8400.00
01053             100.00    -8600.00
01054             140.00    -8600.00
01055             160.00    -8600.00
01056             160.00    -9000.00
01057             140.00    -9000.00
01058             140.00    -9000.00
01059             140.00    -9000.00
01060             140.00    -9200.00
01061             200.00    -9200.00
01062             220.00    -9400.00
01063             180.00    -9200.00
01064             160.00    -9400.00
01065             140.00    -9400.00
01066             140.00    -9400.00
01067             160.00    -9400.00
01068             180.00    -9400.00
01069             200.00    -9400.00
01070             180.00    -9600.00
01071             160.00    -9600.00
01072             160.00    -9800.00
01073             160.00    -9600.00
01074             180.00    -9800.00
01075             200.00    -9800.00
01076             180.00    -9800.00
01077             180.00    -9800.00
01078             160.00    -9800.00
01079             160.00    -9800.00
01080             160.00    -9800.00
01081             180.00    -9800.00
01082             220.00    -9800.00
01083             180.00    -9800.00
01084             180.00    -9800.00
01085             180.00    -9600.00
01086             160.00    -9800.00
01087             180.00    -9800.00
01088             180.00    -9800.00
01089             180.00    -9800.00
01090             180.00    -9600.00
01091             220.00    -9800.00
01092             200.00    -9600.00
01093             180.00    -9400.00
01094             180.00    -9400.00
01095             180.00    -9400.00
01096             180.00    -9400.00
01097             180.00    -9200.00
01098             180.00    -9200.00
01099             180.00    -9200.00
01100             160.00    -9200.00
01101             180.00    -9000.00
01102             220.00    -9000.00
01103             220.00    -9000.00
01104             180.00    -8800.00
01105             160.00    -8600.00
01106             180.00    -8600.00
01107             180.00    -8600.00
01108             160.00    -8600.00
01109             220.00    -8200.00
01110             180.00    -8200.00
01111             160.00    -8200.00
01112             160.00    -8000.00
01113             160.00    -7800.00
01114             180.00    -7800.00
01115             180.00    -7800.00
01116             180.00    -7600.00
01117             180.00    -7600.00
01118             160.00    -7200.00
01119             180.00    -7000.00
01120             160.00    -7000.00
01121             160.00    -7000.00
01122             180.00    -6800.00
01123             160.00    -6800.00
01124             160.00    -6600.00
01125             160.00    -6400.00
01126             160.00    -6400.00
01127             160.00    -6200.00
01128             160.00    -6000.00
01129             160.00    -6000.00
01130             160.00    -5800.00
01131             140.00    -5600.00
01132             140.00    -5400.00
01133             140.00    -5200.00
01134             160.00    -5200.00
01135             160.00    -5000.00
01136             140.00    -4800.00
01137             120.00    -4600.00
01138             120.00    -4400.00
01139             100.00    -4400.00
01140             120.00    -4200.00
01141             100.00    -4000.00
01142             140.00    -3800.00
01143             100.00    -3600.00
01144             100.00    -3600.00
01145             100.00    -3400.00
01146              80.00    -3000.00
01147              80.00    -2800.00
01148             100.00    -2800.00
01149             100.00    -2600.00
01150             100.00    -2600.00
01151              80.00    -2200.00
01152              80.00    -2000.00
01153              80.00    -2000.00
01154             100.00    -1800.00
01155              80.00    -1400.00
01156              80.00    -1400.00
01157              60.00    -1200.00
01158              60.00     -800.00
01159              60.00     -600.00
01160              60.00     -600.00
01161              60.00     -400.00
01162              60.00     -200.00
01163              60.00      200.00
01164              40.00      200.00
01165              60.00      200.00
01166             140.00      600.00
01167             180.00      600.00
01168             180.00      800.00
01169             140.00     1000.00
01170             100.00     1200.00
01171              80.00     1400.00
01172             180.00     1400.00
01173             800.00     1800.00
01174            1260.00     2000.00
01175             380.00     2200.00
01176            -980.00     2200.00
01177           -1840.00     2000.00
01178           -1360.00     2600.00
01179             660.00     3000.00
01180             640.00     2800.00
01181              60.00     3200.00
01182             680.00     3200.00
01183              20.00     3400.00
01184            -240.00     4200.00
01185              20.00     3400.00
01186            -180.00     4200.00
01187             400.00     4600.00
01188               0.00     3800.00
01189            -340.00     4800.00
01190              60.00     4600.00
01191            -260.00     4800.00
01192             -20.00     5200.00
01193              80.00     5000.00
01194               0.00     5800.00
01195             -20.00     5400.00
01196            -180.00     5600.00
01197             140.00     6200.00
01198            -100.00     5600.00
01199            -120.00     6200.00
01200               0.00     6200.00
01201            -100.00     6600.00
01202             -80.00     6600.00
01203            -140.00     6600.00
01204             -40.00     7000.00
01205             -60.00     6800.00
01206             -20.00     7000.00
01207             -80.00     7200.00
01208            -100.00     7400.00
01209            -140.00     7400.00
01210            -100.00     7600.00
01211             -80.00     7600.00
01212            -160.00     7800.00
01213            -100.00     7800.00
01214            -140.00     7800.00
01215            -140.00     8200.00
01216            -100.00     8400.00
01217            -100.00     8200.00
01218            -100.00     8400.00
01219            -180.00     8400.00
01220            -120.00     8600.00
01221            -140.00     8600.00
01222            -120.00     8600.00
01223            -140.00     8800.00
01224            -160.00     9000.00
01225            -180.00     9000.00
01226            -160.00     9000.00
01227            -100.00     9200.00
01228            -140.00     9400.00
01229            -160.00     9200.00
01230            -160.00     9400.00
01231            -180.00     9400.00
01232            -180.00     9400.00
01233            -180.00     9600.00
01234            -160.00     9600.00
01235            -160.00     9800.00
01236            -140.00     9800.00
01237            -160.00     9800.00
01238            -180.00     9800.00
01239            -180.00     9800.00
01240            -160.00     9800.00
01241            -140.00     9800.00
01242            -180.00    10000.00
01243            -180.00     9800.00
01244            -180.00    10000.00
01245            -220.00    10000.00
01246            -180.00     9800.00
01247            -180.00    10000.00
01248            -180.00    10000.00
01249            -160.00     9800.00
01250            -160.00     9800.00
01251            -160.00     9800.00
01252            -220.00     9800.00
01253            -220.00     9800.00
01254            -160.00     9800.00
01255            -160.00     9800.00
01256            -180.00     9800.00
01257            -160.00     9800.00
01258            -180.00     9800.00
01259            -180.00     9600.00
01260            -160.00     9600.00
01261            -180.00     9600.00
01262            -160.00     9600.00
01263            -180.00     9400.00
01264            -180.00     9400.00
01265            -220.00     9200.00
01266            -220.00     9400.00
01267            -180.00     9400.00
01268            -160.00     9200.00
01269            -160.00     9000.00
01270            -160.00     9000.00
01271            -220.00     8600.00
01272            -180.00     8800.00
01273            -180.00     8600.00
01274            -180.00     8600.00
01275            -180.00     8400.00
01276            -180.00     8400.00
01277            -180.00     8200.00
01278            -180.00     8200.00
01279            -180.00     8200.00
01280            -180.00     8000.00
01281            -160.00     7800.00
01282            -160.00     7600.00
01283            -160.00     7600.00
01284            -180.00     7600.00
01285            -180.00     7400.00
01286            -180.00     7200.00
01287            -160.00     7200.00
01288            -160.00     7000.00
01289            -160.00     6800.00
01290            -160.00     6800.00
01291            -160.00     6600.00
01292            -180.00     6600.00
01293            -160.00     6200.00
01294            -140.00     6200.00
01295            -160.00     6000.00
01296            -160.00     6000.00
01297            -160.00     5800.00
01298            -160.00     5600.00
01299            -160.00     5400.00
01300            -140.00     5400.00
01301            -100.00     5200.00
01302            -120.00     5000.00
01303            -140.00     5000.00
01304            -160.00     4600.00
01305            -140.00     4400.00
01306            -140.00     4400.00
01307            -100.00     4200.00
01308            -100.00     3800.00
01309            -100.00     3800.00
01310            -100.00     3600.00
01311            -100.00     3600.00
01312            -100.00     3400.00
01313            -100.00     3400.00
01314            -100.00     3000.00
01315            -100.00     2800.00
01316            -100.00     2600.00
01317            -100.00     2400.00
01318            -100.00     2200.00
01319            -100.00     2200.00
01320             -80.00     2000.00
01321             -60.00     1800.00
01322             -80.00     1800.00
01323             -80.00     1400.00
01324             -80.00     1200.00
01325             -80.00     1200.00
01326             -60.00      800.00
01327             -80.00      600.00
01328             -60.00      600.00
01329             -20.00      200.00
01330             -20.00      200.00
01331             -20.00        0.00
01332             -20.00     -200.00
01333              60.00     -400.00
01334             140.00     -600.00
01335             100.00     -800.00
01336              60.00     -800.00
01337              20.00    -1000.00
01338               0.00    -1200.00
01339              20.00    -1400.00
01340             240.00    -1600.00
01341             860.00    -1800.00
01342             940.00    -2200.00
01343              20.00    -2200.00
01344            -900.00    -2600.00
01345           -1380.00    -2600.00
01346           -1200.00    -2400.00
01347             320.00    -2800.00
01348             560.00    -3200.00
01349             120.00    -3000.00
01350             580.00    -3400.00
01351             220.00    -3400.00
01352             -20.00    -3400.00
01353             220.00    -4200.00
01354            -140.00    -4000.00
01355             160.00    -4400.00
01356             280.00    -4400.00
01357            -160.00    -4600.00
01358            -140.00    -5000.00
01359             -20.00    -4600.00
01360             100.00    -5000.00
01361              60.00    -5200.00
01362             120.00    -5400.00
01363              80.00    -5800.00
01364             -20.00    -5400.00
01365             200.00    -6000.00
01366             140.00    -6000.00
01367              20.00    -6200.00
01368             100.00    -6600.00
01369             140.00    -6200.00
01370             100.00    -6600.00
01371               0.00    -6800.00
01372              80.00    -6800.00
01373             160.00    -7000.00
01374             120.00    -7000.00
01375             100.00    -7200.00
01376             140.00    -7200.00
01377             120.00    -7600.00
01378             140.00    -7600.00
01379             140.00    -7600.00
01380             100.00    -7800.00
01381              80.00    -7800.00
01382             120.00    -8000.00
01383             160.00    -8200.00
01384             140.00    -8200.00
01385             140.00    -8400.00
01386             160.00    -8600.00
01387             100.00    -8600.00
01388             140.00    -8600.00
01389             160.00    -8800.00
01390             180.00    -8600.00
01391             140.00    -9000.00
01392             140.00    -9000.00
01393             140.00    -9000.00
01394             140.00    -9000.00
01395             160.00    -9200.00
01396             220.00    -9200.00
01397             160.00    -9400.00
01398             160.00    -9400.00
01399             160.00    -9400.00
01400             140.00    -9400.00
01401             160.00    -9400.00
01402             180.00    -9400.00
01403             200.00    -9600.00
01404             180.00    -9800.00
01405             160.00    -9800.00
01406             160.00    -9800.00
01407             160.00    -9800.00
01408             160.00    -9800.00
01409             180.00    -9800.00
01410             180.00    -9800.00
01411             180.00    -9800.00
01412             160.00    -9800.00
01413             160.00    -9800.00
01414             160.00    -9800.00
01415             160.00    -9800.00
01416             200.00    -9800.00
01417             220.00    -9800.00
01418             200.00    -9800.00
01419             180.00    -9800.00
01420             180.00    -9800.00
01421             160.00    -9800.00
01422             180.00    -9800.00
01423             220.00    -9600.00
01424             180.00    -9600.00
01425             180.00    -9600.00
01426             180.00    -9400.00
01427             180.00    -9400.00
01428             180.00    -9400.00
01429             220.00    -9400.00
01430             220.00    -9200.00
01431             220.00    -9400.00
01432             180.00    -9400.00
01433             180.00    -9200.00
01434             160.00    -9200.00
01435             180.00    -9200.00
01436             220.00    -9000.00
01437             220.00    -9000.00
01438             200.00    -9000.00
01439             160.00    -8600.00
01440             160.00    -8600.00
01441             180.00    -8600.00
01442             200.00    -8400.00
01443             200.00    -8400.00
01444             160.00    -8200.00
01445             160.00    -8200.00
01446             160.00    -8200.00
01447             180.00    -8200.00
01448             180.00    -7800.00
01449             180.00    -7800.00
01450             160.00    -7600.00
01451             180.00    -7600.00
01452             160.00    -7400.00
01453             180.00    -7200.00
01454             160.00    -7000.00
01455             160.00    -7000.00
01456             160.00    -7000.00
01457             160.00    -6800.00
01458             180.00    -6600.00
01459             160.00    -6600.00
01460             160.00    -6400.00
01461             160.00    -6200.00
01462             160.00    -6200.00
01463             140.00    -6000.00
01464             160.00    -5800.00
01465             140.00    -5800.00
01466             140.00    -5400.00
01467             140.00    -5400.00
01468             140.00    -5000.00
01469             140.00    -5200.00
01470             160.00    -4600.00
01471             140.00    -4600.00
01472             100.00    -4600.00
01473             100.00    -4600.00
01474             120.00    -4200.00
01475             120.00    -4200.00
01476             140.00    -3800.00
01477             140.00    -3600.00
01478             100.00    -3600.00
01479              80.00    -3400.00
01480              80.00    -3200.00
01481             100.00    -3000.00
01482             100.00    -2800.00
01483             100.00    -2800.00
01484             100.00    -2600.00
01485              60.00    -2200.00
01486              60.00    -2000.00
01487              80.00    -2000.00
01488              80.00    -1800.00
01489             100.00    -1600.00
01490              80.00    -1400.00
01491              60.00    -1200.00
01492              40.00    -1000.00
01493              40.00     -800.00
01494              60.00     -600.00
01495              80.00     -400.00
01496              80.00     -400.00
01497              80.00     -200.00
01498              60.00      200.00
01499              40.00      200.00
01500              80.00      400.00
01501             160.00      600.00
01502             220.00      800.00
01503             180.00     1000.00
01504             120.00     1000.00
01505              60.00     1000.00
01506              80.00     1400.00
01507             480.00     1800.00
01508            1260.00     2000.00
01509             840.00     2200.00
01510            -500.00     2200.00
01511           -1580.00     2200.00
01512           -1820.00     2600.00
01513             -20.00     3000.00
01514             960.00     2800.00
01515              60.00     2800.00
01516             540.00     3400.00
01517             420.00     3200.00
01518            -320.00     4000.00
01519              20.00     3800.00
01520            -220.00     3600.00
01521             140.00     4600.00
01522             320.00     4000.00
01523            -360.00     4400.00
01524               0.00     5200.00
01525            -100.00     4600.00
01526            -180.00     5200.00
01527              80.00     5000.00
01528             -20.00     5400.00
01529              20.00     5600.00
01530            -180.00     5400.00
01531              20.00     6000.00
01532              20.00     5600.00
01533            -220.00     6000.00
01534              20.00     6400.00
01535             -80.00     6200.00
01536            -100.00     6600.00
01537            -140.00     6600.00
01538            -100.00     6800.00
01539             -20.00     7000.00
01540             -60.00     6800.00
01541             -40.00     7400.00
01542            -160.00     7000.00
01543            -100.00     7400.00
01544            -140.00     7400.00
01545             -60.00     7600.00
01546            -100.00     7600.00
01547            -100.00     7800.00
01548            -140.00     8200.00
01549            -160.00     8000.00
01550            -100.00     8200.00
01551            -100.00     8200.00
01552             -80.00     8400.00
01553            -160.00     8400.00
01554            -160.00     8600.00
01555            -140.00     8600.00
01556            -160.00     8800.00
01557            -140.00     8600.00
01558            -140.00     9000.00
01559            -160.00     9000.00
01560            -160.00     9000.00
01561            -100.00     9200.00
01562            -100.00     9200.00
01563            -160.00     9200.00
01564            -160.00     9400.00
01565            -160.00     9400.00
01566            -180.00     9400.00
01567            -180.00     9400.00
01568            -140.00     9600.00
01569            -160.00     9800.00
01570            -160.00     9800.00
01571            -160.00     9800.00
01572            -180.00     9800.00
01573            -180.00     9800.00
01574            -160.00     9800.00
01575            -140.00     9800.00
01576            -180.00     9800.00
01577            -180.00     9800.00
01578            -160.00     9800.00
01579            -180.00     9800.00
01580            -200.00    10000.00
01581            -160.00     9800.00
01582            -180.00    10000.00
01583            -180.00     9800.00
01584            -160.00     9800.00
01585            -160.00    10000.00
01586            -220.00     9800.00
01587            -220.00     9800.00
01588            -180.00     9800.00
01589            -160.00     9800.00
01590            -160.00     9800.00
01591            -180.00     9800.00
01592            -180.00     9800.00
01593            -180.00     9600.00
01594            -180.00     9600.00
01595            -160.00     9800.00
01596            -180.00     9400.00
01597            -180.00     9400.00
01598            -180.00     9400.00
01599            -200.00     9200.00
01600            -240.00     9200.00
01601            -220.00     9200.00
01602            -180.00     9200.00
01603            -180.00     9000.00
01604            -160.00     9000.00
01605            -160.00     9000.00
01606            -180.00     8600.00
01607            -180.00     8800.00
01608            -180.00     8600.00
01609            -180.00     8600.00
01610            -180.00     8400.00
01611            -160.00     8400.00
01612            -180.00     8200.00
01613            -180.00     8200.00
01614            -180.00     8000.00
01615            -160.00     8000.00
01616            -180.00     7800.00
01617            -180.00     7600.00
01618            -180.00     7400.00
01619            -180.00     7400.00
01620            -180.00     7400.00
01621            -180.00     7200.00
01622            -160.00     7000.00
01623            -160.00     6800.00
01624            -160.00     6800.00
01625            -160.00     6800.00
01626            -160.00     6600.00
01627            -160.00     6400.00
01628            -160.00     6400.00
01629            -160.00     6200.00
01630            -160.00     6000.00
01631            -140.00     5800.00
01632            -160.00     5800.00
01633            -160.00     5400.00
01634            -140.00     5600.00
01635            -140.00     5200.00
01636            -140.00     5200.00
01637            -140.00     5000.00
01638            -140.00     4600.00
01639            -140.00     4600.00
01640            -120.00     4400.00
01641            -140.00     4400.00
01642            -140.00     4200.00
01643            -100.00     4000.00
01644            -100.00     3800.00
01645            -100.00     3800.00
01646            -100.00     3400.00
01647            -100.00     3400.00
01648            -100.00     3000.00
01649            -100.00     3000.00
01650            -100.00     2800.00
01651            -100.00     2600.00
01652            -100.00     2200.00
01653            -100.00     2200.00
01654             -80.00     2000.00
01655             -80.00     1800.00
01656             -60.00     1800.00
01657             -60.00     1400.00
01658             -60.00     1200.00
01659             -80.00     1200.00
01660             -80.00     1000.00
01661             -80.00      800.00
01662             -60.00      400.00
01663             -20.00      400.00
01664             -60.00      200.00
01665             -60.00        0.00
01666             -20.00     -400.00
01667              20.00     -400.00
01668             120.00     -600.00
01669             100.00     -600.00
01670              80.00    -1000.00
01671              60.00    -1000.00
01672               0.00    -1200.00
01673               0.00    -1400.00
01674             140.00    -1800.00
01675             620.00    -1800.00
01676            1040.00    -2000.00
01677             420.00    -2400.00
01678            -640.00    -2600.00
01679           -1220.00    -2600.00
01680           -1420.00    -2600.00
01681            -260.00    -2600.00
01682             740.00    -3200.00
01683             160.00    -3000.00
01684             420.00    -3400.00
01685             480.00    -3800.00
01686            -100.00    -3400.00
01687             220.00    -3800.00
01688             -20.00    -4200.00
01689               0.00    -4200.00
01690             360.00    -4600.00
01691             -20.00    -4400.00
01692            -160.00    -5000.00
01693             -80.00    -5000.00
01694              80.00    -5000.00
01695             100.00    -5400.00
01696              80.00    -5200.00
01697             140.00    -5600.00
01698             -20.00    -5600.00
01699             140.00    -5800.00
01700             180.00    -6000.00
01701              20.00    -6000.00
01702             100.00    -6400.00
01703             100.00    -6200.00
01704             120.00    -6400.00
01705              20.00    -6800.00
01706              60.00    -6800.00
01707             160.00    -7000.00
01708             140.00    -7000.00
01709             100.00    -7200.00
01710             100.00    -7400.00
01711             140.00    -7200.00
01712             140.00    -7600.00
01713             140.00    -7800.00
01714             120.00    -7800.00
01715              80.00    -8000.00
01716             100.00    -7800.00
01717             160.00    -8200.00
01718             140.00    -8200.00
01719             140.00    -8200.00
01720             160.00    -8400.00
01721             140.00    -8600.00
01722             100.00    -8600.00
01723             160.00    -8600.00
01724             160.00    -8600.00
01725             160.00    -9000.00
01726             140.00    -9000.00
01727             160.00    -9000.00
01728             140.00    -9000.00
01729             140.00    -9200.00
01730             200.00    -9400.00
01731             180.00    -9200.00
01732             160.00    -9400.00
01733             160.00    -9400.00
01734             140.00    -9400.00
01735             140.00    -9600.00
01736             180.00    -9600.00
01737             200.00    -9600.00
01738             180.00    -9800.00
01739             160.00    -9800.00
01740             180.00    -9800.00
01741             160.00    -9800.00
01742             160.00    -9800.00
01743             180.00    -9800.00
01744             220.00    -9800.00
01745             180.00    -9800.00
01746             160.00    -9800.00
01747             160.00    -9800.00
01748             160.00    -9800.00
01749             160.00    -9800.00
01750             180.00    -9800.00
01751             220.00    -9800.00
01752             180.00    -9800.00
01753             180.00    -9800.00
01754             160.00    -9800.00
01755             160.00    -9800.00
01756             180.00    -9800.00
01757             220.00    -9800.00
01758             220.00    -9800.00
01759             180.00    -9800.00
01760             180.00    -9600.00
01761             180.00    -9400.00
01762             160.00    -9400.00
01763             220.00    -9400.00
01764             200.00    -9400.00
01765             200.00    -9400.00
01766             180.00    -9400.00
01767             180.00    -9200.00
01768             180.00    -9200.00
01769             200.00    -9200.00
01770             200.00    -9200.00
01771             200.00    -9000.00
01772             180.00    -9000.00
01773             180.00    -8800.00
01774             160.00    -8600.00
01775             180.00    -8600.00
01776             180.00    -8600.00
01777             180.00    -8400.00
01778             220.00    -8400.00
01779             180.00    -8200.00
01780             160.00    -8200.00
01781             160.00    -8000.00
01782             160.00    -7800.00
01783             180.00    -7800.00
01784             180.00    -7600.00
01785             180.00    -7200.00
01786             160.00    -7400.00
01787             160.00    -7200.00
01788             160.00    -7000.00
01789             160.00    -7000.00
01790             160.00    -7000.00
01791             180.00    -6800.00
01792             160.00    -6800.00
01793             140.00    -6600.00
01794             140.00    -6400.00
01795             140.00    -6200.00
01796             140.00    -6200.00
01797             160.00    -6000.00
01798             160.00    -5800.00
01799             140.00    -5800.00
01800             140.00    -5400.00
01801             140.00    -5400.00
01802             140.00    -5200.00
01803             140.00    -5200.00
01804             140.00    -5000.00
01805             140.00    -4800.00
01806             140.00    -4600.00
01807             100.00    -4600.00
01808             100.00    -4400.00
01809             140.00    -4200.00
01810             100.00    -4200.00
01811             120.00    -3800.00
01812             120.00    -3600.00
01813             100.00    -3400.00
01814             100.00    -3400.00
01815             100.00    -3200.00
01816             100.00    -3000.00
01817             100.00    -2800.00
01818             100.00    -2600.00
01819              80.00    -2400.00
01820              80.00    -2200.00
01821              80.00    -2000.00
01822              80.00    -1800.00
01823              80.00    -1800.00
01824              80.00    -1400.00
01825              80.00    -1400.00
01826              80.00    -1000.00
01827              60.00     -800.00
01828              60.00     -600.00
01829              60.00     -600.00
01830              60.00     -200.00
01831              80.00     -200.00
01832              60.00        0.00
01833              60.00      200.00
01834              80.00      400.00
01835             160.00      600.00
01836             200.00      600.00
01837             180.00      800.00
01838             140.00     1000.00
01839              80.00     1200.00
01840              80.00     1400.00
01841             260.00     1600.00
01842            1020.00     1800.00
01843            1140.00     2000.00
01844              20.00     2200.00
01845           -1220.00     2200.00
01846           -1940.00     2200.00
01847            -880.00     3000.00
01848             960.00     3000.00
01849             340.00     2600.00
01850             220.00     3200.00
01851             640.00     3000.00
01852            -220.00     3600.00
01853            -100.00     4200.00
01854             -60.00     3400.00
01855            -100.00     4400.00
01856             460.00     4000.00
01857            -220.00     3800.00
01858            -220.00     5000.00
01859              20.00     4400.00
01860            -260.00     5000.00
01861              60.00     5000.00
01862              20.00     5000.00
01863              20.00     5800.00
01864            -100.00     5200.00
01865            -100.00     5800.00
01866             100.00     6000.00
01867            -180.00     5800.00
01868             -60.00     6200.00
01869             -20.00     6200.00
01870            -100.00     6400.00
01871            -100.00     6600.00
01872            -160.00     6600.00
01873             -20.00     7000.00
01874             -80.00     6800.00
01875             -20.00     7000.00
01876            -100.00     7000.00
01877            -100.00     7400.00
01878            -140.00     7400.00
01879            -100.00     7600.00
01880             -80.00     7800.00
01881            -160.00     7600.00
01882            -100.00     8000.00
01883            -160.00     7800.00
01884            -120.00     8200.00
01885             -80.00     8200.00
01886             -60.00     8400.00
01887            -160.00     8400.00
01888            -200.00     8400.00
01889            -140.00     8600.00
01890            -120.00     8600.00
01891            -100.00     9000.00
01892            -140.00     9000.00
01893            -160.00     9000.00
01894            -180.00     9000.00
01895            -140.00     9200.00
01896            -100.00     9200.00
01897            -140.00     9400.00
01898            -140.00     9200.00
01899            -160.00     9400.00
01900            -160.00     9400.00
01901            -180.00     9400.00
01902            -160.00     9600.00
01903            -160.00     9400.00
01904            -180.00     9600.00
01905            -140.00     9800.00
01906            -160.00     9800.00
01907            -180.00     9800.00
01908            -160.00     9800.00
01909            -160.00    10000.00
01910            -160.00     9800.00
01911            -180.00     9800.00
01912            -180.00     9800.00
01913            -180.00     9800.00
01914            -180.00     9800.00
01915            -180.00     9800.00
01916            -160.00     9800.00
01917            -180.00    10000.00
01918            -160.00     9800.00
01919            -160.00     9800.00
01920            -160.00     9800.00
01921            -200.00     9800.00
01922            -200.00    10000.00
01923            -180.00     9800.00
01924            -180.00     9800.00
01925            -180.00     9600.00
01926            -180.00     9800.00
01927            -180.00     9800.00
01928            -200.00     9600.00
01929            -180.00     9600.00
01930            -180.00     9400.00
01931            -180.00     9400.00
01932            -180.00     9400.00
01933            -220.00     9400.00
01934            -220.00     9400.00
01935            -200.00     9200.00
01936            -180.00     9200.00
01937            -180.00     9200.00
01938            -160.00     9000.00
01939            -180.00     9000.00
01940            -180.00     8800.00
01941            -220.00     8800.00
01942            -180.00     8600.00
01943            -160.00     8600.00
01944            -180.00     8400.00
01945            -180.00     8400.00
01946            -180.00     8400.00
01947            -180.00     8200.00
01948            -180.00     8000.00
01949            -160.00     8000.00
01950            -160.00     7800.00
01951            -160.00     7800.00
01952            -180.00     7400.00
01953            -180.00     7600.00
01954            -180.00     7400.00
01955            -160.00     7200.00
01956            -160.00     7000.00
01957            -160.00     7000.00
01958            -180.00     6800.00
01959            -160.00     6800.00
01960            -180.00     6600.00
01961            -160.00     6600.00
01962            -140.00     6400.00
01963            -140.00     6200.00
01964            -140.00     6000.00
01965            -160.00     5800.00
01966            -160.00     5800.00
01967            -160.00     5600.00
01968            -140.00     5400.00
01969            -100.00     5400.00
01970            -120.00     5000.00
01971            -160.00     5000.00
01972            -160.00     5000.00
01973            -160.00     4600.00
01974            -100.00     4600.00
01975            -100.00     4200.00
01976            -100.00     4200.00
01977            -100.00     4200.00
01978            -120.00     3800.00
01979            -100.00     3600.00
01980            -100.00     3600.00
01981            -100.00     3400.00
01982            -100.00     3000.00
01983            -100.00     2800.00
01984             -80.00     2800.00
01985             -80.00     2600.00
01986            -100.00     2400.00
01987             -80.00     2200.00
01988             -80.00     2000.00
01989            -100.00     1800.00
01990             -80.00     1800.00
01991             -80.00     1400.00
01992             -80.00     1400.00
01993             -80.00     1200.00
01994             -80.00     1000.00
01995             -60.00      600.00
01996             -60.00      600.00
01997             -60.00      400.00
01998             -60.00      400.00
01999             -60.00      200.00
02000             -20.00     -200.00
02001               0.00     -400.00
02002             100.00     -400.00
02003             140.00     -600.00
02004             100.00    -1000.00
02005              20.00    -1000.00
02006              20.00    -1200.00
02007              20.00    -1200.00
02008              60.00    -1400.00
02009             380.00    -1600.00
02010             980.00    -2000.00
02011             760.00    -2200.00
02012            -260.00    -2600.00
02013           -1060.00    -2600.00
02014           -1440.00    -2600.00
02015            -880.00    -2600.00
02016             620.00    -3000.00
02017             380.00    -3200.00
02018             220.00    -3200.00
02019             620.00    -4000.00
02020              20.00    -3400.00
02021             100.00    -3600.00
02022             140.00    -4200.00
02023            -140.00    -3800.00
02024             300.00    -4400.00
02025             160.00    -4400.00
02026            -200.00    -4600.00
02027            -100.00    -5000.00
02028              20.00    -4800.00
02029             140.00    -5200.00
02030              80.00    -5200.00
02031             140.00    -5400.00
02032              40.00    -5600.00
02033              20.00    -5600.00
02034             220.00    -6000.00
02035              60.00    -5800.00
02036              60.00    -6200.00
02037             140.00    -6400.00
02038             140.00    -6200.00
02039              60.00    -6600.00
02040              20.00    -6800.00
02041             120.00    -6800.00
02042             160.00    -6800.00
02043             120.00    -7200.00
02044             100.00    -7400.00
02045             100.00    -7200.00
02046             140.00    -7600.00
02047             120.00    -7600.00
02048             140.00    -7800.00
02049              80.00    -7800.00
02050              80.00    -8000.00
02051             140.00    -8000.00
02052             160.00    -8200.00
02053             140.00    -8400.00
02054             160.00    -8400.00
02055             160.00    -8400.00
02056              80.00    -8600.00
02057             120.00    -8600.00
02058             160.00    -8800.00
02059             160.00    -9000.00
02060             140.00    -9000.00
02061             140.00    -9000.00
02062             140.00    -9200.00
02063             140.00    -9200.00
02064             180.00    -9200.00
02065             180.00    -9200.00
02066             160.00    -9400.00
02067             160.00    -9400.00
02068             140.00    -9400.00
02069             140.00    -9400.00
02070             140.00    -9400.00
02071             180.00    -9600.00
02072             200.00    -9600.00
02073             180.00    -9800.00
02074             160.00    -9800.00
02075             160.00    -9800.00
02076             160.00    -9600.00
02077             180.00    -9800.00
02078             220.00    -9800.00
02079             180.00    -9800.00
02080             180.00    -9800.00
02081             180.00    -9800.00
02082             180.00    -9800.00
02083             160.00    -9800.00
02084             180.00    -9800.00
02085             220.00    -9800.00
02086             200.00    -9800.00
02087             200.00    -9800.00
02088             200.00    -9800.00
02089             180.00    -9800.00
02090             180.00    -9600.00
02091             180.00    -9800.00
02092             180.00    -9800.00
02093             180.00    -9600.00
02094             180.00    -9600.00
02095             220.00    -9400.00
02096             220.00    -9600.00
02097             220.00    -9400.00
02098             200.00    -9400.00
02099             200.00    -9400.00
02100             200.00    -9400.00
02101             180.00    -9200.00
02102             180.00    -9200.00
02103             180.00    -9000.00
02104             200.00    -9000.00
02105             220.00    -9000.00
02106             180.00    -9000.00
02107             180.00    -8800.00
02108             180.00    -8800.00
02109             180.00    -8600.00
02110             180.00    -8600.00
02111             220.00    -8600.00
02112             200.00    -8400.00
02113             180.00    -8200.00
02114             160.00    -8200.00
02115             160.00    -8200.00
02116             160.00    -8000.00
02117             180.00    -7800.00
02118             220.00    -7600.00
02119             180.00    -7600.00
02120             160.00    -7400.00
02121             140.00    -7200.00
02122             140.00    -7200.00
02123             160.00    -7200.00
02124             160.00    -7000.00
02125             180.00    -7000.00
02126             160.00    -6600.00
02127             140.00    -6600.00
02128             140.00    -6600.00
02129             140.00    -6400.00
02130             160.00    -6200.00
02131             160.00    -6000.00
02132             180.00    -6000.00
02133             140.00    -5800.00
02134             120.00    -5600.00
02135             140.00    -5400.00
02136             140.00    -5200.00
02137             160.00    -5200.00
02138             160.00    -5000.00
02139             140.00    -4800.00
02140             120.00    -4800.00
02141             120.00    -4600.00
02142             100.00    -4400.00
02143             120.00    -4200.00
02144             140.00    -4000.00
02145             120.00    -3800.00
02146             100.00    -3600.00
02147             100.00    -3400.00
02148             100.00    -3400.00
02149             100.00    -3200.00
02150             100.00    -3000.00
02151              80.00    -2800.00
02152             100.00    -2800.00
02153              80.00    -2600.00
02154             100.00    -2400.00
02155              80.00    -2200.00
02156              80.00    -2000.00
02157              80.00    -1800.00
02158              80.00    -1800.00
02159             100.00    -1200.00
02160              80.00    -1200.00
02161              80.00    -1000.00
02162              60.00     -600.00
02163              80.00     -400.00
02164              60.00     -400.00
02165              60.00     -200.00
02166              60.00        0.00
02167              80.00      200.00
02168              60.00      400.00
02169             140.00      600.00
02170             180.00      600.00
02171             180.00     1000.00
02172             140.00     1000.00
02173              80.00     1000.00
02174              80.00     1200.00
02175             160.00     1400.00
02176             720.00     1800.00
02177            1280.00     2200.00
02178             540.00     2000.00
02179            -820.00     2200.00
02180           -1760.00     2200.00
02181           -1540.00     2800.00
02182             480.00     3200.00
02183             780.00     2800.00
02184               0.00     3000.00
02185             640.00     3000.00
02186             140.00     3200.00
02187            -280.00     4200.00
02188              60.00     3400.00
02189            -220.00     3800.00
02190             320.00     4400.00
02191             100.00     3800.00
02192            -400.00     4600.00
02193              60.00     4800.00
02194            -180.00     4600.00
02195             -80.00     5200.00
02196             100.00     5000.00
02197               0.00     5600.00
02198               0.00     5400.00
02199            -180.00     5400.00
02200             100.00     6000.00
02201             -80.00     5800.00
02202            -180.00     6000.00
02203               0.00     6200.00
02204            -100.00     6200.00
02205             -80.00     6600.00
02206            -140.00     6600.00
02207             -80.00     7000.00
02208             -60.00     6800.00
02209             -20.00     7000.00
02210             -80.00     7400.00
02211            -100.00     7200.00
02212            -100.00     7400.00
02213            -100.00     7600.00
02214             -60.00     7800.00
02215            -140.00     7800.00
02216            -100.00     7800.00
02217            -160.00     8000.00
02218            -140.00     8000.00
02219            -100.00     8200.00
02220             -80.00     8400.00
02221            -100.00     8400.00
02222            -180.00     8400.00
02223            -140.00     8600.00
02224            -140.00     8600.00
02225            -100.00     8600.00
02226            -100.00     9000.00
02227            -160.00     9000.00
02228            -180.00     9000.00
02229            -160.00     9200.00
02230            -100.00     9200.00
02231            -140.00     9200.00
02232            -140.00     9400.00
02233            -160.00     9400.00
02234            -160.00     9400.00
02235            -180.00     9600.00
02236            -180.00     9600.00
02237            -160.00     9600.00
02238            -160.00     9600.00
02239            -140.00     9800.00
02240            -160.00     9800.00
02241            -180.00     9800.00
02242            -200.00     9800.00
02243            -160.00     9800.00
02244            -160.00     9800.00
02245            -180.00     9800.00
02246            -180.00     9800.00
02247            -180.00    10000.00
02248            -180.00     9800.00
02249            -180.00     9800.00
02250            -180.00     9800.00
02251            -160.00     9800.00
02252            -200.00     9800.00
02253            -220.00     9800.00
02254            -180.00     9800.00
02255            -220.00     9800.00
02256            -220.00     9800.00
02257            -160.00     9800.00
02258            -160.00     9800.00
02259            -180.00     9800.00
02260            -200.00     9800.00
02261            -220.00     9800.00
02262            -220.00     9600.00
02263            -220.00     9600.00
02264            -180.00     9400.00
02265            -180.00     9400.00
02266            -180.00     9400.00
02267            -180.00     9400.00
02268            -200.00     9400.00
02269            -220.00     9200.00
02270            -180.00     9200.00
02271            -180.00     9200.00
02272            -180.00     9000.00
02273            -180.00     9000.00
02274            -200.00     9000.00
02275            -220.00     8600.00
02276            -200.00     8600.00
02277            -160.00     8600.00
02278            -160.00     8400.00
02279            -160.00     8400.00
02280            -180.00     8200.00
02281            -180.00     8200.00
02282            -180.00     8200.00
02283            -180.00     8000.00
02284            -160.00     8000.00
02285            -160.00     7800.00
02286            -160.00     7800.00
02287            -180.00     7400.00
02288            -180.00     7400.00
02289            -180.00     7400.00
02290            -160.00     7000.00
02291            -160.00     7000.00
02292            -160.00     6800.00
02293            -160.00     6800.00
02294            -160.00     6800.00
02295            -160.00     6600.00
02296            -140.00     6200.00
02297            -140.00     6200.00
02298            -160.00     6200.00
02299            -160.00     6000.00
02300            -160.00     5800.00
02301            -160.00     5600.00
02302            -160.00     5400.00
02303            -140.00     5400.00
02304            -140.00     5200.00
02305            -100.00     5200.00
02306            -140.00     5000.00
02307            -140.00     4600.00
02308            -140.00     4600.00
02309            -140.00     4400.00
02310            -100.00     4400.00
02311            -100.00     4200.00
02312            -100.00     3800.00
02313            -100.00     3600.00
02314            -100.00     3600.00
02315            -140.00     3400.00
02316            -140.00     3200.00
02317            -100.00     3000.00
02318             -80.00     3000.00
02319            -100.00     2800.00
02320            -120.00     2600.00
02321            -140.00     2200.00
02322            -100.00     2000.00
02323             -60.00     2000.00
02324             -20.00     1600.00
02325             -80.00     1600.00
02326            -100.00     1400.00
02327            -100.00     1200.00
02328             -80.00     1000.00
02329             -60.00      800.00
02330             -60.00      600.00
02331             -20.00      600.00
02332             -80.00      400.00
02333             -60.00      200.00
02334             -20.00     -200.00
02335               0.00     -200.00
02336              60.00     -400.00
02337             100.00     -600.00
02338             100.00     -800.00
02339              60.00    -1000.00
02340              40.00    -1000.00
02341              20.00    -1200.00
02342              60.00    -1400.00
02343             220.00    -1400.00
02344             780.00    -1800.00
02345             980.00    -2200.00
02346             160.00    -2400.00
02347            -820.00    -2600.00
02348           -1340.00    -2600.00
02349           -1300.00    -2600.00
02350             140.00    -2600.00
02351             660.00    -3400.00
02352             100.00    -2800.00
02353             560.00    -3600.00
02354             300.00    -3600.00
02355             -60.00    -3400.00
02356             220.00    -4200.00
02357            -100.00    -4000.00
02358             100.00    -4200.00
02359             320.00    -4400.00
02360            -140.00    -4400.00
02361            -120.00    -5000.00
02362             -20.00    -4600.00
02363             140.00    -5000.00
02364              60.00    -5400.00
02365             100.00    -5200.00
02366             100.00    -5400.00
02367             -20.00    -5400.00
02368             180.00    -5800.00
02369             160.00    -6000.00
02370              20.00    -6000.00
02371             100.00    -6600.00
02372             120.00    -6200.00
02373             100.00    -6600.00
02374              60.00    -6600.00
02375              80.00    -6800.00
02376             180.00    -7000.00
02377             140.00    -7000.00
02378             100.00    -7400.00
02379             100.00    -7200.00
02380             120.00    -7600.00
02381             140.00    -7600.00
02382             160.00    -7600.00
02383             100.00    -7800.00
02384              80.00    -8000.00
02385             120.00    -8200.00
02386             160.00    -8200.00
02387             140.00    -8200.00
02388             140.00    -8400.00
02389             180.00    -8600.00
02390             100.00    -8600.00
02391             140.00    -8600.00
02392             160.00    -8800.00
02393             140.00    -8800.00
02394             140.00    -9000.00
02395             140.00    -9000.00
02396             140.00    -9000.00
02397             140.00    -9200.00
02398             160.00    -9200.00
02399             220.00    -9400.00
02400             160.00    -9200.00
02401             140.00    -9400.00
02402             160.00    -9400.00
02403             140.00    -9400.00
02404             160.00    -9400.00
02405             180.00    -9400.00
02406             220.00    -9800.00
02407             160.00    -9800.00
02408             160.00    -9800.00
02409             180.00    -9800.00
02410             160.00    -9800.00
02411             180.00    -9800.00
02412             220.00    -9800.00
02413             220.00    -9800.00
02414             160.00    -9800.00
02415             160.00    -9800.00
02416             180.00    -9800.00
02417             160.00    -9800.00
02418             180.00    -9800.00
02419             220.00    -9800.00
02420             220.00    -9800.00
02421             220.00    -9800.00
02422             180.00    -9800.00
02423             180.00    -9600.00
02424             160.00    -9600.00
02425             180.00    -9800.00
02426             220.00    -9800.00
02427             220.00    -9600.00
02428             180.00    -9600.00
02429             200.00    -9400.00
02430             160.00    -9400.00
02431             180.00    -9400.00
02432             220.00    -9400.00
02433             220.00    -9400.00
02434             220.00    -9400.00
02435             180.00    -9400.00
02436             180.00    -9200.00
02437             180.00    -9200.00
02438             180.00    -9000.00
02439             220.00    -9000.00
02440             220.00    -9000.00
02441             200.00    -8800.00
02442             180.00    -8800.00
02443             180.00    -8800.00
02444             180.00    -8600.00
02445             180.00    -8600.00
02446             200.00    -8400.00
02447             180.00    -8400.00
02448             180.00    -8200.00
02449             160.00    -8200.00
02450             160.00    -8200.00
02451             160.00    -8200.00
02452             180.00    -7800.00
02453             180.00    -7600.00
02454             180.00    -7600.00
02455             160.00    -7400.00
02456             140.00    -7200.00
02457             160.00    -7200.00
02458             160.00    -7000.00
02459             180.00    -7000.00
02460             160.00    -6800.00
02461             160.00    -6600.00
02462             140.00    -6600.00
02463             140.00    -6600.00
02464             160.00    -6200.00
02465             140.00    -6000.00
02466             160.00    -6000.00
02467             160.00    -5800.00
02468             140.00    -5800.00
02469             140.00    -5600.00
02470             140.00    -5400.00
02471             140.00    -5200.00
02472             160.00    -5000.00
02473             140.00    -5000.00
02474             140.00    -4600.00
02475             140.00    -4600.00
02476             100.00    -4400.00
02477             120.00    -4200.00
02478             100.00    -4200.00
02479             120.00    -3800.00
02480             100.00    -3800.00
02481             100.00    -3400.00
02482             100.00    -3400.00
02483             100.00    -3200.00
02484             100.00    -3000.00
02485             140.00    -2800.00
02486             100.00    -2600.00
02487             100.00    -2400.00
02488              80.00    -2200.00
02489              60.00    -2000.00
02490              80.00    -2000.00
02491             100.00    -1800.00
02492             100.00    -1600.00
02493             100.00    -1400.00
02494              80.00    -1200.00
02495              60.00    -1000.00
02496              80.00     -800.00
02497              60.00     -600.00
02498              60.00     -400.00
02499              80.00     -400.00
02500              80.00     -200.00
02501              60.00      200.00
02502              60.00      200.00
02503              80.00      400.00
02504             160.00      600.00
02505             220.00      800.00
02506             180.00     1000.00
02507             140.00     1000.00
02508              80.00     1200.00
02509              80.00     1400.00
02510             420.00     1400.00
02511            1180.00     2000.00
02512             960.00     2000.00
02513            -320.00     2200.00
02514           -1460.00     2000.00
02515           -1900.00     2400.00
02516            -320.00     3000.00
02517             980.00     2800.00
02518             100.00     3000.00
02519             400.00     3200.00
02520             500.00     3000.00
02521            -300.00     3800.00
02522              20.00     3800.00
02523            -160.00     3400.00
02524              20.00     4600.00
02525             380.00     4000.00
02526            -360.00     4200.00
02527            -100.00     5000.00
02528             -40.00     4600.00
02529            -180.00     5000.00
02530             100.00     5000.00
02531             -20.00     5200.00
02532               0.00     5800.00
02533            -180.00     5000.00
02534               0.00     6000.00
02535              60.00     5800.00
02536            -220.00     6000.00
02537             -20.00     6200.00
02538             -80.00     6200.00
02539             -80.00     6600.00
02540            -100.00     6400.00
02541            -100.00     6800.00
02542             -40.00     6800.00
02543             -80.00     6800.00
02544               0.00     7400.00
02545            -100.00     7200.00
02546             -80.00     7400.00
02547            -120.00     7400.00
02548             -80.00     7600.00
02549            -100.00     7800.00
02550            -120.00     7800.00
02551            -100.00     8200.00
02552            -160.00     8000.00
02553            -100.00     8200.00
02554            -100.00     8200.00
02555             -60.00     8400.00
02556            -140.00     8400.00
02557            -160.00     8400.00
02558            -140.00     8600.00
02559            -140.00     8600.00
02560            -100.00     9000.00
02561            -140.00     8800.00
02562            -160.00     9200.00
02563            -220.00     9000.00
02564            -160.00     9200.00
02565            -160.00     9200.00
02566            -100.00     9200.00
02567            -100.00     9400.00
02568            -100.00     9400.00
02569            -160.00     9400.00
02570            -200.00     9400.00
02571            -180.00     9600.00
02572            -180.00     9400.00
02573            -160.00     9800.00
02574            -140.00     9800.00
02575            -160.00     9800.00
02576            -180.00     9600.00
02577            -180.00     9800.00
02578            -160.00     9800.00
02579            -180.00     9800.00
02580            -200.00     9800.00
02581            -180.00    10000.00
02582            -180.00     9800.00
02583            -180.00     9800.00
02584            -160.00    10000.00
02585            -180.00    10000.00
02586            -180.00     9800.00
02587            -160.00     9800.00
02588            -180.00    10000.00
02589            -200.00     9800.00
02590            -220.00     9800.00
02591            -180.00     9800.00
02592            -180.00     9800.00
02593            -180.00     9800.00
02594            -180.00     9800.00
02595            -180.00     9800.00
02596            -180.00     9400.00
02597            -220.00     9600.00
02598            -180.00     9400.00
02599            -200.00     9400.00
02600            -180.00     9400.00
02601            -180.00     9400.00
02602            -180.00     9400.00
02603            -180.00     9200.00
02604            -160.00     9200.00
02605            -180.00     9200.00
02606            -200.00     9000.00
02607            -220.00     9000.00
02608            -220.00     9000.00
02609            -180.00     9000.00
02610            -160.00     8800.00
02611            -160.00     8600.00
02612            -160.00     8400.00
02613            -180.00     8400.00
02614            -220.00     8200.00
02615            -180.00     8400.00
02616            -180.00     8200.00
02617            -160.00     8200.00
02618            -160.00     8000.00
02619            -160.00     7800.00
02620            -160.00     7800.00
02621            -160.00     7800.00
02622            -180.00     7400.00
02623            -180.00     7400.00
02624            -160.00     7200.00
02625            -140.00     7200.00
02626            -140.00     7000.00
02627            -160.00     6800.00
02628            -180.00     6600.00
02629            -180.00     6600.00
02630            -200.00     6600.00
02631            -160.00     6200.00
02632            -120.00     6200.00
02633            -100.00     6000.00
02634            -140.00     5800.00
02635            -140.00     5800.00
02636            -160.00     5400.00
02637            -160.00     5600.00
02638            -120.00     5200.00
02639            -140.00     5200.00
02640            -140.00     5000.00
02641            -160.00     4600.00
02642            -160.00     4600.00
02643            -140.00     4400.00
02644            -100.00     4200.00
02645            -140.00     4000.00
02646            -120.00     3800.00
02647            -100.00     3600.00
02648            -100.00     3600.00
02649            -100.00     3600.00
02650            -120.00     3400.00
02651            -100.00     3000.00
02652            -100.00     3000.00
02653            -100.00     2600.00
02654            -100.00     2600.00
02655            -100.00     2200.00
02656             -80.00     2200.00
02657            -100.00     2000.00
02658             -80.00     1800.00
02659             -80.00     1800.00
02660             -80.00     1400.00
02661             -60.00     1400.00
02662             -80.00     1200.00
02663             -80.00      800.00
02664             -80.00      800.00
02665             -60.00      400.00
02666             -60.00      400.00
02667             -60.00      200.00
02668             -20.00     -200.00
02669             -20.00     -200.00
02670               0.00     -400.00
02671             100.00     -600.00
02672             140.00     -600.00
02673             100.00    -1000.00
02674              20.00     -800.00
02675               0.00    -1000.00
02676               0.00    -1400.00
02677             100.00    -1400.00
02678             540.00    -1600.00
02679            1060.00    -2000.00
02680             560.00    -2200.00
02681            -500.00    -2200.00
02682           -1180.00    -2600.00
02683           -1440.00    -2600.00
02684            -480.00    -2600.00
02685             720.00    -3000.00
02686             220.00    -3000.00
02687             340.00    -3000.00
02688             540.00    -3800.00
02689             -60.00    -3200.00
02690             180.00    -3800.00
02691              20.00    -4200.00
02692             -80.00    -4200.00
02693             340.00    -4400.00
02694              20.00    -4400.00
02695            -160.00    -4800.00
02696             -80.00    -4800.00
02697              60.00    -4600.00
02698             100.00    -5400.00
02699              80.00    -5200.00
02700             160.00    -5400.00
02701               0.00    -5600.00
02702              80.00    -5800.00
02703             220.00    -6000.00
02704              40.00    -5800.00
02705              80.00    -6200.00
02706             140.00    -6200.00
02707             100.00    -6400.00
02708              60.00    -6800.00
02709              20.00    -6600.00
02710             160.00    -7000.00
02711             140.00    -7000.00
02712             100.00    -7000.00
02713             100.00    -7200.00
02714             140.00    -7400.00
02715             120.00    -7600.00
02716             140.00    -7600.00
02717             100.00    -7600.00
02718              80.00    -7800.00
02719              80.00    -8200.00
02720             140.00    -8200.00
02721             140.00    -8200.00
02722             120.00    -8200.00
02723             160.00    -8400.00
02724             140.00    -8600.00
02725             100.00    -8600.00
02726             140.00    -8600.00
02727             160.00    -8600.00
02728             140.00    -8800.00
02729             140.00    -9000.00
02730             140.00    -9000.00
02731             140.00    -9000.00
02732             160.00    -9000.00
02733             220.00    -9200.00
02734             220.00    -9200.00
02735             160.00    -9400.00
02736             160.00    -9400.00
02737             160.00    -9400.00
02738             140.00    -9400.00
02739             160.00    -9600.00
02740             180.00    -9400.00
02741             200.00    -9600.00
02742             160.00    -9600.00
02743             180.00    -9800.00
02744             160.00    -9800.00
02745             160.00    -9800.00
02746             180.00    -9800.00
02747             180.00    -9800.00
02748             180.00    -9800.00
02749             160.00    -9800.00
02750             180.00    -9800.00
02751             180.00    -9800.00
02752             160.00    -9800.00
02753             220.00    -9800.00
02754             220.00    -9800.00
02755             180.00    -9800.00
02756             180.00    -9800.00
02757             180.00    -9800.00
02758             180.00    -9800.00
02759             180.00    -9800.00
02760             200.00    -9800.00
02761             220.00    -9800.00
02762             200.00    -9600.00
02763             180.00    -9600.00
02764             180.00    -9400.00
02765             180.00    -9400.00
02766             220.00    -9400.00
02767             220.00    -9400.00
02768             220.00    -9400.00
02769             180.00    -9200.00
02770             160.00    -9200.00
02771             160.00    -9200.00
02772             160.00    -9000.00
02773             220.00    -9000.00
02774             220.00    -9200.00
02775             180.00    -9000.00
02776             180.00    -8800.00
02777             160.00    -8600.00
02778             160.00    -8600.00
02779             160.00    -8600.00
02780             180.00    -8400.00
02781             180.00    -8400.00
02782             180.00    -8400.00
02783             160.00    -8200.00
02784             180.00    -8200.00
02785             180.00    -8000.00
02786             160.00    -7800.00
02787             180.00    -7800.00
02788             180.00    -7600.00
02789             160.00    -7600.00
02790             140.00    -7200.00
02791             160.00    -7200.00
02792             160.00    -7000.00
02793             180.00    -7000.00
02794             180.00    -6800.00
02795             160.00    -6800.00
02796             140.00    -6600.00
02797             160.00    -6400.00
02798             140.00    -6200.00
02799             140.00    -6200.00
02800             160.00    -6000.00
02801             160.00    -6000.00
02802             140.00    -5600.00
02803             140.00    -5600.00
02804             140.00    -5400.00
02805             140.00    -5200.00
02806             140.00    -5200.00
02807             160.00    -5000.00
02808             140.00    -5000.00
02809             140.00    -4600.00
02810             100.00    -4400.00
02811             120.00    -4400.00
02812             120.00    -4200.00
02813             120.00    -4000.00
02814             140.00    -3600.00
02815             120.00    -3600.00
02816             100.00    -3400.00
02817             100.00    -3200.00
02818             100.00    -3000.00
02819             120.00    -2800.00
02820             100.00    -2800.00
02821             100.00    -2600.00
02822             100.00    -2400.00
02823              80.00    -2200.00
02824              80.00    -2200.00
02825              80.00    -1800.00
02826              80.00    -1800.00
02827             100.00    -1400.00
02828              80.00    -1200.00
02829              80.00    -1000.00
02830              80.00     -800.00
02831              60.00     -600.00
02832              60.00     -600.00
02833              60.00     -400.00
02834              60.00     -200.00
02835              60.00        0.00
02836              60.00      200.00
02837              80.00      200.00
02838             160.00      600.00
02839             160.00      600.00
02840             180.00      800.00
02841             140.00     1000.00
02842              80.00     1000.00
02843              80.00     1200.00
02844             200.00     1400.00
02845             940.00     1800.00
02846            1200.00     2000.00
02847             220.00     2200.00
02848           -1120.00     2200.00
02849           -1920.00     2200.00
02850           -1140.00     2800.00
02851             840.00     3000.00
02852             480.00     2600.00
02853             140.00     3200.00
02854             680.00     3000.00
02855            -100.00     3600.00
02856            -160.00     4200.00
02857             -20.00     3400.00
02858            -160.00     4200.00
02859             420.00     4400.00
02860            -100.00     4000.00
02861            -300.00     5000.00
02862              60.00     4600.00
02863            -260.00     4600.00
02864              20.00     5200.00
02865              60.00     5000.00
02866              20.00     5800.00
02867             -80.00     5200.00
02868            -140.00     5600.00
02869             140.00     6000.00
02870            -160.00     5800.00
02871            -100.00     6200.00
02872               0.00     6200.00
02873            -100.00     6400.00
02874             -80.00     6600.00
02875            -160.00     6600.00
02876             -20.00     7000.00
02877             -60.00     6800.00
02878             -20.00     7000.00
02879             -80.00     7200.00
02880            -100.00     7400.00
02881            -100.00     7400.00
02882            -100.00     7600.00
02883             -60.00     7800.00
02884            -140.00     7800.00
02885            -100.00     8000.00
02886            -160.00     7800.00
02887            -100.00     8200.00
02888             -80.00     8200.00
02889             -80.00     8400.00
02890            -140.00     8600.00
02891            -180.00     8400.00
02892            -140.00     8600.00
02893            -140.00     8600.00
02894            -100.00     9000.00
02895            -100.00     8800.00
02896            -160.00     9000.00
02897            -180.00     9000.00
02898            -160.00     9000.00
02899            -100.00     9200.00
02900            -140.00     9200.00
02901            -140.00     9200.00
02902            -160.00     9400.00
02903            -180.00     9400.00
02904            -180.00     9400.00
02905            -160.00     9400.00
02906            -160.00     9600.00
02907            -160.00     9800.00
02908            -140.00     9800.00
02909            -160.00     9800.00
02910            -180.00     9800.00
02911            -200.00     9800.00
02912            -160.00     9800.00
02913            -160.00     9800.00
02914            -180.00     9800.00
02915            -180.00     9800.00
02916            -180.00     9800.00
02917            -220.00     9800.00
02918            -180.00     9800.00
02919            -180.00    10000.00
02920            -160.00     9800.00
02921            -180.00    10000.00
02922            -160.00    10000.00
02923            -180.00     9800.00
02924            -220.00     9800.00
02925            -180.00     9800.00
02926            -180.00     9800.00
02927            -160.00     9800.00
02928            -180.00     9800.00
02929            -180.00     9800.00
02930            -200.00     9600.00
02931            -200.00     9600.00
02932            -180.00     9800.00
02933            -180.00     9600.00
02934            -180.00     9400.00
02935            -180.00     9400.00
02936            -180.00     9400.00
02937            -180.00     9400.00
02938            -180.00     9200.00
02939            -180.00     9200.00
02940            -160.00     9000.00
02941            -180.00     9000.00
02942            -160.00     9000.00
02943            -200.00     9000.00
02944            -200.00     8800.00
02945            -180.00     8600.00
02946            -160.00     8600.00
02947            -160.00     8600.00
02948            -180.00     8200.00
02949            -180.00     8400.00
02950            -180.00     8200.00
02951            -200.00     8000.00
02952            -180.00     8000.00
02953            -160.00     7800.00
02954            -160.00     7800.00
02955            -180.00     7600.00
02956            -160.00     7600.00
02957            -180.00     7400.00
02958            -180.00     7200.00
02959            -140.00     7000.00
02960            -160.00     7000.00
02961            -160.00     6800.00
02962            -160.00     6600.00
02963            -160.00     6600.00
02964            -160.00     6600.00
02965            -160.00     6400.00
02966            -160.00     6200.00
02967            -160.00     6200.00
02968            -160.00     6000.00
02969            -160.00     5800.00
02970            -160.00     5600.00
02971            -140.00     5600.00
02972            -140.00     5400.00
02973            -140.00     5200.00
02974            -140.00     5000.00
02975            -140.00     4600.00
02976            -160.00     4600.00
02977            -140.00     4600.00
02978            -140.00     4400.00
02979            -140.00     4200.00
02980            -100.00     4200.00
02981            -100.00     3800.00
02982            -120.00     3600.00
02983            -100.00     3600.00
02984            -100.00     3400.00
02985            -100.00     3200.00
02986            -100.00     3000.00
02987            -100.00     2800.00
02988            -100.00     2600.00
02989            -100.00     2400.00
02990            -100.00     2400.00
02991            -100.00     2000.00
02992             -80.00     2000.00
02993             -60.00     1800.00
02994             -60.00     1800.00
02995             -60.00     1400.00
02996             -80.00     1200.00
02997             -60.00     1000.00
02998             -80.00     1000.00
02999             -80.00      600.00
03000             -60.00      600.00
03001             -60.00      400.00
03002             -20.00      200.00
03003             -40.00        0.00
03004               0.00     -200.00
03005              80.00     -400.00
03006             140.00     -400.00
03007             120.00     -600.00
03008              80.00    -1000.00
03009              20.00    -1200.00
03010               0.00    -1200.00
03011              60.00    -1400.00
03012             320.00    -1600.00
03013             960.00    -2000.00
03014             880.00    -2200.00
03015            -100.00    -2400.00
03016            -980.00    -2600.00
03017           -1420.00    -2600.00
03018           -1040.00    -2400.00
03019             480.00    -2800.00
03020             480.00    -3000.00
03021             140.00    -3000.00
03022             620.00    -3800.00
03023             120.00    -3400.00
03024               0.00    -3600.00
03025             180.00    -4200.00
03026            -140.00    -4000.00
03027             240.00    -4400.00
03028             240.00    -4400.00
03029            -160.00    -4600.00
03030            -100.00    -5000.00
03031               0.00    -4800.00
03032             140.00    -5200.00
03033              60.00    -5200.00
03034             140.00    -5400.00
03035              60.00    -5800.00
03036               0.00    -5400.00
03037             220.00    -6000.00
03038              80.00    -6000.00
03039              20.00    -6000.00
03040             100.00    -6400.00
03041             120.00    -6200.00
03042              60.00    -6600.00
03043              20.00    -6800.00
03044             100.00    -6800.00
03045             160.00    -7000.00
03046             100.00    -7000.00
03047             100.00    -7400.00
03048             140.00    -7200.00
03049             140.00    -7600.00
03050             100.00    -7600.00
03051             140.00    -7800.00
03052             100.00    -7800.00
03053              80.00    -7800.00
03054             140.00    -8200.00
03055             160.00    -8200.00
03056             140.00    -8400.00
03057             160.00    -8400.00
03058             140.00    -8400.00
03059             100.00    -8400.00
03060             100.00    -8800.00
03061             160.00    -8600.00
03062             160.00    -8800.00
03063             140.00    -9000.00
03064             140.00    -9000.00
03065             140.00    -9000.00
03066             140.00    -9000.00
03067             220.00    -9000.00
03068             220.00    -9200.00
03069             180.00    -9200.00
03070             140.00    -9400.00
03071             160.00    -9400.00
03072             160.00    -9400.00
03073             160.00    -9400.00
03074             180.00    -9400.00
03075             180.00    -9400.00
03076             180.00    -9400.00
03077             160.00    -9600.00
03078             160.00    -9800.00
03079             160.00    -9800.00
03080             180.00    -9600.00
03081             200.00    -9800.00
03082             220.00    -9800.00
03083             180.00    -9800.00
03084             160.00    -9800.00
03085             180.00    -9600.00
03086             180.00    -9800.00
03087             180.00    -9800.00
03088             220.00    -9800.00
03089             220.00    -9800.00
03090             180.00    -9800.00
03091             180.00    -9800.00
03092             180.00    -9800.00
03093             160.00    -9800.00
03094             220.00    -9800.00
03095             220.00    -9800.00
03096             180.00    -9800.00
03097             180.00    -9600.00
03098             180.00    -9600.00
03099             180.00    -9400.00
03100             180.00    -9400.00
03101             220.00    -9400.00
03102             180.00    -9400.00
03103             180.00    -9400.00
03104             180.00    -9200.00
03105             160.00    -9200.00
03106             180.00    -9200.00
03107             180.00    -9200.00
03108             200.00    -9000.00
03109             220.00    -9000.00
03110             180.00    -8800.00
03111             160.00    -8800.00
03112             180.00    -8600.00
03113             160.00    -8600.00
03114             180.00    -8600.00
03115             180.00    -8400.00
03116             180.00    -8400.00
03117             180.00    -8200.00
03118             160.00    -8200.00
03119             160.00    -8200.00
03120             180.00    -7800.00
03121             180.00    -7800.00
03122             180.00    -7600.00
03123             160.00    -7600.00
03124             160.00    -7200.00
03125             160.00    -7200.00
03126             160.00    -7000.00
03127             160.00    -7000.00
03128             180.00    -6800.00
03129             160.00    -6800.00
03130             160.00    -6600.00
03131             140.00    -6400.00
03132             140.00    -6400.00
03133             140.00    -6200.00
03134             160.00    -6000.00
03135             160.00    -6000.00
03136             160.00    -5800.00
03137             160.00    -5600.00
03138             140.00    -5400.00
03139             140.00    -5400.00
03140             140.00    -5200.00
03141             140.00    -5000.00
03142             140.00    -4800.00
03143             140.00    -4600.00
03144             100.00    -4400.00
03145             140.00    -4400.00
03146             140.00    -4400.00
03147             100.00    -4000.00
03148             140.00    -3800.00
03149             100.00    -3600.00
03150             100.00    -3400.00
03151             100.00    -3200.00
03152             100.00    -3200.00
03153             100.00    -3000.00
03154             140.00    -2800.00
03155             100.00    -2600.00
03156             100.00    -2400.00
03157              80.00    -2200.00
03158              80.00    -2000.00
03159              60.00    -1800.00
03160             100.00    -1800.00
03161              80.00    -1400.00
03162              80.00    -1400.00
03163              60.00    -1200.00
03164              60.00    -1000.00
03165              60.00     -600.00
03166              60.00     -600.00
03167              60.00     -400.00
03168              80.00     -200.00
03169              60.00        0.00
03170              60.00      200.00
03171              60.00      200.00
03172             100.00      600.00
03173             160.00      600.00
03174             180.00     1000.00
03175             140.00      800.00
03176             100.00     1000.00
03177              80.00     1400.00
03178             100.00     1400.00
03179             580.00     1800.00
03180            1260.00     2000.00
03181             680.00     2000.00
03182            -680.00     2200.00
03183           -1680.00     2200.00
03184           -1700.00     2600.00
03185             240.00     3200.00
03186             880.00     2800.00
03187               0.00     3000.00
03188             580.00     3200.00
03189             260.00     3200.00
03190            -340.00     4200.00
03191              60.00     3600.00
03192            -240.00     3800.00
03193             240.00     4600.00
03194             220.00     3800.00
03195            -400.00     4600.00
03196               0.00     5000.00
03197            -140.00     4400.00
03198            -120.00     5200.00
03199              80.00     4600.00
03200               0.00     5400.00
03201              20.00     5600.00
03202            -180.00     5200.00
03203              60.00     6000.00
03204             -20.00     5800.00
03205            -160.00     6000.00
03206              20.00     6200.00
03207             -80.00     6200.00
03208             -80.00     6600.00
03209            -140.00     6400.00
03210             -60.00     7000.00
03211             -60.00     6800.00
03212             -60.00     6800.00
03213             -40.00     7400.00
03214            -100.00     7200.00
03215            -100.00     7600.00
03216            -100.00     7400.00
03217             -60.00     7800.00
03218            -140.00     7800.00
03219            -100.00     7800.00
03220            -140.00     8200.00
03221            -140.00     7800.00
03222            -100.00     8200.00
03223             -80.00     8200.00
03224            -100.00     8400.00
03225            -180.00     8400.00
03226            -160.00     8600.00
03227            -140.00     8600.00
03228            -100.00     8600.00
03229            -100.00     9000.00
03230            -140.00     9000.00
03231            -220.00     9000.00
03232            -180.00     9200.00
03233            -140.00     9200.00
03234            -140.00     9200.00
03235            -140.00     9200.00
03236            -160.00     9400.00
03237            -160.00     9400.00
03238            -220.00     9400.00
03239            -180.00     9400.00
03240            -160.00     9400.00
03241            -160.00     9400.00
03242            -160.00     9600.00
03243            -160.00     9800.00
03244            -180.00     9800.00
03245            -180.00     9800.00
03246            -180.00     9800.00
03247            -100.00     9800.00
03248            -180.00     9800.00
03249            -240.00     9800.00
03250            -180.00     9800.00
03251            -240.00     9800.00
03252            -260.00     9800.00
03253            -240.00     9800.00
03254            -140.00    10000.00
03255             -80.00     9800.00
03256             -80.00     9800.00
03257            -100.00     9800.00
03258            -200.00     9800.00
03259            -260.00     9800.00
03260            -320.00     9800.00
03261            -280.00     9800.00
03262            -220.00     9800.00
03263            -140.00     9800.00
03264            -100.00     9600.00
03265            -140.00     9600.00
03266            -160.00     9400.00
03267            -160.00     9600.00
03268            -180.00     9600.00
03269            -220.00     9400.00
03270            -220.00     9400.00
03271            -240.00     9400.00
03272            -240.00     9200.00
03273            -220.00     9200.00
03274            -160.00     9200.00
03275            -140.00     9200.00
03276            -140.00     9000.00
03277            -140.00     9000.00
03278            -160.00     8800.00
03279            -200.00     8600.00
03280            -180.00     8600.00
03281            -240.00     8600.00
03282            -240.00     8400.00
03283            -220.00     8200.00
03284            -180.00     8400.00
03285            -140.00     8200.00
03286            -160.00     8000.00
03287            -100.00     8000.00
03288            -140.00     7800.00
03289            -160.00     7600.00
03290            -220.00     7600.00
03291            -240.00     7400.00
03292            -240.00     7400.00
03293            -160.00     7400.00
03294            -140.00     7200.00
03295            -100.00     7000.00
03296            -120.00     6600.00
03297            -140.00     6600.00
03298            -180.00     6600.00
03299            -180.00     6400.00
03300            -180.00     6200.00
03301            -180.00     6000.00
03302            -160.00     6000.00
03303            -140.00     5800.00
03304            -140.00     5800.00
03305            -140.00     5600.00
03306            -140.00     5400.00
03307            -140.00     5200.00
03308            -140.00     5000.00
03309            -160.00     4800.00
03310            -160.00     4800.00
03311            -160.00     4600.00
03312            -140.00     4400.00
03313            -100.00     4200.00
03314            -120.00     4000.00
03315            -100.00     4000.00
03316            -100.00     3800.00
03317            -100.00     3600.00
03318            -100.00     3400.00
03319            -100.00     3400.00
03320            -100.00     3000.00
03321            -100.00     2800.00
03322            -100.00     2800.00
03323            -100.00     2400.00
03324            -100.00     2200.00
03325            -100.00     2200.00
03326             -80.00     2000.00
03327             -60.00     1800.00
03328             -60.00     1400.00
03329             -80.00     1400.00
03330             -80.00     1400.00
03331             -60.00     1000.00
03332             -80.00     1000.00
03333             -80.00      800.00
03334             -60.00      600.00
03335             -20.00      200.00
03336             -20.00      200.00
03337             -40.00        0.00
03338             -20.00     -200.00
03339              20.00     -200.00
03340             100.00     -400.00
03341             140.00     -600.00
03342              80.00     -800.00
03343              40.00    -1000.00
03344              20.00    -1000.00
03345              20.00    -1400.00
03346             180.00    -1400.00
03347             720.00    -1800.00
03348            1040.00    -2200.00
03349             300.00    -2200.00
03350            -740.00    -2400.00
03351           -1280.00    -2600.00
03352           -1380.00    -2600.00
03353             -60.00    -2600.00
03354             720.00    -3400.00
03355             100.00    -2800.00
03356             480.00    -3600.00
03357             400.00    -3600.00
03358            -100.00    -3400.00
03359             220.00    -4200.00
03360             -80.00    -4000.00
03361              20.00    -4200.00
03362             320.00    -4600.00
03363             -80.00    -4400.00
03364            -160.00    -5000.00
03365             -40.00    -4800.00
03366             100.00    -5000.00
03367              80.00    -5400.00
03368             100.00    -5200.00
03369             140.00    -5800.00
03370             -20.00    -5400.00
03371             160.00    -5800.00
03372             180.00    -6000.00
03373               0.00    -6000.00
03374             100.00    -6600.00
03375             140.00    -6200.00
03376              80.00    -6600.00
03377              20.00    -6800.00
03378              80.00    -6800.00
03379             160.00    -7000.00
03380             140.00    -7000.00
03381             120.00    -7200.00
03382             100.00    -7400.00
03383             140.00    -7400.00
03384             120.00    -7600.00
03385             140.00    -7800.00
03386             100.00    -7800.00
03387              80.00    -7800.00
03388             120.00    -8200.00
03389             160.00    -8200.00
03390             140.00    -8400.00
03391             140.00    -8400.00
03392             160.00    -8400.00
03393             140.00    -8600.00
03394             100.00    -8600.00
03395             160.00    -8600.00
03396             160.00    -8600.00
03397             140.00    -9000.00
03398             140.00    -9000.00
03399             140.00    -9000.00
03400             160.00    -9200.00
03401             160.00    -9200.00
03402             200.00    -9200.00
03403             180.00    -9200.00
03404             160.00    -9400.00
03405             160.00    -9400.00
03406             140.00    -9400.00
03407             140.00    -9400.00
03408             180.00    -9400.00
03409             220.00    -9600.00
03410             200.00    -9600.00
03411             180.00    -9600.00
03412             180.00    -9800.00
03413             160.00    -9800.00
03414             160.00    -9800.00
03415             180.00    -9800.00
03416             200.00    -9800.00
03417             220.00    -9800.00
03418             200.00    -9800.00
03419             200.00    -9800.00
03420             160.00    -9800.00
03421             160.00    -9800.00
03422             200.00    -9800.00
03423             220.00    -9800.00
03424             220.00    -9800.00
03425             180.00    -9800.00
03426             160.00    -9800.00
03427             160.00    -9800.00
03428             180.00    -9800.00
03429             220.00    -9800.00
03430             220.00    -9800.00
03431             180.00    -9600.00
03432             180.00    -9600.00
03433             160.00    -9600.00
03434             180.00    -9400.00
03435             220.00    -9400.00
03436             220.00    -9400.00
03437             200.00    -9400.00
03438             180.00    -9400.00
03439             180.00    -9200.00
03440             180.00    -9200.00
03441             180.00    -9000.00
03442             200.00    -9000.00
03443             220.00    -9000.00
03444             180.00    -8800.00
03445             160.00    -8800.00
03446             160.00    -8600.00
03447             180.00    -8600.00
03448             180.00    -8600.00
03449             220.00    -8600.00
03450             200.00    -8400.00
03451             180.00    -8400.00
03452             160.00    -8200.00
03453             160.00    -8200.00
03454             160.00    -7800.00
03455             180.00    -7800.00
03456             220.00    -7600.00
03457             200.00    -7600.00
03458             160.00    -7600.00
03459             140.00    -7200.00
03460             140.00    -7200.00
03461             160.00    -7000.00
03462             160.00    -6800.00
03463             180.00    -6800.00
03464             160.00    -6800.00
03465             160.00    -6600.00
03466             160.00    -6400.00
03467             160.00    -6200.00
03468             160.00    -6000.00
03469             160.00    -6000.00
03470             160.00    -5800.00
03471             140.00    -5800.00
03472             140.00    -5400.00
03473             140.00    -5400.00
03474             140.00    -5400.00
03475             160.00    -5000.00
03476             140.00    -5000.00
03477             140.00    -4800.00
03478             140.00    -4600.00
03479             140.00    -4400.00
03480             140.00    -4200.00
03481             140.00    -4000.00
03482             120.00    -3800.00
03483             100.00    -3800.00
03484             100.00    -3400.00
03485             100.00    -3200.00
03486             100.00    -3200.00
03487             100.00    -3000.00
03488             100.00    -3000.00
03489             100.00    -2800.00
03490              80.00    -2600.00
03491              80.00    -2200.00
03492              80.00    -2200.00
03493              80.00    -2000.00
03494              60.00    -1800.00
03495              80.00    -1800.00
03496              80.00    -1400.00
03497              80.00    -1200.00
03498              60.00    -1000.00
03499              60.00    -1000.00
03500              60.00     -800.00
03501              60.00     -600.00
03502              60.00     -400.00
03503              60.00     -200.00
03504              60.00        0.00
03505              60.00      200.00
03506              80.00      400.00
03507             180.00      600.00
03508             180.00      600.00
03509             160.00      800.00
03510             100.00     1000.00
03511              80.00     1200.00
03512              80.00     1400.00
03513             320.00     1400.00
03514            1120.00     1800.00
03515            1040.00     2000.00
03516            -160.00     2200.00
03517           -1360.00     2200.00
03518           -1940.00     2200.00
03519            -600.00     3000.00
03520            1020.00     3000.00
03521             220.00     2800.00
03522             320.00     3200.00
03523             620.00     3000.00
03524            -260.00     3800.00
03525             -60.00     4000.00
03526            -100.00     3600.00
03527             -20.00     4400.00
03528             460.00     4200.00
03529            -300.00     4000.00
03530            -160.00     5000.00
03531               0.00     4400.00
03532            -240.00     5000.00
03533              60.00     5000.00
03534               0.00     5200.00
03535              60.00     5800.00
03536            -140.00     5200.00
03537             -60.00     5800.00
03538             100.00     6000.00
03539            -220.00     5800.00
03540             -20.00     6200.00
03541             -20.00     6200.00
03542             -80.00     6600.00
03543            -100.00     6600.00
03544            -120.00     6600.00
03545             -20.00     7000.00
03546             -60.00     6800.00
03547               0.00     7200.00
03548            -100.00     7200.00
03549            -100.00     7400.00
03550            -100.00     7400.00
03551             -80.00     7600.00
03552             -80.00     7800.00
03553            -120.00     7800.00
03554            -100.00     8000.00
03555            -180.00     7800.00
03556            -100.00     8200.00
03557            -100.00     8200.00
03558             -80.00     8400.00
03559            -160.00     8400.00
03560            -160.00     8400.00
03561            -140.00     8600.00
03562            -140.00     8600.00
03563            -100.00     8600.00
03564            -140.00     8800.00
03565            -160.00     9000.00
03566            -180.00     9000.00
03567            -100.00     9200.00
03568            -100.00     9200.00
03569            -160.00     9200.00
03570            -160.00     9200.00
03571            -160.00     9400.00
03572            -180.00     9400.00
03573            -180.00     9400.00
03574            -160.00     9400.00
03575            -160.00     9800.00
03576            -160.00     9600.00
03577            -160.00     9600.00
03578            -160.00     9800.00
03579            -200.00     9800.00
03580            -180.00     9800.00
03581            -160.00     9800.00
03582            -160.00     9800.00
03583            -180.00     9800.00
03584            -180.00     9800.00
03585            -160.00     9800.00
03586            -200.00     9800.00
03587            -160.00    10000.00
03588            -160.00     9800.00
03589            -180.00     9800.00
03590            -160.00     9800.00
03591            -180.00     9800.00
03592            -180.00     9800.00
03593            -220.00     9800.00
03594            -180.00     9800.00
03595            -160.00     9800.00
03596            -160.00     9800.00
03597            -160.00     9800.00
03598            -180.00     9600.00
03599            -180.00     9600.00
03600            -180.00     9600.00
03601            -160.00     9600.00
03602            -160.00     9400.00
03603            -180.00     9400.00
03604            -160.00     9200.00
03605            -200.00     9200.00
03606            -200.00     9200.00
03607            -200.00     9200.00
03608            -160.00     9200.00
03609            -160.00     9000.00
03610            -160.00     9000.00
03611            -180.00     9000.00
03612            -200.00     8800.00
03613            -180.00     8600.00
03614            -180.00     8600.00
03615            -160.00     8600.00
03616            -180.00     8600.00
03617            -180.00     8400.00
03618            -180.00     8200.00
03619            -180.00     8200.00
03620            -180.00     8200.00
03621            -160.00     7800.00
03622            -160.00     7800.00
03623            -160.00     7600.00
03624            -180.00     7600.00
03625            -180.00     7400.00
03626            -180.00     7400.00
03627            -160.00     7200.00
03628            -160.00     7000.00
03629            -160.00     7000.00
03630            -160.00     6800.00
03631            -180.00     6800.00
03632            -160.00     6600.00
03633            -160.00     6200.00
03634            -160.00     6200.00
03635            -160.00     6200.00
03636            -140.00     6000.00
03637            -160.00     5800.00
03638            -160.00     5800.00
03639            -160.00     5400.00
03640            -160.00     5600.00
03641            -120.00     5400.00
03642            -120.00     5000.00
03643            -140.00     5000.00
03644            -140.00     4800.00
03645            -140.00     4600.00
03646            -140.00     4400.00
03647            -120.00     4200.00
03648            -100.00     4200.00
03649            -100.00     4000.00
03650            -100.00     3800.00
03651            -100.00     3600.00
03652            -100.00     3600.00
03653            -100.00     3400.00
03654            -100.00     3000.00
03655             -80.00     3000.00
03656            -100.00     2800.00
03657            -100.00     2600.00
03658            -120.00     2200.00
03659            -100.00     2200.00
03660            -100.00     2000.00
03661             -60.00     1800.00
03662             -80.00     1800.00
03663             -60.00     1400.00
03664             -80.00     1200.00
03665             -80.00     1200.00
03666             -80.00     1000.00
03667             -80.00      800.00
03668             -60.00      600.00
03669             -40.00      400.00
03670             -60.00      200.00
03671             -20.00      200.00
03672             -20.00     -200.00
03673              20.00     -400.00
03674             100.00     -400.00
03675             140.00     -600.00
03676             100.00     -800.00
03677              60.00    -1000.00
03678              20.00    -1000.00
03679               0.00    -1400.00
03680              80.00    -1400.00
03681             460.00    -1600.00
03682            1040.00    -2000.00
03683             680.00    -2400.00
03684            -400.00    -2400.00
03685           -1120.00    -2600.00
03686           -1460.00    -2600.00
03687            -700.00    -2400.00
03688             660.00    -3200.00
03689             300.00    -3200.00
03690             260.00    -3000.00
03691             580.00    -3800.00
03692             -20.00    -3400.00
03693             140.00    -3600.00
03694              80.00    -4200.00
03695            -100.00    -4000.00
03696             320.00    -4400.00
03697             100.00    -4400.00
03698            -180.00    -4600.00
03699            -100.00    -5000.00
03700              20.00    -5000.00
03701             100.00    -5400.00
03702              60.00    -5400.00
03703             160.00    -5400.00
03704               0.00    -5800.00
03705              60.00    -5800.00
03706             220.00    -6000.00
03707              60.00    -6000.00
03708              60.00    -6200.00
03709             140.00    -6600.00
03710             140.00    -6400.00
03711              60.00    -6800.00
03712              20.00    -6600.00
03713             160.00    -7000.00
03714             140.00    -7000.00
03715             100.00    -7000.00
03716             100.00    -7400.00
03717             140.00    -7200.00
03718             120.00    -7600.00
03719             140.00    -7800.00
03720             140.00    -7600.00
03721              80.00    -7800.00
03722             100.00    -8200.00
03723             140.00    -8200.00
03724             160.00    -8200.00
03725             140.00    -8400.00
03726             160.00    -8400.00
03727             140.00    -8600.00
03728             100.00    -8600.00
03729             140.00    -8600.00
03730             160.00    -8800.00
03731             140.00    -8800.00
03732             140.00    -9000.00
03733             160.00    -9000.00
03734             140.00    -9000.00
03735             160.00    -9200.00
03736             200.00    -9200.00
03737             220.00    -9200.00
03738             140.00    -9200.00
03739             160.00    -9400.00
03740             160.00    -9400.00
03741             180.00    -9400.00
03742             160.00    -9400.00
03743             180.00    -9400.00
03744             200.00    -9600.00
03745             160.00    -9600.00
03746             180.00    -9800.00
03747             160.00    -9600.00
03748             160.00    -9800.00
03749             180.00    -9800.00
03750             180.00    -9600.00
03751             160.00    -9800.00
03752             160.00    -9800.00
03753             180.00    -9800.00
03754             160.00    -9800.00
03755             180.00    -9800.00
03756             220.00    -9800.00
03757             220.00    -9800.00
03758             180.00    -9800.00
03759             180.00    -9800.00
03760             180.00    -9800.00
03761             160.00    -9800.00
03762             180.00    -9800.00
03763             220.00    -9800.00
03764             220.00    -9800.00
03765             180.00    -9600.00
03766             180.00    -9600.00
03767             180.00    -9400.00
03768             160.00    -9400.00
03769             180.00    -9400.00
03770             200.00    -9400.00
03771             200.00    -9400.00
03772             180.00    -9200.00
03773             160.00    -9200.00
03774             180.00    -9200.00
03775             180.00    -9200.00
03776             220.00    -9200.00
03777             220.00    -9000.00
03778             200.00    -9000.00
03779             180.00    -8800.00
03780             160.00    -8600.00
03781             180.00    -8600.00
03782             180.00    -8600.00
03783             200.00    -8400.00
03784             180.00    -8400.00
03785             160.00    -8400.00
03786             180.00    -8200.00
03787             180.00    -7800.00
03788             180.00    -8000.00
03789             180.00    -7800.00
03790             180.00    -7600.00
03791             160.00    -7600.00
03792             160.00    -7600.00
03793             160.00    -7200.00
03794             160.00    -7200.00
03795             160.00    -7000.00
03796             180.00    -7000.00
03797             180.00    -6800.00
03798             160.00    -6800.00
03799             160.00    -6600.00
03800             160.00    -6600.00
03801             140.00    -6400.00
03802             160.00    -6200.00
03803             160.00    -6000.00
03804             160.00    -5800.00
03805             140.00    -5800.00
03806             140.00    -5600.00
03807             140.00    -5400.00
03808             140.00    -5400.00
03809             160.00    -5200.00
03810             140.00    -5000.00
03811             140.00    -4800.00
03812             120.00    -4600.00
03813             140.00    -4600.00
03814             120.00    -4200.00
03815             120.00    -4200.00
03816             140.00    -4200.00
03817             140.00    -3800.00
03818             120.00    -3600.00
03819             100.00    -3400.00
03820             100.00    -3400.00
03821             100.00    -3200.00
03822             100.00    -3000.00
03823             100.00    -2800.00
03824              80.00    -2800.00
03825              80.00    -2600.00
03826              80.00    -2200.00
03827              80.00    -2000.00
03828              80.00    -2000.00
03829              80.00    -1800.00
03830             100.00    -1800.00
03831              60.00    -1200.00
03832              60.00    -1000.00
03833              60.00     -800.00
03834              60.00     -800.00
03835              60.00     -600.00
03836              60.00     -400.00
03837              60.00     -200.00
03838              60.00        0.00
03839              60.00      200.00
03840              60.00      400.00
03841             140.00      600.00
03842             180.00      600.00
03843             180.00      800.00
03844             140.00     1000.00
03845              80.00     1200.00
03846              80.00     1400.00
03847             160.00     1400.00
03848             820.00     1800.00
03849            1260.00     2000.00
03850             380.00     2000.00
03851            -980.00     2200.00
03852           -1840.00     2200.00
03853           -1380.00     2600.00
03854             700.00     3000.00
03855             620.00     2600.00
03856              60.00     3200.00
03857             700.00     3000.00
03858              20.00     3400.00
03859            -240.00     4200.00
03860              20.00     3600.00
03861            -220.00     4200.00
03862             400.00     4600.00
03863               0.00     3800.00
03864            -340.00     5000.00
03865              60.00     5000.00
03866            -240.00     4600.00
03867             -20.00     5200.00
03868              60.00     5000.00
03869               0.00     5800.00
03870             -20.00     5400.00
03871            -160.00     5400.00
03872             140.00     6200.00
03873            -140.00     5800.00
03874            -140.00     6200.00
03875               0.00     6200.00
03876             -80.00     6400.00
03877             -60.00     6600.00
03878            -140.00     6400.00
03879             -40.00     7000.00
03880             -80.00     6600.00
03881             -20.00     7000.00
03882             -80.00     7000.00
03883            -120.00     7400.00
03884            -140.00     7400.00
03885            -120.00     7600.00
03886             -80.00     7800.00
03887            -140.00     7800.00
03888            -100.00     7800.00
03889            -140.00     8000.00
03890            -120.00     8200.00
03891            -100.00     8200.00
03892             -80.00     8400.00
03893            -120.00     8600.00
03894            -180.00     8400.00
03895            -140.00     8600.00
03896            -140.00     8600.00
03897            -100.00     8600.00
03898            -120.00     9000.00
03899            -160.00     9000.00
03900            -180.00     9000.00
03901            -160.00     9000.00
03902            -120.00     9200.00
03903            -140.00     9200.00
03904            -140.00     9200.00
03905            -160.00     9400.00
03906            -160.00     9400.00
03907            -180.00     9600.00
03908            -160.00     9600.00
03909            -160.00     9600.00
03910            -140.00     9400.00
03911            -140.00     9800.00
03912            -160.00     9600.00
03913            -220.00     9800.00
03914            -220.00     9800.00
03915            -140.00     9800.00
03916            -140.00     9800.00
03917            -180.00     9800.00
03918            -180.00     9800.00
03919            -180.00     9800.00
03920            -220.00     9800.00
03921            -180.00    10000.00
03922            -140.00     9800.00
03923            -140.00    10000.00
03924            -160.00    10000.00
03925            -180.00    10000.00
03926            -180.00     9800.00
03927            -220.00     9800.00
03928            -220.00     9800.00
03929            -160.00    10000.00
03930            -160.00     9800.00
03931            -160.00     9800.00
03932            -180.00     9800.00
03933            -180.00     9600.00
03934            -180.00     9600.00
03935            -200.00     9600.00
03936            -180.00     9400.00
03937            -180.00     9400.00
03938            -160.00     9400.00
03939            -160.00     9400.00
03940            -180.00     9200.00
03941            -180.00     9200.00
03942            -160.00     9200.00
03943            -160.00     9200.00
03944            -160.00     9000.00
03945            -180.00     9000.00
03946            -180.00     8800.00
03947            -220.00     8600.00
03948            -180.00     8600.00
03949            -160.00     8600.00
03950            -180.00     8400.00
03951            -180.00     8400.00
03952            -180.00     8200.00
03953            -200.00     8200.00
03954            -180.00     8200.00
03955            -180.00     8000.00
03956            -160.00     7800.00
03957            -160.00     7800.00
03958            -180.00     7800.00
03959            -180.00     7600.00
03960            -180.00     7400.00
03961            -160.00     7200.00
03962            -160.00     7200.00
03963            -160.00     7000.00
03964            -160.00     7000.00
03965            -180.00     6600.00
03966            -180.00     6600.00
03967            -180.00     6600.00
03968            -160.00     6400.00
03969            -140.00     6200.00
03970            -140.00     6000.00
03971            -140.00     6000.00
03972            -160.00     5800.00
03973            -180.00     5600.00
03974            -160.00     5600.00
03975            -140.00     5400.00
03976            -100.00     5200.00
03977            -100.00     5000.00
03978            -140.00     5000.00
03979            -140.00     4600.00
03980            -140.00     4600.00
03981            -140.00     4400.00
03982            -100.00     4200.00
03983            -100.00     4200.00
03984            -100.00     3800.00
03985            -100.00     3600.00
03986            -100.00     3600.00
03987            -100.00     3400.00
03988            -100.00     3200.00
03989            -100.00     3000.00
03990            -100.00     2800.00
03991            -100.00     2600.00
03992            -100.00     2600.00
03993            -100.00     2400.00
03994             -80.00     2200.00
03995             -80.00     2000.00
03996             -60.00     1800.00
03997             -60.00     1400.00
03998             -80.00     1400.00
03999             -80.00     1200.00
04000             -60.00     1000.00
04001             -60.00      800.00
04002             -60.00      600.00
04003             -20.00      600.00
04004             -60.00      400.00
04005             -40.00      200.00
04006             -60.00     -200.00
04007             -20.00     -400.00
04008              60.00     -400.00
04009             140.00     -400.00
04010             140.00     -800.00
04011              60.00     -800.00
04012              20.00    -1200.00
04013               0.00    -1200.00
04014              20.00    -1400.00
04015             240.00    -1600.00
04016             860.00    -1800.00
04017             960.00    -2200.00
04018              20.00    -2200.00
04019            -900.00    -2600.00
04020           -1380.00    -2600.00
04021           -1180.00    -2200.00
04022             300.00    -2800.00
04023             560.00    -3200.00
04024             120.00    -2800.00
04025             580.00    -3600.00
04026             220.00    -3600.00
04027             -20.00    -3400.00
04028             180.00    -4200.00
04029            -160.00    -3800.00
04030             160.00    -4400.00
04031             280.00    -4400.00
04032            -140.00    -4600.00
04033            -140.00    -5000.00
04034             -60.00    -4600.00
04035             120.00    -5000.00
04036              60.00    -5200.00
04037             140.00    -5200.00
04038              80.00    -5600.00
04039             -20.00    -5400.00
04040             180.00    -6000.00
04041             100.00    -6000.00
04042               0.00    -6000.00
04043             140.00    -6400.00
04044             140.00    -6200.00
04045              80.00    -6600.00
04046               0.00    -6800.00
04047             100.00    -6800.00
04048             160.00    -7000.00
04049             140.00    -7000.00
04050             100.00    -7400.00
04051             100.00    -7200.00
04052             140.00    -7400.00
04053             140.00    -7600.00
04054             140.00    -7600.00
04055             100.00    -7800.00
04056              80.00    -8000.00
04057             140.00    -8000.00
04058             160.00    -8200.00
04059             140.00    -8400.00
04060             160.00    -8400.00
04061             160.00    -8600.00
04062             120.00    -8400.00
04063             140.00    -8600.00
04064             160.00    -8600.00
04065             160.00    -8600.00
04066             140.00    -9000.00
04067             140.00    -9000.00
04068             140.00    -9000.00
04069             140.00    -9200.00
04070             180.00    -9200.00
04071             180.00    -9400.00
04072             180.00    -9200.00
04073             160.00    -9400.00
04074             140.00    -9400.00
04075             160.00    -9400.00
04076             160.00    -9400.00
04077             160.00    -9400.00
04078             200.00    -9600.00
04079             180.00    -9600.00
04080             160.00    -9800.00
04081             160.00    -9800.00
04082             160.00    -9600.00
04083             160.00    -9800.00
04084             180.00    -9800.00
04085             180.00    -9800.00
04086             160.00    -9800.00
04087             160.00    -9800.00
04088             160.00    -9800.00
04089             160.00    -9800.00
04090             180.00    -9800.00
04091             220.00    -9800.00
04092             180.00    -9800.00
04093             180.00    -9800.00
04094             180.00    -9800.00
04095             180.00    -9800.00
04096             180.00    -9800.00
04097             160.00    -9800.00
04098             220.00    -9600.00
04099             220.00    -9600.00
04100             180.00    -9400.00
04101             180.00    -9600.00
04102             160.00    -9400.00
04103             180.00    -9400.00
04104             220.00    -9400.00
04105             220.00    -9400.00
04106             220.00    -9400.00
04107             180.00    -9200.00
04108             180.00    -9200.00
04109             180.00    -9000.00
04110             180.00    -9000.00
04111             220.00    -9000.00
04112             200.00    -9000.00
04113             180.00    -9000.00
04114             180.00    -8800.00
04115             160.00    -8600.00
04116             160.00    -8600.00
04117             200.00    -8600.00
04118             180.00    -8200.00
04119             220.00    -8400.00
04120             180.00    -8200.00
04121             180.00    -8200.00
04122             160.00    -8000.00
04123             160.00    -8000.00
04124             180.00    -7800.00
04125             180.00    -7600.00
04126             180.00    -7600.00
04127             160.00    -7200.00
04128             160.00    -7200.00
04129             160.00    -7000.00
04130             160.00    -7000.00
04131             180.00    -6800.00
04132             160.00    -6600.00
04133             160.00    -6600.00
04134             140.00    -6600.00
04135             140.00    -6400.00
04136             140.00    -6200.00
04137             160.00    -6000.00
04138             180.00    -6000.00
04139             160.00    -5800.00
04140             140.00    -5600.00
04141             140.00    -5400.00
04142             100.00    -5400.00
04143             140.00    -5200.00
04144             160.00    -5000.00
04145             140.00    -4800.00
04146             140.00    -4600.00
04147             140.00    -4600.00
04148             100.00    -4400.00
04149             120.00    -4400.00
04150             100.00    -4200.00
04151             120.00    -4000.00
04152             100.00    -3600.00
04153              80.00    -3400.00
04154             100.00    -3400.00
04155             100.00    -3000.00
04156              80.00    -3000.00
04157             100.00    -2800.00
04158             100.00    -2600.00
04159              80.00    -2600.00
04160              80.00    -2200.00
04161              80.00    -2200.00
04162              80.00    -2000.00
04163              80.00    -1800.00
04164              80.00    -1800.00
04165              80.00    -1400.00
04166              80.00    -1200.00
04167              60.00     -800.00
04168              60.00     -800.00
04169              60.00     -600.00
04170              60.00     -400.00
04171              60.00     -400.00
04172              60.00        0.00
04173              60.00      200.00
04174              60.00      400.00
04175             100.00      400.00
04176             160.00      600.00
04177             160.00      600.00
04178             160.00     1000.00
04179             120.00     1000.00
04180              80.00     1200.00
04181             120.00     1400.00
04182             500.00     1800.00
04183            1220.00     2000.00
04184             820.00     2200.00
04185            -500.00     2200.00
04186           -1580.00     2200.00
04187           -1840.00     2400.00
04188             -20.00     3000.00
04189             960.00     2800.00
04190              60.00     3000.00
04191             520.00     3200.00
04192             380.00     3000.00
04193            -340.00     4200.00
04194              40.00     3800.00
04195            -180.00     3600.00
04196             160.00     4600.00
04197             320.00     4000.00
04198            -380.00     4400.00
04199             -60.00     5000.00
04200            -100.00     4600.00
04201            -160.00     5200.00
04202             100.00     5000.00
04203               0.00     5400.00
04204              40.00     5800.00
04205            -180.00     5200.00
04206               0.00     6000.00
04207               0.00     5800.00
04208            -220.00     6000.00
04209              20.00     6400.00
04210             -60.00     6200.00
04211             -80.00     6600.00
04212            -160.00     6600.00
04213            -140.00     7000.00
04214             -60.00     6800.00
04215             -20.00     7000.00
04216             -20.00     7400.00
04217            -160.00     7200.00
04218            -140.00     7400.00
04219            -140.00     7600.00
04220             -40.00     7600.00
04221            -100.00     7600.00
04222            -100.00     7800.00
04223            -160.00     8000.00
04224            -180.00     8200.00
04225            -100.00     8200.00
04226             -60.00     8200.00
04227             -80.00     8200.00
04228            -160.00     8400.00
04229            -180.00     8600.00
04230            -160.00     8800.00
04231            -140.00     8600.00
04232            -100.00     8600.00
04233            -140.00     9000.00
04234            -180.00     9000.00
04235            -220.00     9200.00
04236            -140.00     9200.00
04237            -120.00     9400.00
04238            -140.00     9200.00
04239            -140.00     9400.00
04240            -160.00     9400.00
04241            -180.00     9600.00
04242            -220.00     9400.00
04243            -160.00     9600.00
04244            -140.00     9800.00
04245            -140.00     9800.00
04246            -140.00     9800.00
04247            -160.00     9800.00
04248            -180.00     9800.00
04249            -180.00     9800.00
04250            -160.00    10000.00
04251            -180.00     9800.00
04252            -180.00     9800.00
04253            -160.00    10000.00
04254            -180.00     9800.00
04255            -180.00     9800.00
04256            -180.00     9800.00
04257            -180.00     9800.00
04258            -180.00    10000.00
04259            -160.00     9800.00
04260            -160.00     9800.00
04261            -180.00     9800.00
04262            -220.00    10000.00
04263            -180.00     9800.00
04264            -180.00     9800.00
04265            -160.00     9800.00
04266            -160.00     9800.00
04267            -180.00     9800.00
04268            -180.00     9600.00
04269            -220.00     9600.00
04270            -180.00     9400.00
04271            -200.00     9400.00
04272            -160.00     9400.00
04273            -160.00     9400.00
04274            -180.00     9400.00
04275            -200.00     9200.00
04276            -220.00     9200.00
04277            -180.00     9200.00
04278            -180.00     9000.00
04279            -180.00     8800.00
04280            -180.00     9000.00
04281            -180.00     8800.00
04282            -180.00     8600.00
04283            -180.00     8600.00
04284            -180.00     8600.00
04285            -180.00     8400.00
04286            -180.00     8200.00
04287            -180.00     8200.00
04288            -200.00     8200.00
04289            -180.00     8200.00
04290            -180.00     7800.00
04291            -180.00     7800.00
04292            -180.00     7800.00
04293            -160.00     7600.00
04294            -180.00     7400.00
04295            -160.00     7200.00
04296            -160.00     7200.00
04297            -140.00     7000.00
04298            -160.00     7000.00
04299            -160.00     6800.00
04300            -160.00     6600.00
04301            -160.00     6600.00
04302            -140.00     6400.00
04303            -140.00     6200.00
04304            -160.00     6200.00
04305            -140.00     6000.00
04306            -160.00     5800.00
04307            -160.00     5800.00
04308            -160.00     5600.00
04309            -140.00     5400.00
04310            -140.00     5400.00
04311            -120.00     5000.00
04312            -140.00     5000.00
04313            -140.00     4600.00
04314            -140.00     4600.00
04315            -140.00     4600.00
04316            -100.00     4400.00
04317            -100.00     4000.00
04318            -100.00     3800.00
04319            -100.00     3800.00
04320            -100.00     3600.00
04321            -100.00     3400.00
04322            -100.00     3200.00
04323            -100.00     3000.00
04324             -80.00     3000.00
04325             -80.00     2800.00
04326             -80.00     2400.00
04327            -100.00     2200.00
04328            -100.00     2200.00
04329            -100.00     2000.00
04330             -80.00     1800.00
04331             -60.00     1400.00
04332             -80.00     1400.00
04333             -80.00     1200.00
04334             -80.00     1200.00
04335             -80.00     1000.00
04336             -60.00      600.00
04337             -20.00      600.00
04338             -20.00      400.00
04339             -20.00      200.00
04340             -60.00      200.00
04341             -60.00     -200.00
04342               0.00     -400.00
04343             140.00     -600.00
04344             140.00     -600.00
04345              80.00     -800.00
04346              20.00    -1000.00
04347               0.00    -1200.00
04348              20.00    -1400.00
04349             100.00    -1400.00
04350             620.00    -1800.00
04351            1060.00    -2200.00
04352             420.00    -2200.00
04353            -640.00    -2400.00
04354           -1220.00    -2600.00
04355           -1440.00    -2600.00
04356            -260.00    -2600.00
04357             720.00    -3200.00
04358             140.00    -3000.00
04359             400.00    -3400.00
04360             480.00    -3800.00
04361             -80.00    -3400.00
04362             200.00    -4200.00
04363             -20.00    -4200.00
04364             -80.00    -4200.00
04365             320.00    -4400.00
04366             -20.00    -4400.00
04367            -100.00    -5000.00
04368             -20.00    -4600.00
04369             100.00    -4800.00
04370              80.00    -5400.00
04371              80.00    -5200.00
04372             100.00    -5600.00
04373             -60.00    -5600.00
04374             140.00    -5800.00
04375             200.00    -6000.00
04376              20.00    -6000.00
04377             140.00    -6400.00
04378             140.00    -6600.00
04379              80.00    -6600.00
04380              20.00    -6800.00
04381              60.00    -6800.00
04382             160.00    -6800.00
04383             140.00    -7000.00
04384             140.00    -7200.00
04385             100.00    -7200.00
04386             120.00    -7400.00
04387             140.00    -7600.00
04388             140.00    -7600.00
04389             140.00    -7800.00
04390              80.00    -8000.00
04391             100.00    -8000.00
04392             140.00    -8200.00
04393             140.00    -8200.00
04394             140.00    -8200.00
04395             180.00    -8200.00
04396             160.00    -8600.00
04397             140.00    -8600.00
04398             160.00    -8800.00
04399             160.00    -8800.00
04400             140.00    -9000.00
04401             140.00    -9000.00
04402             140.00    -9000.00
04403             140.00    -9200.00
04404             160.00    -9200.00
04405             200.00    -9200.00
04406             180.00    -9400.00
04407             140.00    -9400.00
04408             160.00    -9400.00
04409             140.00    -9400.00
04410             140.00    -9400.00
04411             180.00    -9400.00
04412             180.00    -9800.00
04413             200.00    -9800.00
04414             160.00    -9800.00
04415             160.00    -9800.00
04416             140.00    -9800.00
04417             160.00    -9800.00
04418             180.00    -9800.00
04419             200.00    -9800.00
04420             180.00    -9800.00
04421             160.00    -9800.00
04422             160.00    -9800.00
04423             180.00    -9800.00
04424             180.00    -9800.00
04425             220.00    -9800.00
04426             200.00    -9800.00
04427             200.00    -9800.00
04428             180.00    -9800.00
04429             180.00    -9800.00
04430             180.00    -9800.00
04431             180.00    -9800.00
04432             220.00    -9800.00
04433             180.00    -9800.00
04434             220.00    -9600.00
04435             200.00    -9600.00
04436             180.00    -9600.00
04437             180.00    -9400.00
04438             220.00    -9400.00
04439             200.00    -9400.00
04440             180.00    -9400.00
04441             200.00    -9400.00
04442             180.00    -9200.00
04443             180.00    -9000.00
04444             180.00    -9200.00
04445             220.00    -9000.00
04446             220.00    -9000.00
04447             180.00    -8800.00
04448             180.00    -8800.00
04449             180.00    -8600.00
04450             180.00    -8600.00
04451             220.00    -8600.00
04452             180.00    -8400.00
04453             180.00    -8400.00
04454             180.00    -8200.00
04455             160.00    -8200.00
04456             180.00    -8200.00
04457             160.00    -7800.00
04458             200.00    -7800.00
04459             220.00    -7800.00
04460             180.00    -7600.00
04461             160.00    -7200.00
04462             160.00    -7200.00
04463             140.00    -7200.00
04464             160.00    -7000.00
04465             180.00    -7000.00
04466             160.00    -6800.00
04467             140.00    -6600.00
04468             160.00    -6600.00
04469             140.00    -6600.00
04470             160.00    -6200.00
04471             160.00    -6200.00
04472             160.00    -6000.00
04473             140.00    -6000.00
04474             140.00    -5800.00
04475             140.00    -5600.00
04476             140.00    -5400.00
04477             140.00    -5200.00
04478             160.00    -5200.00
04479             140.00    -5000.00
04480             140.00    -4800.00
04481             100.00    -4600.00
04482             100.00    -4400.00
04483             120.00    -4400.00
04484             120.00    -4200.00
04485             100.00    -4200.00
04486             140.00    -3800.00
04487             100.00    -3600.00
04488             100.00    -3400.00
04489             100.00    -3400.00
04490             120.00    -3200.00
04491             100.00    -2800.00
04492             100.00    -2800.00
04493              80.00    -2600.00
04494              80.00    -2400.00
04495              80.00    -2200.00
04496              80.00    -2000.00
04497              80.00    -1800.00
04498             100.00    -1800.00
04499              80.00    -1200.00
04500              80.00    -1200.00
04501              60.00    -1200.00
04502              60.00     -800.00
04503              80.00     -600.00
04504              60.00     -600.00
04505              80.00     -400.00
04506              80.00     -200.00
04507              60.00      200.00
04508              60.00      200.00
04509             100.00      400.00
04510             180.00      600.00
04511             180.00      600.00
04512             180.00     1000.00
04513             140.00     1000.00
04514              80.00     1200.00
04515              80.00     1400.00
04516             260.00     1600.00
04517            1040.00     1800.00
04518            1140.00     2000.00
04519              20.00     2000.00
04520           -1220.00     2000.00
04521           -1940.00     2200.00
04522            -860.00     2800.00
04523             960.00     3000.00
04524             320.00     2800.00
04525             220.00     3400.00
04526             640.00     3000.00
04527            -220.00     3800.00
04528            -100.00     4200.00
04529             -60.00     3400.00
04530            -100.00     4400.00
04531             460.00     4200.00
04532            -200.00     3800.00
04533            -240.00     5000.00
04534               0.00     4600.00
04535            -260.00     5000.00
04536              60.00     5000.00
04537               0.00     5000.00
04538              20.00     5800.00
04539            -100.00     5200.00
04540            -100.00     5800.00
04541             100.00     6000.00
04542            -180.00     5800.00
04543             -60.00     6200.00
04544             -20.00     6200.00
04545             -80.00     6600.00
04546             -80.00     6600.00
04547            -140.00     6600.00
04548             -60.00     7000.00
04549            -100.00     6600.00
04550             -20.00     7200.00
04551            -100.00     7000.00
04552             -80.00     7400.00
04553            -100.00     7400.00
04554            -100.00     7600.00
04555            -100.00     7600.00
04556            -160.00     7800.00
04557            -100.00     7800.00
04558            -160.00     8000.00
04559             -80.00     8200.00
04560             -80.00     8400.00
04561             -80.00     8400.00
04562            -140.00     8400.00
04563            -180.00     8400.00
04564            -120.00     8600.00
04565            -140.00     8600.00
04566            -100.00     8600.00
04567            -120.00     8600.00
04568            -160.00     9000.00
04569            -180.00     9000.00
04570            -140.00     9200.00
04571            -100.00     9200.00
04572            -140.00     9200.00
04573            -140.00     9400.00
04574            -160.00     9400.00
04575            -160.00     9400.00
04576            -180.00     9400.00
04577            -180.00     9600.00
04578            -160.00     9400.00
04579            -140.00     9600.00
04580            -140.00     9800.00
04581            -160.00     9800.00
04582            -180.00     9800.00
04583            -180.00     9800.00
04584            -160.00     9800.00
04585            -160.00     9800.00
04586            -160.00    10000.00
04587            -160.00     9800.00
04588            -180.00     9800.00
04589            -180.00     9800.00
04590            -160.00     9800.00
04591            -160.00     9800.00
04592            -180.00    10000.00
04593            -180.00     9800.00
04594            -160.00     9800.00
04595            -160.00     9800.00
04596            -180.00     9800.00
04597            -180.00     9800.00
04598            -180.00     9800.00
04599            -180.00     9800.00
04600            -180.00     9800.00
04601            -180.00     9800.00
04602            -180.00     9800.00
04603            -180.00     9400.00
04604            -180.00     9600.00
04605            -180.00     9600.00
04606            -180.00     9400.00
04607            -180.00     9400.00
04608            -220.00     9400.00
04609            -220.00     9200.00
04610            -220.00     9400.00
04611            -180.00     9200.00
04612            -180.00     9000.00
04613            -160.00     9200.00
04614            -180.00     9000.00
04615            -220.00     8800.00
04616            -180.00     8600.00
04617            -180.00     8600.00
04618            -180.00     8600.00
04619            -180.00     8600.00
04620            -180.00     8600.00
04621            -180.00     8200.00
04622            -220.00     8200.00
04623            -180.00     8200.00
04624            -180.00     7800.00
04625            -160.00     7800.00
04626            -160.00     7800.00
04627            -160.00     7800.00
04628            -180.00     7600.00
04629            -180.00     7400.00
04630            -160.00     7400.00
04631            -160.00     7200.00
04632            -160.00     7000.00
04633            -160.00     6800.00
04634            -160.00     6600.00
04635            -160.00     6600.00
04636            -160.00     6600.00
04637            -140.00     6200.00
04638            -160.00     6200.00
04639            -160.00     6000.00
04640            -140.00     6000.00
04641            -140.00     5800.00
04642            -160.00     5600.00
04643            -160.00     5400.00
04644            -140.00     5400.00
04645            -120.00     5200.00
04646            -140.00     5000.00
04647            -140.00     4800.00
04648            -140.00     4800.00
04649            -160.00     4400.00
04650            -140.00     4400.00
04651            -140.00     4200.00
04652            -100.00     4200.00
04653            -100.00     3800.00
04654            -100.00     3600.00
04655            -100.00     3400.00
04656            -100.00     3400.00
04657            -100.00     3200.00
04658            -100.00     3000.00
04659            -100.00     2800.00
04660            -100.00     2800.00
04661            -100.00     2600.00
04662            -100.00     2200.00
04663             -80.00     2000.00
04664            -100.00     2000.00
04665             -80.00     1800.00
04666             -80.00     1400.00
04667             -80.00     1400.00
04668             -80.00     1200.00
04669             -80.00     1000.00
04670             -80.00      800.00
04671             -60.00      600.00
04672             -60.00      400.00
04673             -20.00      400.00
04674             -20.00      200.00
04675             -20.00     -200.00
04676               0.00     -200.00
04677              80.00     -400.00
04678             120.00     -600.00
04679             100.00     -800.00
04680              60.00    -1000.00
04681               0.00    -1000.00
04682               0.00    -1400.00
04683              60.00    -1400.00
04684             380.00    -1400.00
04685            1020.00    -2000.00
04686             780.00    -2200.00
04687            -240.00    -2200.00
04688           -1060.00    -2600.00
04689           -1440.00    -2600.00
04690            -880.00    -2400.00
04691             620.00    -3000.00
04692             380.00    -3200.00
04693             220.00    -3000.00
04694             640.00    -3800.00
04695              20.00    -3400.00
04696             100.00    -3600.00
04697             140.00    -4200.00
04698            -140.00    -3800.00
04699             280.00    -4600.00
04700             160.00    -4400.00
04701            -160.00    -4600.00
04702            -100.00    -5000.00
04703              20.00    -4600.00
04704             140.00    -5200.00
04705              60.00    -5200.00
04706             140.00    -5400.00
04707              40.00    -5600.00
04708              20.00    -5600.00
04709             220.00    -6000.00
04710              60.00    -5800.00
04711              60.00    -6200.00
04712             140.00    -6200.00
04713             120.00    -6200.00
04714              80.00    -6600.00
04715              20.00    -6800.00
04716             140.00    -6800.00
04717             160.00    -7000.00
04718             140.00    -7200.00
04719             120.00    -7400.00
04720             140.00    -7200.00
04721             120.00    -7400.00
04722             140.00    -7600.00
04723             140.00    -7600.00
04724              80.00    -7800.00
04725              80.00    -7800.00
04726             160.00    -8200.00
04727             160.00    -8200.00
04728             140.00    -8400.00
04729             140.00    -8400.00
04730             160.00    -8600.00
04731             100.00    -8600.00
04732             140.00    -8600.00
04733             160.00    -8600.00
04734             160.00    -9000.00
04735             140.00    -9000.00
04736             140.00    -9000.00
04737             140.00    -9200.00
04738             140.00    -9200.00
04739             180.00    -9200.00
04740             180.00    -9200.00
04741             160.00    -9400.00
04742             140.00    -9400.00
04743             140.00    -9400.00
04744             140.00    -9400.00
04745             160.00    -9600.00
04746             180.00    -9600.00
04747             200.00    -9600.00
04748             160.00    -9800.00
04749             180.00    -9600.00
04750             160.00    -9800.00
04751             160.00    -9800.00
04752             180.00    -9800.00
04753             220.00    -9800.00
04754             180.00    -9800.00
04755             180.00    -9800.00
04756             160.00    -9800.00
04757             160.00    -9800.00
04758             180.00    -9800.00
04759             180.00    -9800.00
04760             220.00    -9800.00
04761             180.00    -9800.00
04762             180.00    -9800.00
04763             180.00    -9800.00
04764             180.00    -9800.00
04765             180.00    -9800.00
04766             220.00    -9800.00
04767             220.00    -9400.00
04768             220.00    -9600.00
04769             180.00    -9600.00
04770             200.00    -9600.00
04771             160.00    -9600.00
04772             180.00    -9400.00
04773             220.00    -9400.00
04774             220.00    -9200.00
04775             180.00    -9400.00
04776             180.00    -9200.00
04777             180.00    -9200.00
04778             180.00    -9000.00
04779             180.00    -9200.00
04780             220.00    -9000.00
04781             220.00    -9000.00
04782             200.00    -9000.00
04783             160.00    -8800.00
04784             180.00    -8600.00
04785             180.00    -8800.00
04786             200.00    -8400.00
04787             220.00    -8400.00
04788             220.00    -8200.00
04789             160.00    -8200.00
04790             180.00    -8200.00
04791             160.00    -8000.00
04792             180.00    -7800.00
04793             180.00    -7800.00
04794             180.00    -7600.00
04795             160.00    -7600.00
04796             160.00    -7400.00
04797             160.00    -7200.00
04798             160.00    -7000.00
04799             160.00    -7000.00
04800             160.00    -7000.00
04801             160.00    -6800.00
04802             140.00    -6600.00
04803             140.00    -6600.00
04804             140.00    -6400.00
04805             160.00    -6200.00
04806             160.00    -6200.00
04807             160.00    -6000.00
04808             140.00    -5800.00
04809             140.00    -5600.00
04810             140.00    -5400.00
04811             140.00    -5400.00
04812             140.00    -5200.00
04813             140.00    -5000.00
04814             140.00    -4800.00
04815             140.00    -4600.00
04816             140.00    -4600.00
04817             140.00    -4400.00
04818             120.00    -4200.00
04819             140.00    -4200.00
04820             140.00    -3800.00
04821             140.00    -3600.00
04822             100.00    -3400.00
04823             100.00    -3400.00
04824             100.00    -3000.00
04825             100.00    -2800.00
04826             100.00    -2800.00
04827             100.00    -2600.00
04828             100.00    -2400.00
04829              80.00    -2200.00
04830              80.00    -2000.00
04831              80.00    -2000.00
04832             100.00    -1800.00
04833             100.00    -1600.00
04834              80.00    -1200.00
04835              80.00    -1000.00
04836              80.00    -1000.00
04837              60.00     -800.00
04838              80.00     -600.00
04839              80.00     -600.00
04840              60.00     -200.00
04841              80.00      200.00
04842              60.00      200.00
04843              80.00      400.00
04844             140.00      400.00
04845             180.00      600.00
04846             180.00      800.00
04847             160.00     1000.00
04848             100.00     1200.00
04849              80.00     1200.00
04850             160.00     1400.00
04851             720.00     1800.00
04852            1260.00     1800.00
04853             540.00     2200.00
04854            -820.00     2200.00
04855           -1760.00     2200.00
04856           -1540.00     2800.00
04857             480.00     3000.00
04858             740.00     2800.00
04859               0.00     3200.00
04860             640.00     3200.00
04861             140.00     3200.00
04862            -300.00     4200.00
04863              60.00     3400.00
04864            -220.00     3800.00
04865             320.00     4600.00
04866             140.00     3800.00
04867            -400.00     4600.00
04868              60.00     4800.00
04869            -200.00     4600.00
04870             -80.00     5200.00
04871              60.00     5000.00
04872             -20.00     5800.00
04873             -20.00     5400.00
04874            -200.00     5400.00
04875             100.00     6200.00
04876             -80.00     5600.00
04877            -140.00     6200.00
04878              20.00     6200.00
04879            -100.00     6200.00
04880             -80.00     6800.00
04881            -160.00     6400.00
04882             -60.00     7000.00
04883             -80.00     6800.00
04884             -40.00     7000.00
04885             -80.00     7200.00
04886            -140.00     7000.00
04887            -100.00     7400.00
04888            -100.00     7600.00
04889             -60.00     7600.00
04890            -140.00     7800.00
04891            -100.00     7800.00
04892            -140.00     8200.00
04893            -140.00     8200.00
04894             -80.00     8200.00
04895             -80.00     8200.00
04896            -100.00     8400.00
04897            -180.00     8400.00
04898            -140.00     8600.00
04899            -140.00     8600.00
04900            -100.00     8600.00
04901            -100.00     9000.00
04902            -140.00     9000.00
04903            -180.00     9200.00
04904            -160.00     9000.00
04905            -100.00     9200.00
04906            -140.00     9200.00
04907            -160.00     9200.00
04908            -160.00     9400.00
04909            -160.00     9400.00
04910            -180.00     9600.00
04911            -160.00     9400.00
04912            -140.00     9600.00
04913            -160.00     9800.00
04914            -160.00     9800.00
04915            -160.00     9800.00
04916            -160.00     9800.00
04917            -180.00     9600.00
04918            -160.00     9800.00
04919            -160.00     9800.00
04920            -160.00     9800.00
04921            -180.00    10000.00
04922            -180.00     9800.00
04923            -180.00     9800.00
04924            -200.00    10000.00
04925            -160.00     9800.00
04926            -180.00    10000.00
04927            -180.00     9800.00
04928            -180.00    10000.00
04929            -180.00     9800.00
04930            -220.00     9800.00
04931            -220.00     9800.00
04932            -180.00     9800.00
04933            -180.00     9800.00
04934            -160.00     9800.00
04935            -180.00     9800.00
04936            -200.00     9800.00
04937            -220.00     9800.00
04938            -220.00     9400.00
04939            -180.00     9400.00
04940            -180.00     9400.00
04941            -160.00     9400.00
04942            -200.00     9400.00
04943            -200.00     9200.00
04944            -220.00     9200.00
04945            -220.00     9400.00
04946            -180.00     9200.00
04947            -160.00     9200.00
04948            -180.00     9000.00
04949            -180.00     9000.00
04950            -180.00     8800.00
04951            -180.00     8600.00
04952            -160.00     8600.00
04953            -160.00     8600.00
04954            -160.00     8400.00
04955            -180.00     8400.00
04956            -180.00     8200.00
04957            -180.00     8200.00
04958            -180.00     8000.00
04959            -160.00     7800.00
04960            -160.00     7800.00
04961            -160.00     7600.00
04962            -180.00     7600.00
04963            -200.00     7400.00
04964            -180.00     7400.00
04965            -160.00     7200.00
04966            -140.00     7000.00
04967            -160.00     6800.00
04968            -160.00     6800.00
04969            -160.00     6600.00
04970            -160.00     6600.00
04971            -140.00     6400.00
04972            -160.00     6200.00
04973            -140.00     6200.00
04974            -160.00     6000.00
04975            -140.00     5800.00
04976            -160.00     5800.00
04977            -160.00     5600.00
04978            -140.00     5400.00
04979            -120.00     5200.00
04980            -120.00     5000.00
04981            -140.00     4800.00
04982            -140.00     4600.00
04983            -140.00     4600.00
04984            -100.00     4400.00
04985            -140.00     4200.00
04986            -100.00     4200.00
04987            -100.00     3800.00
04988            -100.00     3600.00
04989            -100.00     3600.00
04990            -100.00     3400.00
04991            -100.00     3400.00
04992            -100.00     3000.00
04993            -100.00     2800.00
04994            -100.00     2600.00
04995            -100.00     2600.00
04996            -100.00     2200.00
04997             -80.00     2200.00
04998             -80.00     2000.00
04999             -60.00     1800.00
05000             -60.00     1600.00
