Unit:(mV)
                     CH1         CH2
Frequency              ? 303.197 kHz
00001              -0.20     9600.00
00002               0.20     9200.00
00003              -0.60     8800.00
00004              -0.40     8400.00
00005              -0.40     8200.00
00006              -0.40     7600.00
00007              -0.60     7200.00
00008              -0.60     6800.00
00009              -0.20     6400.00
00010              -0.60     6000.00
00011              -0.60     5400.00
00012               0.00     4800.00
00013              -0.60     4600.00
00014              -1.20     4200.00
00015               0.40     3800.00
00016              -0.40     3200.00
00017              -1.40     2800.00
00018               0.20     2400.00
00019              -0.20     2000.00
00020              -1.00     1600.00
00021               0.20     1000.00
00022               0.20      800.00
00023              -1.00      200.00
00024               0.40        0.00
00025               0.80     -600.00
00026               1.80    -1000.00
00027               1.80    -1200.00
00028              -3.00    -1600.00
00029              -0.60    -2000.00
00030               2.60    -2400.00
00031              -1.40    -2800.00
00032              -0.20    -3200.00
00033              14.80    -3800.00
00034              25.00    -4400.00
00035             -25.00    -5200.00
00036             -25.00    -5600.00
00037              25.00    -5800.00
00038              20.60    -6200.00
00039             -25.00    -6400.00
00040              17.20    -6400.00
00041              25.00    -7600.00
00042             -25.00    -7400.00
00043             -25.00    -8000.00
00044              25.00    -9000.00
00045             -25.00    -8800.00
00046             -25.00    -9400.00
00047              25.00    -9600.00
00048             -25.00   -10000.00
00049             -25.00   -10600.00
00050              24.60   -10800.00
00051              21.40   -11200.00
00052              -7.80   -11800.00
00053             -25.00   -12000.00
00054              25.00   -12600.00
00055              13.80   -12800.00
00056             -25.00   -13200.00
00057              18.00   -13600.00
00058              16.40   -13800.00
00059             -10.80   -14400.00
00060             -23.00   -14600.00
00061              19.60   -15000.00
00062              13.20   -15400.00
00063             -25.00   -15600.00
00064              18.80   -16000.00
00065              13.20   -16200.00
00066             -20.40   -16800.00
00067               1.40   -16800.00
00068               9.00   -17200.00
00069              -6.80   -17400.00
00070              -3.40   -17600.00
00071              10.60   -18000.00
00072              -2.20   -18400.00
00073              -2.20   -18600.00
00074               1.80   -18800.00
00075              -2.60   -19200.00
00076              -0.60   -19400.00
00077              -0.20   -19600.00
00078               0.40   -20000.00
00079               1.60   -20200.00
00080               1.40   -20400.00
00081              -3.40   -20600.00
00082               2.60   -20800.00
00083              -1.40   -21000.00
00084              -4.20   -21200.00
00085               6.60   -21200.00
00086              -2.00   -21400.00
00087              -2.20   -21600.00
00088               4.40   -21800.00
00089              -2.80   -22000.00
00090              -3.60   -22000.00
00091               2.80   -22000.00
00092               1.00   -22400.00
00093              -2.20   -22400.00
00094               2.20   -22600.00
00095               2.00   -22800.00
00096              -3.20   -22600.00
00097              -1.00   -22800.00
00098               1.80   -22800.00
00099              -1.20   -22800.00
00100              -0.40   -23200.00
00101               2.00   -23000.00
00102               1.00   -23000.00
00103              -1.20   -23200.00
00104              -0.20   -23200.00
00105               0.20   -23200.00
00106              -1.40   -23000.00
00107               0.20   -23200.00
00108               0.60   -23200.00
00109               0.60   -23200.00
00110               0.40   -23200.00
00111              -0.60   -23200.00
00112               0.60   -22800.00
00113               0.40   -22800.00
00114              -0.60   -22800.00
00115              -0.20   -22800.00
00116               0.40   -22800.00
00117               0.40   -22600.00
00118              -1.00   -22400.00
00119               0.60   -22400.00
00120               0.80   -22400.00
00121              -1.20   -22000.00
00122               0.40   -22400.00
00123               1.00   -22000.00
00124               0.00   -21800.00
00125              -0.60   -21600.00
00126               0.40   -21600.00
00127              -0.40   -21200.00
00128              -1.40   -21000.00
00129               0.60   -21000.00
00130               1.20   -20800.00
00131               0.20   -20400.00
00132               0.40   -20400.00
00133              -0.20   -20200.00
00134              -0.40   -20000.00
00135              -1.00   -19800.00
00136               0.20   -19600.00
00137               0.40   -19200.00
00138              -0.40   -19000.00
00139              -0.20   -18800.00
00140               0.20   -18600.00
00141               0.20   -18200.00
00142              -0.60   -18000.00
00143              -0.20   -17600.00
00144               1.00   -17200.00
00145              -0.20   -17000.00
00146              -0.60   -16800.00
00147               0.40   -16400.00
00148              -0.40   -16200.00
00149              -0.60   -15800.00
00150              -0.20   -15400.00
00151               0.20   -15000.00
00152              -0.40   -14800.00
00153              -0.40   -14600.00
00154               0.20   -14200.00
00155              -0.20   -13800.00
00156              -0.60   -13400.00
00157              -0.60   -13000.00
00158               0.20   -12800.00
00159              -0.20   -12400.00
00160              -0.20   -12000.00
00161              -0.20   -11400.00
00162               0.20   -11200.00
00163              -0.40   -10800.00
00164              -0.40   -10200.00
00165               0.20   -10000.00
00166              -0.60    -9800.00
00167              -0.60    -9200.00
00168              -0.40    -8800.00
00169              -0.20    -8400.00
00170              -0.60    -8000.00
00171              -0.20    -7600.00
00172              -0.20    -7200.00
00173              -0.60    -6800.00
00174              -0.60    -6400.00
00175               0.40    -5800.00
00176              -0.60    -5400.00
00177              -0.40    -5000.00
00178              -0.20    -4600.00
00179              -0.60    -4200.00
00180              -0.80    -3600.00
00181               0.20    -3200.00
00182              -0.40    -2800.00
00183               0.20    -2400.00
00184              -0.40    -2000.00
00185              -0.20    -1600.00
00186               0.20    -1200.00
00187              -0.60     -800.00
00188              -0.80     -200.00
00189               1.20      200.00
00190               0.60      600.00
00191               3.00      800.00
00192               0.60     1400.00
00193              -2.20     2000.00
00194               1.00     2200.00
00195               2.60     2600.00
00196              -1.40     2800.00
00197              -0.40     3400.00
00198               8.20     3800.00
00199              21.20     4400.00
00200               8.80     4800.00
00201             -25.00     5400.00
00202             -17.00     5800.00
00203              25.00     6200.00
00204              -7.40     6600.00
00205             -25.00     6800.00
00206              21.20     7200.00
00207              25.00     7800.00
00208             -25.00     8000.00
00209             -25.00     8600.00
00210              25.00     8800.00
00211             -20.20     9200.00
00212             -25.00    10000.00
00213              25.00    10000.00
00214              13.80    10400.00
00215             -25.00    11000.00
00216              21.80    11200.00
00217              25.00    11600.00
00218             -25.00    12000.00
00219             -24.60    12400.00
00220              25.00    12800.00
00221               8.40    13200.00
00222             -25.00    13600.00
00223               7.00    14000.00
00224              19.60    14400.00
00225             -10.80    14600.00
00226             -17.00    15000.00
00227              12.60    15200.00
00228               9.40    15800.00
00229             -17.80    16000.00
00230               6.00    16400.00
00231              13.00    16600.00
00232             -14.80    16800.00
00233              -2.60    17000.00
00234              10.80    17400.00
00235              -6.80    17800.00
00236              -5.60    18000.00
00237               9.80    18400.00
00238              -1.40    18600.00
00239              -5.40    18800.00
00240               3.60    19000.00
00241              -1.00    19400.00
00242              -2.80    19600.00
00243               1.40    19800.00
00244              -0.20    20000.00
00245              -0.40    20400.00
00246               1.60    20600.00
00247              -2.80    20800.00
00248               0.20    21000.00
00249               0.20    21200.00
00250              -2.60    21200.00
00251               1.80    21200.00
00252               0.20    21600.00
00253              -2.20    21600.00
00254               1.60    22000.00
00255               1.00    22000.00
00256              -3.00    22000.00
00257              -0.20    22200.00
00258               1.20    22400.00
00259              -2.20    22400.00
00260              -0.60    22800.00
00261               1.00    22800.00
00262              -1.00    22800.00
00263              -0.60    22800.00
00264               0.20    22800.00
00265              -0.60    23000.00
00266              -1.00    23000.00
00267              -0.60    23200.00
00268               0.60    23200.00
00269              -0.60    23000.00
00270              -1.80    23000.00
00271              -0.40    23000.00
00272              -0.20    23000.00
00273              -0.60    23000.00
00274              -0.60    23000.00
00275               0.40    23000.00
00276              -0.20    23000.00
00277              -1.20    23000.00
00278              -0.40    22800.00
00279              -0.20    22800.00
00280              -0.60    22800.00
00281              -0.40    22600.00
00282               0.20    22400.00
00283              -0.80    22600.00
00284              -1.00    22200.00
00285               0.20    22200.00
00286              -0.40    22200.00
00287              -1.20    22000.00
00288              -0.40    21800.00
00289               0.20    21600.00
00290              -1.00    21600.00
00291              -0.60    21400.00
00292               0.40    21200.00
00293              -1.20    21200.00
00294              -0.60    21000.00
00295               1.00    20800.00
00296              -0.60    20600.00
00297              -1.20    20400.00
00298               0.60    20000.00
00299              -0.60    19800.00
00300              -1.40    19800.00
00301               0.40    19400.00
00302               0.20    19000.00
00303              -1.20    18800.00
00304               0.60    18800.00
00305               0.40    18400.00
00306              -1.40    18200.00
00307              -0.60    17800.00
00308               0.40    17600.00
00309              -1.20    17200.00
00310              -0.20    17200.00
00311               0.00    16800.00
00312              -0.40    16400.00
00313              -0.40    16000.00
00314              -0.40    15800.00
00315              -0.20    15200.00
00316              -0.40    15200.00
00317              -0.40    14800.00
00318               0.20    14400.00
00319              -0.40    14000.00
00320              -0.60    13600.00
00321              -0.40    13400.00
00322              -0.20    13200.00
00323              -0.40    12600.00
00324              -0.40    12200.00
00325               0.20    12000.00
00326               0.00    11400.00
00327              -0.60    11000.00
00328              -0.40    10800.00
00329              -0.60    10400.00
00330              -0.60    10000.00
00331               0.00     9600.00
00332               0.00     9200.00
00333              -0.60     8800.00
00334              -0.40     8400.00
00335               0.20     8000.00
00336              -1.00     7600.00
00337              -0.60     7200.00
00338               0.20     6800.00
00339              -0.60     6400.00
00340              -0.80     5800.00
00341               0.40     5400.00
00342              -1.00     5200.00
00343               0.40     4400.00
00344              -0.80     4000.00
00345              -0.20     3800.00
00346              -0.20     3200.00
00347              -0.60     2800.00
00348               0.20     2200.00
00349              -0.60     2000.00
00350              -0.60     1600.00
00351               0.20      800.00
00352              -1.00      600.00
00353              -0.40      200.00
00354               0.40     -200.00
00355               0.20     -600.00
00356               3.60    -1000.00
00357               0.00    -1400.00
00358              -3.00    -1800.00
00359               1.80    -2200.00
00360               2.20    -2600.00
00361              -3.00    -3000.00
00362               2.60    -3400.00
00363              18.80    -3800.00
00364              25.00    -4400.00
00365             -25.00    -5200.00
00366             -25.00    -5600.00
00367              25.00    -6000.00
00368               5.80    -6200.00
00369             -25.00    -6400.00
00370              25.00    -6600.00
00371              25.00    -7600.00
00372             -25.00    -7200.00
00373              20.20    -8200.00
00374              25.00    -8800.00
00375             -25.00    -8800.00
00376             -20.40    -9600.00
00377              25.00    -9600.00
00378             -25.00   -10000.00
00379             -16.60   -10600.00
00380              25.00   -10800.00
00381              18.60   -11400.00
00382             -21.40   -11800.00
00383             -25.00   -12000.00
00384              25.00   -12800.00
00385              -5.40   -12600.00
00386             -25.00   -13200.00
00387              25.00   -13800.00
00388              11.80   -14000.00
00389             -15.80   -14600.00
00390             -18.00   -14600.00
00391              25.00   -15200.00
00392              -0.40   -15400.00
00393             -25.00   -15600.00
00394              25.00   -16000.00
00395               3.40   -16200.00
00396             -18.60   -16800.00
00397               6.80   -17000.00
00398               6.80   -17200.00
00399              -9.40   -17600.00
00400               0.40   -17800.00
00401               9.20   -18000.00
00402              -5.20   -18400.00
00403               0.20   -18600.00
00404               1.40   -19000.00
00405              -1.80   -19200.00
00406              -0.20   -19400.00
00407              -0.40   -19600.00
00408               1.00   -20000.00
00409               1.40   -20000.00
00410               0.20   -20400.00
00411              -2.20   -20600.00
00412               2.20   -20800.00
00413              -2.80   -21000.00
00414              -1.20   -21000.00
00415               4.20   -21200.00
00416              -1.80   -21600.00
00417               0.20   -21600.00
00418               1.80   -21800.00
00419              -1.80   -22000.00
00420              -2.20   -22000.00
00421               2.00   -22200.00
00422               0.60   -22400.00
00423              -2.20   -22400.00
00424               2.00   -22400.00
00425               1.20   -22800.00
00426              -2.80   -22800.00
00427               0.20   -22800.00
00428               1.60   -22800.00
00429              -1.20   -22800.00
00430              -0.60   -22800.00
00431               1.20   -23000.00
00432               0.40   -23200.00
00433              -1.00   -23200.00
00434               0.20   -23200.00
00435               1.40   -23200.00
00436              -1.00   -23200.00
00437               0.20   -23200.00
00438               1.00   -23200.00
00439               0.20   -23000.00
00440              -0.20   -23200.00
00441              -0.80   -23200.00
00442               1.00   -23000.00
00443               0.20   -22800.00
00444              -1.00   -22800.00
00445               0.60   -22800.00
00446               0.60   -22600.00
00447              -0.40   -22600.00
00448              -0.60   -22400.00
00449               1.20   -22600.00
00450               0.20   -22200.00
00451              -1.00   -22000.00
00452               1.20   -22000.00
00453               0.20   -21800.00
00454              -0.40   -21800.00
00455               0.20   -21600.00
00456               0.60   -21400.00
00457              -0.20   -21200.00
00458              -0.40   -21200.00
00459               0.40   -21000.00
00460              -0.40   -20800.00
00461               0.40   -20600.00
00462              -0.40   -20400.00
00463              -0.40   -20200.00
00464               0.40   -20000.00
00465              -0.60   -19600.00
00466               0.00   -19400.00
00467               0.40   -19200.00
00468              -0.60   -19000.00
00469              -0.20   -18600.00
00470              -0.40   -18400.00
00471              -0.20   -18400.00
00472              -0.40   -17800.00
00473              -0.60   -17400.00
00474               0.40   -17200.00
00475              -0.40   -17000.00
00476              -0.60   -16600.00
00477               0.40   -16400.00
00478              -0.60   -16200.00
00479              -0.60   -15600.00
00480               0.20   -15200.00
00481              -0.20   -15000.00
00482              -0.60   -14800.00
00483              -0.40   -14400.00
00484               0.40   -14000.00
00485              -0.60   -13600.00
00486              -0.60   -13200.00
00487               0.20   -12800.00
00488              -0.20   -12600.00
00489              -0.40   -12200.00
00490              -0.40   -12000.00
00491              -0.40   -11400.00
00492              -0.40   -11000.00
00493               0.20   -10600.00
00494              -0.40   -10200.00
00495              -0.60   -10000.00
00496               0.20    -9600.00
00497               0.20    -9200.00
00498              -0.80    -8400.00
00499               0.20    -8200.00
00500              -0.80    -8000.00
00501              -0.60    -7600.00
00502               0.40    -7000.00
00503              -0.20    -6600.00
00504              -0.60    -6400.00
00505               1.00    -5600.00
00506              -0.60    -5200.00
00507              -0.40    -4800.00
00508               0.20    -4400.00
00509              -0.40    -4200.00
00510              -0.60    -3600.00
00511              -0.20    -3200.00
00512              -0.40    -2800.00
00513              -0.20    -2400.00
00514              -0.40    -1800.00
00515               0.40    -1600.00
00516              -0.20    -1000.00
00517              -0.60     -600.00
00518               0.20     -200.00
00519               0.40      400.00
00520               0.60      800.00
00521               3.60     1200.00
00522              -1.00     1600.00
00523              -2.20     2000.00
00524               2.60     2200.00
00525               1.80     2600.00
00526              -2.60     3000.00
00527               2.20     3600.00
00528               9.80     3800.00
00529              23.00     4800.00
00530              -1.80     5000.00
00531             -25.00     5600.00
00532              -3.80     5800.00
00533              25.00     6200.00
00534             -21.20     6600.00
00535             -25.00     6800.00
00536              25.00     7400.00
00537              25.00     8000.00
00538             -25.00     8200.00
00539             -10.40     8600.00
00540              25.00     8800.00
00541             -25.00     9200.00
00542             -25.00     9800.00
00543              25.00    10200.00
00544             -13.00    10600.00
00545             -25.00    11000.00
00546              25.00    11200.00
00547              21.20    11800.00
00548             -25.00    12000.00
00549             -14.80    12400.00
00550              25.00    12800.00
00551              -1.80    13200.00
00552             -25.00    13600.00
00553              12.20    14000.00
00554              17.00    14400.00
00555             -15.40    14600.00
00556             -15.40    15000.00
00557              19.40    15400.00
00558               4.20    15800.00
00559             -19.60    16000.00
00560              12.40    16400.00
00561              10.00    16600.00
00562             -18.60    16800.00
00563               2.20    17200.00
00564              10.80    17600.00
00565             -11.00    17800.00
00566              -0.80    18200.00
00567              10.80    18400.00
00568              -5.40    18600.00
00569              -4.20    18800.00
00570               4.60    19200.00
00571              -3.40    19600.00
00572              -1.80    19800.00
00573               3.40    20000.00
00574              -1.80    20000.00
00575               0.20    20400.00
00576               2.80    20600.00
00577              -3.80    20800.00
00578              -0.60    21000.00
00579               1.40    21200.00
00580              -2.80    21400.00
00581               1.20    21600.00
00582               1.00    21600.00
00583              -2.00    21600.00
00584               0.20    21800.00
00585               0.40    22000.00
00586              -2.00    22200.00
00587               0.00    22200.00
00588               1.20    22400.00
00589              -1.00    22400.00
00590              -0.40    22400.00
00591              -0.20    22800.00
00592              -1.20    22800.00
00593              -1.00    23000.00
00594              -0.60    23000.00
00595              -0.20    23000.00
00596              -0.60    23000.00
00597              -0.80    23000.00
00598               0.60    23000.00
00599              -0.60    23000.00
00600              -2.00    23000.00
00601               0.20    23000.00
00602              -0.40    23200.00
00603              -0.60    23000.00
00604              -0.40    23200.00
00605               0.00    23000.00
00606               0.20    23000.00
00607              -1.40    22800.00
00608              -1.00    23000.00
00609               0.80    22800.00
00610              -1.00    22800.00
00611              -1.60    22800.00
00612               1.00    22400.00
00613              -0.20    22600.00
00614              -2.80    22400.00
00615               0.80    22200.00
00616               0.80    22200.00
00617              -2.60    22000.00
00618               0.40    21800.00
00619               1.20    21800.00
00620              -1.80    21600.00
00621              -0.80    21400.00
00622               1.00    21400.00
00623              -1.80    21000.00
00624               0.20    20800.00
00625               0.40    20600.00
00626              -1.20    20600.00
00627              -0.60    20400.00
00628               0.60    20000.00
00629              -1.20    19800.00
00630              -0.40    19600.00
00631              -0.40    19400.00
00632              -0.40    19200.00
00633              -0.40    18800.00
00634               0.20    18600.00
00635              -0.80    18400.00
00636               0.20    18000.00
00637              -0.20    17800.00
00638              -0.40    17400.00
00639              -0.20    17200.00
00640              -0.20    16800.00
00641              -1.00    16600.00
00642              -0.60    16400.00
00643               0.20    16000.00
00644              -0.60    15600.00
00645              -0.60    15400.00
00646               0.40    15000.00
00647              -0.20    14800.00
00648              -1.00    14400.00
00649               0.40    14000.00
00650               0.20    13600.00
00651              -0.80    13200.00
00652              -0.40    13000.00
00653               0.60    12600.00
00654              -0.60    12200.00
00655              -0.60    11800.00
00656               0.20    11400.00
00657              -0.40    11000.00
00658              -0.60    10800.00
00659              -0.20    10200.00
00660              -1.00    10000.00
00661              -0.60     9400.00
00662               0.40     9200.00
00663              -0.60     8600.00
00664              -1.40     8400.00
00665               0.40     8000.00
00666               0.60     7600.00
00667              -1.40     7000.00
00668              -0.60     6600.00
00669               0.60     6200.00
00670              -0.40     5800.00
00671              -1.20     5400.00
00672              -0.20     4600.00
00673              -0.60     4400.00
00674              -0.60     4000.00
00675              -0.20     3600.00
00676               0.20     3000.00
00677              -1.00     2800.00
00678              -0.20     2200.00
00679               0.40     2000.00
00680              -0.60     1400.00
00681              -1.00     1000.00
00682               0.60      600.00
00683              -0.40        0.00
00684              -1.00     -400.00
00685               1.80     -800.00
00686               4.40    -1000.00
00687              -2.20    -1600.00
00688              -2.00    -2000.00
00689               2.80    -2400.00
00690               0.20    -2800.00
00691              -2.80    -3200.00
00692               5.80    -3400.00
00693              23.80    -4000.00
00694              19.00    -4800.00
00695             -25.00    -5200.00
00696             -18.80    -5800.00
00697              25.00    -6000.00
00698             -12.80    -6400.00
00699             -25.00    -6400.00
00700              25.00    -6800.00
00701              25.00    -7800.00
00702             -25.00    -7400.00
00703              25.00    -8400.00
00704              25.00    -8800.00
00705             -25.00    -8800.00
00706              25.00    -9800.00
00707              25.00    -9600.00
00708             -25.00   -10200.00
00709               1.40   -10800.00
00710              25.00   -11000.00
00711              14.20   -11400.00
00712             -25.00   -11800.00
00713             -15.00   -12200.00
00714              25.00   -12800.00
00715             -22.20   -12600.00
00716             -15.80   -13600.00
00717              25.00   -13600.00
00718               5.80   -14000.00
00719             -18.80   -14600.00
00720             -11.80   -14800.00
00721              25.00   -15200.00
00722             -12.40   -15400.00
00723             -17.80   -15600.00
00724              25.00   -16200.00
00725              -5.40   -16400.00
00726             -15.60   -16800.00
00727              10.60   -17000.00
00728               4.20   -17400.00
00729             -13.00   -17600.00
00730               5.60   -17800.00
00731               8.40   -18200.00
00732              -8.60   -18400.00
00733               2.20   -18800.00
00734               2.60   -19000.00
00735              -4.40   -19200.00
00736              -0.60   -19600.00
00737               3.00   -19800.00
00738              -0.60   -20000.00
00739               0.60   -20200.00
00740               1.60   -20400.00
00741              -2.00   -20600.00
00742               1.40   -20800.00
00743              -3.60   -21000.00
00744               0.60   -21200.00
00745               4.40   -21200.00
00746              -3.40   -21400.00
00747               2.00   -21600.00
00748               2.20   -22000.00
00749              -3.80   -22000.00
00750              -1.20   -22000.00
00751               3.80   -22400.00
00752              -1.20   -22200.00
00753              -2.20   -22600.00
00754               4.20   -22600.00
00755               0.20   -22800.00
00756              -4.40   -22800.00
00757               2.60   -22800.00
00758               1.00   -22800.00
00759              -2.20   -23000.00
00760               1.20   -23200.00
00761               2.20   -23200.00
00762              -0.80   -23000.00
00763              -1.80   -23000.00
00764               1.40   -23200.00
00765               0.60   -23200.00
00766              -2.00   -23200.00
00767               1.00   -23000.00
00768               1.40   -23200.00
00769              -0.60   -23200.00
00770              -1.00   -23200.00
00771               1.00   -23000.00
00772               1.20   -23000.00
00773              -2.00   -23000.00
00774               0.40   -22800.00
00775               1.60   -22800.00
00776              -1.00   -22600.00
00777               0.00   -22600.00
00778               0.40   -22600.00
00779               0.20   -22400.00
00780              -1.00   -22400.00
00781               0.40   -22200.00
00782               1.00   -22000.00
00783              -0.60   -21800.00
00784               0.20   -21800.00
00785               0.40   -21600.00
00786               0.40   -21400.00
00787              -0.20   -21200.00
00788              -0.20   -21200.00
00789               0.20   -21000.00
00790              -0.20   -20800.00
00791               0.20   -20600.00
00792              -0.40   -20200.00
00793              -0.60   -20000.00
00794               0.20   -19800.00
00795              -0.60   -19600.00
00796              -0.20   -19400.00
00797               0.60   -19000.00
00798              -0.40   -18800.00
00799              -0.40   -18800.00
00800               0.20   -18400.00
00801              -0.60   -18000.00
00802              -0.60   -17800.00
00803               0.40   -17400.00
00804               0.20   -17200.00
00805              -0.60   -17000.00
00806               0.40   -16400.00
00807               0.00   -16200.00
00808              -1.00   -16000.00
00809               0.40   -15600.00
00810               0.20   -15200.00
00811              -0.60   -15200.00
00812              -0.20   -14800.00
00813              -0.20   -14400.00
00814              -0.60   -14000.00
00815              -0.60   -13600.00
00816               0.20   -13200.00
00817              -0.20   -12800.00
00818               0.20   -12600.00
00819               0.40   -12200.00
00820              -0.60   -11800.00
00821              -0.20   -11400.00
00822              -0.40   -11000.00
00823              -0.60   -10600.00
00824               0.20   -10400.00
00825              -0.20    -9800.00
00826              -0.60    -9600.00
00827               0.20    -9000.00
00828               0.20    -8800.00
00829              -0.40    -8200.00
00830              -0.60    -8000.00
00831               0.00    -7400.00
00832              -0.20    -6800.00
00833              -0.40    -6600.00
00834              -0.20    -6200.00
00835               0.40    -5800.00
00836              -0.60    -5200.00
00837               0.20    -4800.00
00838              -0.40    -4400.00
00839              -0.20    -4000.00
00840              -1.00    -3600.00
00841              -0.40    -3200.00
00842               0.40    -2800.00
00843               0.00    -2000.00
00844              -1.20    -1800.00
00845               0.40    -1400.00
00846               0.20     -800.00
00847              -1.20     -400.00
00848               0.20     -200.00
00849               1.80      400.00
00850               1.00      600.00
00851               3.20     1200.00
00852              -1.00     1800.00
00853              -1.80     2000.00
00854               2.20     2400.00
00855               1.20     2800.00
00856              -3.00     3000.00
00857               3.60     3400.00
00858              12.20     4000.00
00859              23.80     4800.00
00860             -14.60     5200.00
00861             -25.00     5600.00
00862               9.20     6000.00
00863              25.00     6400.00
00864             -25.00     6600.00
00865             -25.00     7000.00
00866              25.00     7600.00
00867              25.00     7800.00
00868             -25.00     8200.00
00869              25.00     8600.00
00870              25.00     9000.00
00871             -25.00     9400.00
00872             -10.00    10000.00
00873              25.00    10000.00
00874             -25.00    10800.00
00875             -25.00    11000.00
00876              25.00    11200.00
00877               8.80    11800.00
00878             -25.00    12000.00
00879               0.40    12600.00
00880              25.00    12800.00
00881             -15.40    13400.00
00882             -17.80    13600.00
00883              19.20    13800.00
00884               8.40    14400.00
00885             -18.60    14800.00
00886              -7.60    15000.00
00887              19.60    15600.00
00888              -4.40    15800.00
00889             -13.40    16000.00
00890              15.80    16400.00
00891               2.60    16800.00
00892             -16.60    16800.00
00893               7.00    17400.00
00894               7.00    17400.00
00895             -12.60    17800.00
00896               3.60    18200.00
00897               7.80    18400.00
00898              -7.00    18800.00
00899              -0.40    19000.00
00900               3.00    19200.00
00901              -3.60    19400.00
00902               0.20    19800.00
00903               1.20    19800.00
00904              -1.60    20200.00
00905               2.00    20400.00
00906              -0.20    20600.00
00907              -2.60    20800.00
00908               1.40    21000.00
00909              -1.80    21200.00
00910              -1.00    21200.00
00911               3.00    21600.00
00912              -1.80    21600.00
00913              -1.20    21800.00
00914               2.00    22000.00
00915              -2.00    22000.00
00916              -2.60    22200.00
00917               2.00    22400.00
00918              -0.20    22400.00
00919              -2.20    22600.00
00920               1.60    22600.00
00921              -0.40    22800.00
00922              -2.60    22800.00
00923               0.20    22800.00
00924               0.20    23000.00
00925              -1.40    22800.00
00926              -0.40    23000.00
00927               0.40    23000.00
00928              -0.40    23000.00
00929              -1.00    23000.00
00930              -0.60    23000.00
00931               0.20    23000.00
00932              -0.40    23000.00
00933              -0.60    22800.00
00934              -1.00    23200.00
00935               0.00    23000.00
00936              -0.60    23000.00
00937              -1.40    23000.00
00938              -0.20    22800.00
00939               0.20    22800.00
00940              -1.40    22600.00
00941              -0.60    22800.00
00942               1.20    22400.00
00943              -1.20    22400.00
00944              -1.80    22400.00
00945               1.40    22200.00
00946              -0.60    22200.00
00947              -2.00    22000.00
00948               1.00    22000.00
00949               0.40    21600.00
00950              -1.80    21600.00
00951               0.00    21200.00
00952              -0.20    21200.00
00953              -1.60    21200.00
00954               0.40    20800.00
00955              -0.20    21000.00
00956              -0.20    20400.00
00957              -0.40    20200.00
00958              -0.20    20000.00
00959              -0.20    19600.00
00960              -0.60    19600.00
00961              -0.40    19200.00
00962               0.40    19200.00
00963              -1.20    18800.00
00964               0.20    18800.00
00965               0.40    18200.00
00966              -2.20    18000.00
00967               0.20    17600.00
00968               0.40    17600.00
00969              -1.20    17200.00
00970               0.20    16800.00
00971               0.80    16600.00
00972              -1.20    16000.00
00973              -0.20    16000.00
00974               0.40    15800.00
00975              -1.20    15200.00
00976              -0.40    14800.00
00977               0.60    14800.00
00978              -0.80    14200.00
00979              -0.60    14000.00
00980              -0.20    13400.00
00981              -1.00    13200.00
00982              -0.40    12800.00
00983               0.20    12400.00
00984              -1.20    12000.00
00985              -0.40    11800.00
00986               0.20    11200.00
00987              -1.20    10800.00
00988              -0.40    10600.00
00989              -0.20    10200.00
00990              -1.00     9800.00
00991              -0.20     9400.00
00992              -0.20     9000.00
00993              -1.00     8400.00
00994              -0.20     8200.00
00995              -0.20     7800.00
00996              -0.40     7400.00
00997              -0.40     6800.00
00998              -0.20     6400.00
00999              -0.60     6000.00
01000               0.00     5800.00
01001              -0.60     5200.00
01002              -0.60     4600.00
01003              -0.20     4200.00
01004              -0.80     3800.00
01005              -0.60     3600.00
01006               0.20     3000.00
01007              -0.60     2600.00
01008              -0.40     2200.00
01009               0.60     1800.00
01010              -0.60     1400.00
01011              -0.60      800.00
01012               0.60      600.00
01013              -0.60        0.00
01014              -0.40     -400.00
01015               2.00     -800.00
01016               2.80    -1200.00
01017              -2.60    -1600.00
01018              -0.60    -2000.00
01019               2.60    -2400.00
01020              -0.20    -2800.00
01021              -1.40    -3200.00
01022               7.80    -3400.00
01023              25.00    -4200.00
01024               5.00    -5000.00
01025             -25.00    -5400.00
01026              -2.00    -5800.00
01027              25.00    -6000.00
01028             -25.00    -6400.00
01029             -25.00    -6200.00
01030              25.00    -7200.00
01031               9.00    -7600.00
01032             -25.00    -7600.00
01033              25.00    -8800.00
01034              25.00    -8800.00
01035             -25.00    -9000.00
01036              25.00    -9800.00
01037              25.00    -9600.00
01038             -25.00   -10400.00
01039              21.60   -10800.00
01040              22.80   -10800.00
01041               2.00   -11800.00
01042             -25.00   -12000.00
01043               3.00   -12400.00
01044              25.00   -12800.00
01045             -25.00   -12800.00
01046              -1.00   -13400.00
01047              19.60   -13600.00
01048               2.00   -14400.00
01049             -18.00   -14600.00
01050              -8.20   -14800.00
01051              25.00   -15200.00
01052             -18.20   -15400.00
01053              -9.80   -15800.00
01054              25.00   -16200.00
01055             -11.40   -16400.00
01056             -12.00   -16800.00
01057              12.00   -17000.00
01058               0.20   -17400.00
01059             -12.20   -17400.00
01060               9.80   -17800.00
01061               5.20   -18400.00
01062              -8.40   -18400.00
01063               3.60   -18800.00
01064               1.20   -19000.00
01065              -5.20   -19400.00
01066              -0.20   -19600.00
01067               4.40   -19600.00
01068              -2.60   -20000.00
01069               1.00   -20200.00
01070               2.20   -20400.00
01071              -2.80   -20800.00
01072               0.40   -20800.00
01073              -2.40   -21000.00
01074               2.20   -21200.00
01075               1.00   -21200.00
01076              -2.20   -21600.00
01077               2.80   -21800.00
01078               0.00   -21800.00
01079              -3.40   -22000.00
01080               1.20   -22000.00
01081               2.20   -22400.00
01082              -2.20   -22400.00
01083               0.60   -22600.00
01084               2.80   -22600.00
01085              -1.80   -22600.00
01086              -2.00   -22800.00
01087               1.80   -22800.00
01088               0.40   -23000.00
01089              -1.00   -23000.00
01090               1.20   -22800.00
01091               1.20   -23200.00
01092              -0.20   -22800.00
01093              -1.40   -23000.00
01094               1.20   -23200.00
01095              -0.20   -23200.00
01096              -1.60   -23000.00
01097               1.40   -23200.00
01098               1.20   -23200.00
01099              -0.40   -23200.00
01100              -0.60   -23200.00
01101               0.60   -23000.00
01102               0.60   -22800.00
01103              -1.20   -22800.00
01104               0.40   -22800.00
01105               0.40   -22800.00
01106              -0.40   -22800.00
01107              -0.20   -22600.00
01108               0.20   -22600.00
01109               1.00   -22400.00
01110              -1.20   -22200.00
01111               0.20   -22000.00
01112               1.00   -22000.00
01113              -1.00   -21800.00
01114              -0.60   -21600.00
01115               0.60   -21600.00
01116               0.20   -21600.00
01117              -1.20   -21200.00
01118               0.80   -21200.00
01119               0.20   -21000.00
01120              -1.00   -20600.00
01121               0.40   -20400.00
01122               0.20   -20200.00
01123              -1.00   -20000.00
01124               0.20   -19800.00
01125               0.20   -19600.00
01126              -0.40   -19400.00
01127              -0.40   -19000.00
01128               0.40   -18800.00
01129              -0.40   -18600.00
01130              -0.60   -18200.00
01131               0.20   -18000.00
01132              -0.60   -17800.00
01133               0.20   -17400.00
01134               0.40   -17200.00
01135              -1.00   -16800.00
01136              -0.20   -16400.00
01137              -0.20   -16200.00
01138              -1.00   -16000.00
01139               0.00   -15600.00
01140               0.40   -15200.00
01141               0.40   -14800.00
01142              -0.20   -14600.00
01143               0.20   -14400.00
01144              -0.60   -13800.00
01145              -0.80   -13600.00
01146               0.20   -13000.00
01147               0.20   -12800.00
01148              -0.40   -12400.00
01149               0.20   -12000.00
01150              -0.60   -11600.00
01151              -0.20   -11200.00
01152              -0.20   -11000.00
01153              -0.20   -10600.00
01154              -0.20   -10000.00
01155               0.20    -9800.00
01156              -0.20    -9200.00
01157              -0.20    -8800.00
01158              -0.20    -8600.00
01159               0.40    -8200.00
01160              -0.60    -7800.00
01161              -0.40    -7400.00
01162               0.20    -7000.00
01163              -0.60    -6400.00
01164              -0.20    -6000.00
01165               1.00    -5600.00
01166              -1.00    -5200.00
01167              -0.60    -4600.00
01168              -0.40    -4400.00
01169              -0.20    -4000.00
01170              -1.20    -3600.00
01171               0.40    -3000.00
01172               0.40    -2600.00
01173              -0.20    -2000.00
01174              -0.60    -1600.00
01175               0.20    -1200.00
01176              -0.60     -800.00
01177              -1.00     -400.00
01178               0.20        0.00
01179               0.40      400.00
01180               2.00      800.00
01181               2.60     1200.00
01182              -2.20     1600.00
01183              -0.20     2000.00
01184               2.40     2400.00
01185               0.00     2800.00
01186              -2.20     3000.00
01187               5.00     3600.00
01188              14.00     4200.00
01189              22.80     4800.00
01190             -25.00     5200.00
01191             -25.00     5600.00
01192              21.80     6000.00
01193              19.80     6400.00
01194             -25.00     6600.00
01195             -18.60     7000.00
01196              25.00     7800.00
01197              15.40     7800.00
01198             -25.00     8200.00
01199              25.00     8800.00
01200              25.00     8800.00
01201             -25.00     9400.00
01202              23.00    10000.00
01203              25.00    10200.00
01204             -25.00    10800.00
01205             -11.00    11200.00
01206              25.00    11400.00
01207              -4.40    11800.00
01208             -25.00    12200.00
01209              12.40    12600.00
01210              25.00    13000.00
01211             -23.40    13600.00
01212              -9.80    13600.00
01213              21.80    14000.00
01214               2.20    14600.00
01215             -20.20    14800.00
01216              -0.80    15000.00
01217              19.40    15600.00
01218             -11.40    15800.00
01219              -7.60    16000.00
01220              18.00    16400.00
01221              -5.20    16800.00
01222             -12.60    17000.00
01223              10.20    17200.00
01224               1.80    17600.00
01225             -11.40    18000.00
01226               6.80    18200.00
01227               5.20    18400.00
01228              -6.80    18800.00
01229               0.20    19000.00
01230               2.60    19200.00
01231              -3.60    19600.00
01232              -0.20    19800.00
01233               1.80    20000.00
01234              -1.00    20200.00
01235               1.80    20400.00
01236              -0.80    20800.00
01237              -1.40    20800.00
01238               0.60    21000.00
01239              -2.60    21200.00
01240               0.20    21400.00
01241               2.00    21400.00
01242              -2.20    21600.00
01243              -0.20    21800.00
01244               1.40    22000.00
01245              -2.60    22000.00
01246              -1.80    22000.00
01247               1.80    22200.00
01248              -0.60    22400.00
01249              -1.20    22600.00
01250               1.40    22600.00
01251              -1.00    22800.00
01252              -1.40    22800.00
01253               0.40    22800.00
01254              -0.60    22800.00
01255              -1.00    23000.00
01256              -0.40    23000.00
01257              -0.40    23000.00
01258              -0.60    23000.00
01259              -1.20    23200.00
01260              -1.00    23000.00
01261              -0.20    23200.00
01262               0.20    22800.00
01263              -1.00    22800.00
01264              -0.60    23000.00
01265               0.40    23000.00
01266              -1.00    23000.00
01267              -1.40    23000.00
01268               0.20    22800.00
01269              -0.20    22800.00
01270              -1.20    22800.00
01271              -0.20    22600.00
01272               1.20    22400.00
01273              -1.60    22400.00
01274              -1.00    22200.00
01275               1.20    22000.00
01276              -1.00    22200.00
01277              -1.80    22000.00
01278               0.60    21800.00
01279              -0.20    21600.00
01280              -1.20    21400.00
01281               0.20    21400.00
01282              -0.20    21200.00
01283              -1.00    21000.00
01284               0.40    20800.00
01285              -0.40    20600.00
01286              -0.80    20400.00
01287              -0.60    20000.00
01288              -0.60    20000.00
01289              -0.60    19800.00
01290              -0.20    19600.00
01291              -0.40    19400.00
01292              -0.20    19000.00
01293              -0.20    18800.00
01294              -0.20    18400.00
01295              -0.60    18200.00
01296              -0.60    18000.00
01297               0.00    17600.00
01298              -0.60    17400.00
01299               0.20    17200.00
01300               0.20    16600.00
01301              -0.80    16400.00
01302              -0.40    16200.00
01303              -0.20    16000.00
01304              -0.60    15600.00
01305              -0.60    15200.00
01306               0.00    14800.00
01307              -0.60    14600.00
01308              -0.60    14400.00
01309              -0.20    14000.00
01310              -0.60    13600.00
01311              -0.60    13200.00
01312               0.00    12800.00
01313              -0.40    12400.00
01314              -0.60    12000.00
01315              -0.20    11600.00
01316              -0.40    11200.00
01317              -0.60    10800.00
01318              -0.60    10400.00
01319              -0.60    10200.00
01320              -0.60     9600.00
01321              -0.40     9200.00
01322              -0.60     8800.00
01323              -0.20     8600.00
01324              -0.20     8200.00
01325              -0.40     7800.00
01326              -0.40     7200.00
01327              -0.60     6800.00
01328              -0.80     6400.00
01329              -0.60     6000.00
01330               0.00     5600.00
01331              -0.60     5200.00
01332              -0.40     4600.00
01333              -0.20     4000.00
01334              -1.00     3800.00
01335              -0.40     3400.00
01336               0.20     3000.00
01337              -1.00     2400.00
01338              -0.40     2200.00
01339               0.40     1600.00
01340              -0.80     1400.00
01341              -0.20      600.00
01342               0.80      400.00
01343              -0.60        0.00
01344               0.20     -600.00
01345               2.60     -800.00
01346               2.60    -1400.00
01347              -3.00    -1800.00
01348              -0.20    -2000.00
01349               2.60    -2400.00
01350              -1.00    -3000.00
01351              -1.20    -3200.00
01352              10.20    -3400.00
01353              25.00    -4400.00
01354             -12.20    -5000.00
01355             -25.00    -5400.00
01356              14.60    -6000.00
01357              25.00    -6000.00
01358             -25.00    -6400.00
01359             -19.20    -6400.00
01360              25.00    -7400.00
01361             -25.00    -7400.00
01362             -25.00    -7800.00
01363              25.00    -8800.00
01364               6.20    -8800.00
01365             -25.00    -9200.00
01366              25.00    -9800.00
01367              11.00    -9800.00
01368             -25.00   -10400.00
01369              20.40   -10800.00
01370              23.60   -11200.00
01371               2.20   -12000.00
01372             -25.00   -12000.00
01373              20.20   -12600.00
01374              25.00   -12800.00
01375             -25.00   -13000.00
01376               8.80   -13800.00
01377              22.60   -13800.00
01378              -5.80   -14400.00
01379             -23.40   -14600.00
01380               7.80   -14800.00
01381              23.60   -15400.00
01382             -25.00   -15400.00
01383               6.60   -16000.00
01384              22.20   -16200.00
01385             -17.40   -16400.00
01386              -4.40   -17000.00
01387              10.60   -17200.00
01388              -3.00   -17400.00
01389              -7.60   -17600.00
01390               9.20   -17800.00
01391               1.20   -18400.00
01392              -4.40   -18600.00
01393               2.40   -18800.00
01394              -1.20   -19200.00
01395              -1.20   -19400.00
01396              -0.60   -19600.00
01397               1.20   -20000.00
01398               0.60   -20000.00
01399               1.60   -20400.00
01400              -2.20   -20400.00
01401               1.60   -20800.00
01402               0.00   -20800.00
01403              -4.60   -21200.00
01404               5.40   -21200.00
01405               0.40   -21400.00
01406              -3.00   -21600.00
01407               3.80   -21800.00
01408              -0.40   -22000.00
01409              -3.80   -22000.00
01410               1.40   -22000.00
01411               2.60   -22400.00
01412              -2.80   -22400.00
01413               1.00   -22400.00
01414               2.80   -22600.00
01415              -2.20   -22800.00
01416              -1.20   -22800.00
01417               2.00   -22800.00
01418              -0.20   -22800.00
01419              -0.60   -22800.00
01420               1.00   -23000.00
01421               0.40   -23000.00
01422              -0.20   -23200.00
01423              -0.40   -23200.00
01424               0.40   -23200.00
01425               0.60   -23200.00
01426              -0.40   -23200.00
01427               0.00   -23000.00
01428               0.80   -23200.00
01429               0.40   -23000.00
01430              -1.80   -23000.00
01431               0.40   -23200.00
01432               1.40   -22800.00
01433              -1.00   -22800.00
01434               0.20   -22800.00
01435               1.20   -22800.00
01436               0.60   -22600.00
01437              -1.20   -22600.00
01438              -0.20   -22400.00
01439               1.00   -22400.00
01440              -1.80   -22400.00
01441               0.20   -22000.00
01442               2.00   -22000.00
01443              -1.60   -21800.00
01444              -0.20   -21800.00
01445               0.40   -21400.00
01446              -0.40   -21200.00
01447              -0.20   -21200.00
01448               0.20   -21000.00
01449              -0.20   -20800.00
01450               0.60   -20800.00
01451              -0.60   -20400.00
01452              -0.60   -20200.00
01453               0.20   -20000.00
01454              -0.60   -19800.00
01455              -0.20   -19600.00
01456               0.40   -19200.00
01457              -0.60   -19200.00
01458              -0.20   -18800.00
01459               0.20   -18400.00
01460              -0.60   -18400.00
01461              -0.40   -18000.00
01462              -0.20   -17400.00
01463               0.20   -17600.00
01464               0.20   -17200.00
01465              -0.40   -16800.00
01466              -0.20   -16400.00
01467              -0.20   -16200.00
01468              -0.40   -16000.00
01469              -0.40   -15400.00
01470              -0.20   -15200.00
01471               0.20   -15000.00
01472              -0.80   -14600.00
01473              -0.40   -14000.00
01474               1.20   -13800.00
01475              -1.00   -13600.00
01476              -1.20   -13200.00
01477               1.80   -12800.00
01478              -0.20   -12400.00
01479              -2.00   -12000.00
01480               0.60   -11600.00
01481               0.60   -11200.00
01482              -1.00   -10800.00
01483               0.40   -10400.00
01484               0.20   -10000.00
01485              -1.00    -9800.00
01486              -0.60    -9200.00
01487               0.20    -8800.00
01488              -0.20    -8400.00
01489              -0.40    -8000.00
01490               0.20    -7600.00
01491               0.40    -7200.00
01492              -0.40    -6800.00
01493              -1.40    -6400.00
01494               0.20    -6000.00
01495               0.40    -5600.00
01496              -1.20    -5000.00
01497               0.60    -4600.00
01498              -0.60    -4200.00
01499              -0.40    -3800.00
01500               0.60    -3400.00
01501              -0.40    -2800.00
01502              -1.20    -2400.00
01503              -0.60    -2000.00
01504               0.60    -1800.00
01505              -0.60    -1200.00
01506              -0.80     -800.00
01507               0.40     -400.00
01508              -0.60      200.00
01509              -0.40      600.00
01510               2.80      800.00
01511               1.20     1400.00
01512              -2.20     1800.00
01513               0.60     2000.00
01514               3.00     2600.00
01515              -0.60     2800.00
01516              -2.80     3200.00
01517               6.20     3600.00
01518              18.00     4200.00
01519              17.20     4800.00
01520             -25.00     5400.00
01521             -25.00     5600.00
01522              25.00     6000.00
01523               7.40     6400.00
01524             -25.00     6800.00
01525              -0.60     7000.00
01526              25.00     8000.00
01527             -18.60     8000.00
01528             -25.00     8400.00
01529              25.00     8800.00
01530              24.60     9200.00
01531             -25.00     9600.00
01532              25.00    10000.00
01533              25.00    10200.00
01534             -25.00    11000.00
01535               5.40    11200.00
01536              25.00    11600.00
01537             -16.00    12000.00
01538             -25.00    12400.00
01539              23.60    12800.00
01540              20.20    13000.00
01541             -25.00    13600.00
01542              -0.60    14000.00
01543              23.00    14200.00
01544              -5.00    14600.00
01545             -19.80    15000.00
01546               6.80    15200.00
01547              15.40    15600.00
01548             -16.20    16000.00
01549              -0.60    16200.00
01550              16.60    16600.00
01551             -10.60    16600.00
01552              -8.40    17200.00
01553              11.40    17400.00
01554              -2.20    17600.00
01555              -8.60    18000.00
01556               9.00    18200.00
01557               2.00    18400.00
01558              -6.00    18800.00
01559               1.20    19000.00
01560               0.80    19200.00
01561              -2.80    19600.00
01562               0.40    19800.00
01563               0.60    20000.00
01564              -0.60    20400.00
01565               2.00    20200.00
01566              -2.00    20800.00
01567              -1.20    20800.00
01568               0.40    21000.00
01569              -2.20    21200.00
01570               1.00    21400.00
01571               1.00    21400.00
01572              -2.20    21600.00
01573               1.20    22000.00
01574               0.40    22000.00
01575              -3.00    22200.00
01576              -0.20    22200.00
01577               1.20    22400.00
01578              -2.00    22400.00
01579              -0.20    22400.00
01580               1.20    22400.00
01581              -2.00    22800.00
01582              -1.20    22800.00
01583               0.40    22800.00
01584              -1.00    22800.00
01585              -1.00    23000.00
01586              -0.20    23000.00
01587               0.40    23000.00
01588              -0.60    23000.00
01589              -1.80    23000.00
01590              -0.60    23000.00
01591              -0.40    23000.00
01592              -1.00    23200.00
01593              -0.60    23200.00
01594               0.00    23000.00
01595              -0.20    23000.00
01596              -0.80    23000.00
01597              -0.40    22800.00
01598              -0.40    22800.00
01599              -0.60    22800.00
01600              -0.40    22800.00
01601              -0.40    22800.00
01602              -0.20    22400.00
01603              -0.80    22400.00
01604              -0.60    22200.00
01605               0.20    22200.00
01606              -0.40    22200.00
01607              -0.80    22000.00
01608               0.20    21600.00
01609               0.00    21600.00
01610              -0.60    21400.00
01611              -0.20    21200.00
01612              -0.60    21200.00
01613              -1.00    20800.00
01614               0.40    21000.00
01615              -0.40    20600.00
01616              -0.60    20400.00
01617               0.40    20000.00
01618              -0.20    20000.00
01619              -1.00    19800.00
01620              -0.20    19600.00
01621               0.20    19200.00
01622              -1.00    19000.00
01623              -0.20    18800.00
01624               0.40    18600.00
01625              -0.80    18200.00
01626              -1.00    18000.00
01627               0.40    17600.00
01628              -0.60    17400.00
01629              -0.60    17200.00
01630               0.00    16800.00
01631              -0.60    16400.00
01632              -0.60    16000.00
01633              -0.40    15800.00
01634              -0.60    15400.00
01635              -0.40    15200.00
01636              -0.20    14800.00
01637              -0.40    14600.00
01638              -0.60    14200.00
01639              -0.40    13600.00
01640              -1.00    13400.00
01641              -0.60    13000.00
01642              -0.40    12800.00
01643              -0.60    12400.00
01644              -0.40    11800.00
01645              -0.40    11600.00
01646              -0.60    11200.00
01647              -0.40    10800.00
01648              -0.60    10400.00
01649              -0.60    10000.00
01650               0.20     9600.00
01651              -0.60     9200.00
01652              -1.00     8800.00
01653              -0.40     8400.00
01654              -0.40     8000.00
01655              -1.00     7600.00
01656              -0.20     7200.00
01657              -0.20     6800.00
01658              -0.60     6400.00
01659              -0.40     6000.00
01660               0.20     5600.00
01661              -0.60     5000.00
01662              -0.40     4600.00
01663              -0.20     4000.00
01664               0.00     3800.00
01665              -0.40     3200.00
01666              -0.20     2800.00
01667              -0.20     2400.00
01668              -0.40     2000.00
01669              -0.40     1600.00
01670              -0.40     1200.00
01671              -0.20      800.00
01672              -0.20      400.00
01673               0.40        0.00
01674               0.40     -400.00
01675               2.80    -1000.00
01676               2.00    -1400.00
01677              -3.00    -1800.00
01678               0.20    -2200.00
01679               3.00    -2400.00
01680              -2.00    -2800.00
01681              -0.40    -3400.00
01682              14.60    -3600.00
01683              25.00    -4400.00
01684             -25.00    -5000.00
01685             -25.00    -5600.00
01686              25.00    -5800.00
01687              22.20    -6200.00
01688             -25.00    -6400.00
01689              15.40    -6400.00
01690              25.00    -7600.00
01691             -25.00    -7400.00
01692             -25.00    -8000.00
01693              25.00    -8800.00
01694             -25.00    -8600.00
01695             -25.00    -9400.00
01696              25.00    -9600.00
01697             -25.00    -9800.00
01698             -25.00   -10600.00
01699              25.00   -10800.00
01700              20.60   -11200.00
01701              -7.60   -11800.00
01702             -25.00   -12000.00
01703              25.00   -12400.00
01704              15.00   -12800.00
01705             -25.00   -13200.00
01706              18.20   -13800.00
01707              18.00   -13800.00
01708             -10.80   -14400.00
01709             -22.60   -14600.00
01710              18.60   -15200.00
01711              13.80   -15400.00
01712             -25.00   -15600.00
01713              17.80   -16000.00
01714              14.00   -16200.00
01715             -19.80   -16800.00
01716               1.40   -17000.00
01717               9.80   -17200.00
01718              -6.60   -17400.00
01719              -4.40   -17800.00
01720              10.00   -18200.00
01721              -2.60   -18400.00
01722              -2.60   -18600.00
01723               2.00   -19000.00
01724              -1.60   -19200.00
01725              -0.60   -19400.00
01726              -0.20   -19600.00
01727               1.00   -20000.00
01728               1.40   -20000.00
01729               1.20   -20200.00
01730              -3.00   -20400.00
01731               2.60   -20800.00
01732              -1.40   -21000.00
01733              -3.80   -21000.00
01734               5.80   -21200.00
01735              -1.00   -21400.00
01736              -2.00   -21600.00
01737               4.20   -21600.00
01738              -0.60   -22000.00
01739              -3.40   -22200.00
01740               2.60   -22400.00
01741               1.40   -22400.00
01742              -2.80   -22400.00
01743               2.20   -22600.00
01744               2.20   -22600.00
01745              -2.80   -22800.00
01746              -0.20   -22800.00
01747               1.40   -22800.00
01748              -0.60   -22800.00
01749              -0.20   -23000.00
01750               0.80   -23000.00
01751               0.60   -23000.00
01752              -0.60   -23200.00
01753              -0.40   -23000.00
01754               1.00   -23200.00
01755              -1.00   -23200.00
01756               0.40   -23200.00
01757               0.80   -23200.00
01758               0.20   -23200.00
01759               0.40   -23200.00
01760              -0.60   -23000.00
01761              -0.20   -23000.00
01762               0.20   -23000.00
01763              -0.60   -22800.00
01764              -0.20   -22800.00
01765               0.40   -22800.00
01766               0.40   -22800.00
01767              -1.20   -22600.00
01768               0.40   -22400.00
01769               0.40   -22400.00
01770              -1.60   -22200.00
01771               0.80   -22000.00
01772               0.20   -22000.00
01773              -1.00   -21800.00
01774               0.00   -21600.00
01775               0.40   -21400.00
01776              -0.40   -21200.00
01777              -0.60   -21000.00
01778               0.60   -21000.00
01779              -0.60   -20800.00
01780              -0.40   -20400.00
01781               0.40   -20400.00
01782              -0.80   -20200.00
01783              -0.20   -20000.00
01784              -0.20   -19600.00
01785              -0.40   -19400.00
01786               0.20   -19200.00
01787               0.20   -19000.00
01788              -0.40   -18800.00
01789              -0.40   -18400.00
01790               0.20   -18400.00
01791              -0.60   -18000.00
01792              -0.60   -17600.00
01793               0.80   -17200.00
01794              -0.40   -17200.00
01795              -0.60   -16800.00
01796               0.40   -16400.00
01797              -0.60   -16200.00
01798              -0.60   -15800.00
01799               0.20   -15400.00
01800               0.00   -15200.00
01801              -0.40   -14800.00
01802              -0.40   -14400.00
01803               0.20   -14200.00
01804              -0.60   -13600.00
01805              -0.20   -13400.00
01806               0.20   -13000.00
01807              -0.20   -12800.00
01808              -0.20   -12200.00
01809              -0.20   -12000.00
01810              -0.60   -11600.00
01811              -0.20   -11200.00
01812              -0.40   -10800.00
01813              -0.60   -10400.00
01814               0.20   -10000.00
01815              -0.40    -9600.00
01816               0.00    -9200.00
01817              -0.20    -8800.00
01818              -0.20    -8400.00
01819              -0.60    -8000.00
01820              -0.20    -7600.00
01821               0.20    -7200.00
01822              -0.40    -6600.00
01823              -0.60    -6400.00
01824               0.40    -5800.00
01825              -0.60    -5600.00
01826              -1.00    -5000.00
01827              -0.20    -4400.00
01828              -0.40    -4200.00
01829              -0.60    -3600.00
01830              -0.20    -3200.00
01831              -0.20    -2800.00
01832              -0.40    -2400.00
01833              -0.20    -2000.00
01834               0.20    -1600.00
01835              -0.60    -1200.00
01836              -0.60     -600.00
01837              -0.20     -200.00
01838               0.40        0.00
01839               0.40      400.00
01840               3.00     1000.00
01841              -0.60     1400.00
01842              -2.20     1800.00
01843               1.40     2000.00
01844               1.80     2600.00
01845              -1.40     3000.00
01846               0.40     3200.00
01847               7.40     3800.00
01848              21.00     4400.00
01849              10.60     5000.00
01850             -25.00     5400.00
01851             -18.00     5600.00
01852              25.00     6200.00
01853              -7.00     6400.00
01854             -25.00     6800.00
01855              20.00     7200.00
01856              25.00     7800.00
01857             -25.00     8000.00
01858             -25.00     8400.00
01859              25.00     8800.00
01860             -16.40     9200.00
01861             -25.00     9600.00
01862              25.00    10000.00
01863              16.20    10400.00
01864             -25.00    10800.00
01865              19.60    11200.00
01866              25.00    11600.00
01867             -24.20    12000.00
01868             -25.00    12400.00
01869              25.00    12800.00
01870              10.60    13200.00
01871             -25.00    13600.00
01872               6.20    14000.00
01873              21.20    14400.00
01874             -11.20    14600.00
01875             -17.40    15000.00
01876              13.20    15200.00
01877              10.00    15800.00
01878             -18.20    15800.00
01879               6.20    16400.00
01880              13.80    16600.00
01881             -14.60    16800.00
01882              -2.80    17200.00
01883              10.80    17400.00
01884              -6.00    17600.00
01885              -5.40    18000.00
01886               9.40    18200.00
01887              -0.60    18600.00
01888              -5.80    18800.00
01889               2.60    19200.00
01890               0.00    19200.00
01891              -3.00    19600.00
01892               1.00    20000.00
01893               0.60    20000.00
01894              -0.60    20200.00
01895               1.00    20400.00
01896              -1.40    20600.00
01897              -0.20    21000.00
01898              -0.80    21200.00
01899              -2.00    21200.00
01900               2.60    21400.00
01901              -1.20    21400.00
01902              -2.00    21600.00
01903               1.80    22000.00
01904              -0.60    22200.00
01905              -3.60    22000.00
01906               1.20    22200.00
01907               1.00    22400.00
01908              -2.40    22400.00
01909               0.60    22800.00
01910               1.00    22600.00
01911              -2.60    22800.00
01912              -1.00    22800.00
01913               0.60    22800.00
01914              -1.00    22800.00
01915              -1.00    22800.00
01916               0.00    23000.00
01917               0.20    23000.00
01918              -1.00    23200.00
01919              -1.20    23000.00
01920               0.20    23200.00
01921              -0.60    23200.00
01922              -0.60    23000.00
01923              -0.40    23000.00
01924              -0.20    23000.00
01925              -0.60    22800.00
01926              -0.60    23000.00
01927              -0.20    22800.00
01928              -0.60    22800.00
01929              -0.60    22800.00
01930               0.20    22600.00
01931              -0.80    22800.00
01932              -0.40    22400.00
01933              -0.40    22400.00
01934              -1.20    22200.00
01935               0.20    22200.00
01936              -0.40    22200.00
01937              -1.00    22000.00
01938               0.00    21600.00
01939               0.40    21600.00
01940              -1.00    21400.00
01941              -0.20    21200.00
01942              -0.20    21200.00
01943              -1.00    20800.00
01944               0.00    20800.00
01945               0.20    20600.00
01946              -1.20    20200.00
01947               0.40    20000.00
01948              -0.20    20000.00
01949              -0.60    19800.00
01950              -0.60    19600.00
01951               0.20    19200.00
01952              -0.60    18800.00
01953              -0.20    18800.00
01954              -0.20    18400.00
01955              -0.20    18200.00
01956              -0.60    18000.00
01957              -0.60    17600.00
01958              -0.40    17200.00
01959              -0.20    17000.00
01960              -0.60    16600.00
01961              -0.40    16400.00
01962               0.20    16000.00
01963              -1.20    15800.00
01964              -0.60    15600.00
01965              -0.20    15000.00
01966              -0.60    14800.00
01967              -0.60    14400.00
01968               0.20    14000.00
01969              -0.60    13600.00
01970              -1.40    13400.00
01971               0.20    13000.00
01972               0.00    12600.00
01973              -1.40    12200.00
01974              -0.40    11800.00
01975              -0.20    11400.00
01976              -0.40    11000.00
01977               1.00    10800.00
01978              -5.20    10200.00
01979               3.80    10000.00
01980              -3.40     9400.00
01981              -2.60     9200.00
01982               0.20     8800.00
01983               1.00     8400.00
01984               6.60     8000.00
01985              -6.00     7600.00
01986               3.60     7000.00
01987              -5.40     6800.00
01988               0.60     6200.00
01989              -3.40     5800.00
01990              -4.40     5400.00
01991               6.60     4800.00
01992               1.20     4800.00
01993               0.20     4000.00
01994               0.20     3800.00
01995               0.40     3200.00
01996              -3.80     2800.00
01997              -3.00     2200.00
01998              -0.40     2000.00
01999              -0.60     1600.00
02000               2.20     1200.00
02001               2.20      600.00
02002               0.40      200.00
02003               0.20     -200.00
02004              -1.20     -400.00
02005               2.80    -1000.00
02006              -1.40    -1400.00
02007              -2.20    -1800.00
02008               2.80    -2200.00
02009               1.20    -2600.00
02010              -1.40    -2800.00
02011               3.60    -3400.00
02012              18.20    -3800.00
02013              25.00    -4600.00
02014             -25.00    -5200.00
02015             -25.00    -5600.00
02016              25.00    -5800.00
02017               7.60    -6200.00
02018             -25.00    -6400.00
02019              25.00    -6600.00
02020              25.00    -7600.00
02021             -25.00    -7400.00
02022              15.00    -8200.00
02023              25.00    -8800.00
02024             -25.00    -8800.00
02025             -25.00    -9600.00
02026              25.00    -9600.00
02027             -25.00   -10000.00
02028             -15.80   -10600.00
02029              25.00   -10800.00
02030              18.60   -11400.00
02031             -17.40   -11600.00
02032             -25.00   -12000.00
02033              25.00   -12800.00
02034              -2.80   -12800.00
02035             -25.00   -13200.00
02036              23.40   -13600.00
02037              13.00   -13800.00
02038             -14.60   -14600.00
02039             -18.80   -14600.00
02040              25.00   -15000.00
02041               1.00   -15400.00
02042             -25.00   -15600.00
02043              25.00   -16000.00
02044               4.40   -16200.00
02045             -21.00   -16800.00
02046               8.40   -17000.00
02047               8.60   -17200.00
02048             -12.40   -17600.00
02049               1.80   -17800.00
02050              11.40   -18000.00
02051              -8.20   -18400.00
02052               0.40   -18800.00
02053               4.20   -19200.00
02054              -4.60   -19200.00
02055              -1.20   -19400.00
02056               3.40   -19600.00
02057               0.00   -20000.00
02058              -0.60   -20200.00
02059               3.40   -20400.00
02060              -2.80   -20400.00
02061               1.00   -20800.00
02062              -1.80   -21000.00
02063              -1.20   -21200.00
02064               5.20   -21200.00
02065              -2.80   -21400.00
02066               0.60   -21600.00
02067               3.20   -21800.00
02068              -3.40   -22000.00
02069              -2.00   -22000.00
02070               3.60   -22200.00
02071              -0.20   -22400.00
02072              -2.20   -22400.00
02073               3.00   -22600.00
02074               0.80   -22800.00
02075              -3.60   -22600.00
02076               1.00   -22800.00
02077               1.80   -22800.00
02078              -1.80   -22800.00
02079               0.60   -23000.00
02080               1.80   -23200.00
02081               0.20   -23000.00
02082              -1.20   -23200.00
02083               0.40   -23200.00
02084               0.60   -23200.00
02085              -1.40   -23200.00
02086               0.40   -23200.00
02087               0.60   -23200.00
02088               0.40   -23200.00
02089              -0.20   -23000.00
02090              -1.40   -23000.00
02091               1.40   -23000.00
02092              -0.40   -22800.00
02093              -1.80   -22800.00
02094               1.00   -22800.00
02095               0.40   -22800.00
02096              -1.40   -22800.00
02097              -0.20   -22600.00
02098               1.20   -22600.00
02099              -1.40   -22200.00
02100              -0.60   -22200.00
02101               2.00   -22000.00
02102              -1.20   -22000.00
02103              -1.00   -21800.00
02104               1.00   -21600.00
02105              -0.20   -21600.00
02106              -2.00   -21400.00
02107               0.20   -21000.00
02108               0.40   -20800.00
02109              -1.20   -20800.00
02110               0.40   -20600.00
02111               1.20   -20200.00
02112              -1.20   -20000.00
02113              -0.60   -19800.00
02114               0.60   -19600.00
02115              -0.40   -19400.00
02116              -0.60   -19200.00
02117               0.20   -19000.00
02118               0.20   -18600.00
02119              -0.60   -18400.00
02120               0.20   -18000.00
02121              -0.20   -18000.00
02122              -1.00   -17400.00
02123               0.20   -17200.00
02124              -0.40   -17000.00
02125              -0.20   -16800.00
02126               1.00   -16400.00
02127              -0.40   -16200.00
02128              -0.60   -15600.00
02129               0.20   -15400.00
02130              -0.40   -15200.00
02131              -0.60   -14800.00
02132              -0.20   -14400.00
02133               1.00   -14200.00
02134              -0.60   -13800.00
02135              -1.00   -13200.00
02136              -0.20   -13000.00
02137              -0.20   -12800.00
02138              -0.20   -12200.00
02139               0.20   -11800.00
02140               0.40   -11400.00
02141              -0.40   -11000.00
02142              -0.40   -10800.00
02143              -0.60   -10400.00
02144              -0.60   -10000.00
02145               0.20    -9400.00
02146              -0.20    -9000.00
02147              -0.60    -8800.00
02148               0.40    -8400.00
02149              -0.40    -8000.00
02150              -0.60    -7600.00
02151               0.60    -7000.00
02152              -0.20    -6800.00
02153              -1.20    -6200.00
02154               0.40    -5800.00
02155              -0.60    -5200.00
02156              -1.00    -4800.00
02157              -0.40    -4400.00
02158              -0.20    -4200.00
02159              -0.80    -3600.00
02160              -0.20    -3200.00
02161              -0.20    -2800.00
02162              -0.40    -2400.00
02163              -1.00    -2000.00
02164              -0.20    -1600.00
02165              -0.60    -1000.00
02166              -0.60     -600.00
02167              -0.60     -200.00
02168               0.20      200.00
02169               0.80      600.00
02170               3.40     1200.00
02171              -1.20     1400.00
02172              -2.00     1800.00
02173               2.20     2200.00
02174               1.40     2800.00
02175              -2.20     3000.00
02176               1.80     3200.00
02177               9.00     3800.00
02178              23.00     4600.00
02179              -0.60     5000.00
02180             -25.00     5600.00
02181              -4.60     5800.00
02182              25.00     6400.00
02183             -20.20     6400.00
02184             -25.00     6800.00
02185              25.00     7400.00
02186              25.00     7800.00
02187             -25.00     8200.00
02188             -14.20     8600.00
02189              25.00     8800.00
02190             -25.00     9200.00
02191             -25.00     9800.00
02192              25.00    10000.00
02193             -10.80    10400.00
02194             -25.00    11000.00
02195              25.00    11200.00
02196              22.80    11800.00
02197             -25.00    12000.00
02198             -15.00    12400.00
02199              25.00    12800.00
02200              -2.00    13200.00
02201             -25.00    13600.00
02202              13.20    14000.00
02203              16.40    14600.00
02204             -15.00    14800.00
02205             -13.80    15000.00
02206              17.20    15400.00
02207               3.60    15800.00
02208             -17.40    16000.00
02209              11.40    16200.00
02210               9.20    16600.00
02211             -16.20    16800.00
02212               1.80    17200.00
02213               9.80    17600.00
02214              -9.20    17600.00
02215              -2.00    18000.00
02216               9.20    18400.00
02217              -3.00    18600.00
02218              -3.60    18800.00
02219               3.00    19200.00
02220              -1.40    19200.00
02221              -1.80    19600.00
02222               1.00    19800.00
02223              -0.60    20000.00
02224               0.40    20400.00
02225               0.60    20600.00
02226              -3.00    20600.00
02227               0.40    21000.00
02228              -1.00    21200.00
02229              -2.20    21200.00
02230               2.60    21400.00
02231              -0.60    21600.00
02232              -2.00    21600.00
02233               1.80    22000.00
02234              -0.60    22000.00
02235              -3.00    22200.00
02236               1.00    22200.00
02237               0.60    22400.00
02238              -2.00    22400.00
02239               0.60    22600.00
02240               0.40    22600.00
02241              -2.00    22800.00
02242              -0.60    22800.00
02243               0.40    23000.00
02244              -1.00    22800.00
02245              -1.00    23000.00
02246              -0.20    23000.00
02247               0.20    23200.00
02248              -1.20    23000.00
02249              -0.60    23000.00
02250               0.40    22800.00
02251              -0.40    23200.00
02252              -0.60    23000.00
02253              -0.40    23000.00
02254               0.20    23000.00
02255              -0.60    22800.00
02256              -1.00    23000.00
02257              -0.40    22800.00
02258              -0.40    22800.00
02259              -0.60    22600.00
02260              -0.20    22800.00
02261               0.20    22600.00
02262              -0.60    22400.00
02263              -1.00    22400.00
02264               0.20    22400.00
02265              -0.40    22000.00
02266              -1.20    22000.00
02267               0.20    22000.00
02268              -0.40    21600.00
02269              -0.40    21600.00
02270               0.20    21400.00
02271              -0.20    21200.00
02272              -1.00    21200.00
02273               0.20    21000.00
02274              -0.20    20600.00
02275              -0.80    20600.00
02276              -0.80    20400.00
02277               0.20    20000.00
02278              -0.60    19800.00
02279              -0.40    19600.00
02280              -0.40    19400.00
02281               0.20    19200.00
02282              -0.60    19000.00
02283              -0.40    18800.00
02284              -0.20    18400.00
02285              -1.00    18200.00
02286              -1.20    17600.00
02287               0.20    17600.00
02288              -0.40    17200.00
02289              -0.60    16800.00
02290              -0.20    16600.00
02291              -0.20    16400.00
02292              -0.40    16000.00
02293              -0.60    15800.00
02294              -0.60    15400.00
02295              -0.20    15200.00
02296              -0.40    14600.00
02297              -0.60    14400.00
02298              -0.60    14000.00
02299              -0.40    13600.00
02300              -0.60    13200.00
02301              -0.20    13000.00
02302              -0.40    12600.00
02303              -0.60    12000.00
02304              -0.60    11800.00
02305              -0.60    11200.00
02306              -0.60    11000.00
02307              -0.60    10800.00
02308              -0.60    10200.00
02309              -0.60    10000.00
02310              -0.20     9400.00
02311              -0.40     9200.00
02312              -0.40     8600.00
02313              -0.20     8400.00
02314              -0.20     7800.00
02315              -0.20     7400.00
02316              -0.40     7000.00
02317              -0.40     6600.00
02318              -0.60     6200.00
02319              -0.40     5800.00
02320              -0.20     5400.00
02321              -0.40     4800.00
02322              -0.40     4400.00
02323              -0.20     4000.00
02324              -0.40     3600.00
02325              -0.20     3200.00
02326              -0.60     2800.00
02327              -0.40     2200.00
02328               0.20     2000.00
02329              -0.40     1400.00
02330              -0.40      800.00
02331               0.00      600.00
02332              -0.20        0.00
02333               0.20     -400.00
02334               1.00     -800.00
02335               3.20    -1000.00
02336              -1.20    -1600.00
02337              -2.00    -2000.00
02338               1.80    -2400.00
02339               1.40    -2600.00
02340              -2.20    -3000.00
02341               4.20    -3400.00
02342              23.60    -4000.00
02343              21.80    -4800.00
02344             -25.00    -5200.00
02345             -21.20    -5600.00
02346              25.00    -6000.00
02347             -11.40    -6400.00
02348             -25.00    -6200.00
02349              25.00    -6800.00
02350              25.00    -7600.00
02351             -25.00    -7400.00
02352              25.00    -8600.00
02353              25.00    -8800.00
02354             -25.00    -9000.00
02355              25.00    -9800.00
02356              25.00    -9600.00
02357             -25.00   -10200.00
02358              -1.00   -10800.00
02359              25.00   -10800.00
02360              15.40   -11600.00
02361             -25.00   -11800.00
02362             -17.40   -12200.00
02363              25.00   -12800.00
02364             -20.40   -12800.00
02365             -18.00   -13600.00
02366              25.00   -13600.00
02367               6.60   -14000.00
02368             -18.60   -14600.00
02369             -13.00   -14800.00
02370              25.00   -15200.00
02371             -10.20   -15400.00
02372             -18.80   -15800.00
02373              25.00   -16200.00
02374              -3.80   -16400.00
02375             -15.60   -16800.00
02376               8.60   -17000.00
02377               5.00   -17200.00
02378             -10.40   -17600.00
02379               3.60   -17800.00
02380               7.80   -18200.00
02381              -5.40   -18400.00
02382               1.40   -18800.00
02383               0.20   -19000.00
02384              -1.40   -19400.00
02385               0.40   -19600.00
02386              -0.20   -19600.00
02387               0.40   -20000.00
02388               2.20   -20200.00
02389              -0.20   -20400.00
02390              -1.60   -20600.00
02391               3.40   -20800.00
02392              -4.40   -21000.00
02393               0.40   -21200.00
02394               4.60   -21200.00
02395              -3.20   -21600.00
02396               1.20   -21600.00
02397               2.60   -21600.00
02398              -3.00   -22000.00
02399              -1.20   -22000.00
02400               3.40   -22400.00
02401              -1.00   -22400.00
02402              -1.20   -22600.00
02403               3.60   -22600.00
02404              -0.40   -22800.00
02405              -2.60   -22600.00
02406               1.40   -22800.00
02407               0.80   -22800.00
02408              -1.20   -22800.00
02409               0.60   -22800.00
02410               1.00   -23200.00
02411               0.00   -23200.00
02412              -0.80   -23200.00
02413               0.60   -23200.00
02414               0.40   -23200.00
02415              -1.00   -23200.00
02416               1.00   -23000.00
02417               0.40   -23200.00
02418               0.00   -23000.00
02419              -0.20   -23200.00
02420              -0.60   -23000.00
02421               1.00   -23200.00
02422              -0.20   -22800.00
02423              -0.60   -22800.00
02424               0.40   -22800.00
02425               0.20   -22800.00
02426              -0.60   -22600.00
02427              -0.60   -22400.00
02428               1.20   -22600.00
02429              -0.60   -22400.00
02430              -0.40   -22200.00
02431               1.20   -22000.00
02432              -0.40   -22000.00
02433              -0.40   -21800.00
02434               0.20   -21600.00
02435               0.20   -21400.00
02436              -1.00   -21200.00
02437              -0.20   -21000.00
02438               0.20   -21000.00
02439              -0.60   -20800.00
02440               0.40   -20400.00
02441              -0.20   -20400.00
02442              -0.60   -20000.00
02443               0.40   -19800.00
02444               0.20   -19600.00
02445              -0.40   -19400.00
02446               0.20   -19200.00
02447               0.40   -18800.00
02448              -0.40   -18600.00
02449              -0.40   -18400.00
02450               0.20   -18400.00
02451              -0.80   -17800.00
02452              -0.20   -17400.00
02453               1.00   -17200.00
02454              -0.60   -17000.00
02455              -0.40   -16600.00
02456               0.20   -16400.00
02457              -0.60   -16000.00
02458              -0.40   -15600.00
02459               0.20   -15400.00
02460              -0.20   -15200.00
02461              -0.20   -14600.00
02462              -0.20   -14400.00
02463               0.40   -14000.00
02464              -0.60   -13600.00
02465              -0.40   -13200.00
02466               0.20   -12800.00
02467              -0.40   -12600.00
02468              -0.60   -12200.00
02469              -0.20   -11800.00
02470               0.40   -11400.00
02471              -0.60   -11000.00
02472              -0.40   -10600.00
02473               0.40   -10200.00
02474              -0.40   -10000.00
02475              -0.60    -9400.00
02476               0.40    -9000.00
02477              -0.40    -8800.00
02478              -0.60    -8400.00
02479              -0.40    -7800.00
02480               0.20    -7400.00
02481              -0.60    -7000.00
02482              -0.40    -6600.00
02483              -0.20    -6000.00
02484              -0.20    -5800.00
02485              -1.20    -5200.00
02486               0.20    -4800.00
02487              -0.80    -4400.00
02488              -1.20    -4000.00
02489               0.20    -3600.00
02490              -0.40    -3200.00
02491              -1.00    -2800.00
02492               0.60    -2200.00
02493              -0.40    -1800.00
02494              -1.00    -1400.00
02495               0.20    -1000.00
02496              -0.60     -400.00
02497              -1.20        0.00
02498               1.00      400.00
02499               1.20      800.00
02500               3.00     1200.00
02501              -2.00     1600.00
02502              -1.20     2000.00
02503               2.80     2400.00
02504               0.20     2800.00
02505              -2.80     3200.00
02506               4.20     3600.00
02507              10.80     4000.00
02508              24.20     4800.00
02509             -12.40     5200.00
02510             -25.00     5600.00
02511               7.80     6000.00
02512              25.00     6200.00
02513             -25.00     6400.00
02514             -25.00     7000.00
02515              25.00     7600.00
02516              25.00     7800.00
02517             -25.00     8200.00
02518              22.80     8800.00
02519              25.00     9000.00
02520             -25.00     9400.00
02521             -13.00    10000.00
02522              25.00    10200.00
02523             -25.00    10800.00
02524             -25.00    11000.00
02525              25.00    11200.00
02526              10.60    11800.00
02527             -25.00    12000.00
02528              -2.20    12400.00
02529              25.00    12800.00
02530             -13.40    13400.00
02531             -19.60    13600.00
02532              18.60    14000.00
02533              10.60    14400.00
02534             -19.00    14800.00
02535              -8.40    15200.00
02536              20.80    15600.00
02537              -4.40    15800.00
02538             -15.00    16000.00
02539              16.20    16400.00
02540               2.80    16800.00
02541             -15.40    16800.00
02542               5.80    17200.00
02543               7.40    17400.00
02544             -11.60    18000.00
02545               1.80    18200.00
02546               8.40    18400.00
02547              -6.00    18600.00
02548              -2.80    19000.00
02549               3.40    19200.00
02550              -3.40    19600.00
02551              -1.00    19800.00
02552               1.40    20000.00
02553              -1.20    20200.00
02554               1.80    20400.00
02555              -0.40    20600.00
02556              -2.80    20800.00
02557               1.40    21000.00
02558              -2.00    21200.00
02559              -2.00    21400.00
02560               3.00    21400.00
02561              -1.80    21600.00
02562              -1.40    22000.00
02563               2.20    22000.00
02564              -1.40    22000.00
02565              -2.80    22200.00
02566               2.00    22200.00
02567               0.40    22400.00
02568              -2.40    22400.00
02569               1.00    22600.00
02570               0.20    22800.00
02571              -2.00    22800.00
02572              -0.20    22800.00
02573               0.40    23000.00
02574              -0.40    23000.00
02575              -0.80    23000.00
02576               0.20    23200.00
02577              -0.20    23000.00
02578              -1.40    23000.00
02579              -0.60    23000.00
02580              -0.40    23000.00
02581              -0.20    23000.00
02582              -0.20    23000.00
02583              -0.60    23000.00
02584               0.40    23000.00
02585               0.20    23000.00
02586              -1.40    23000.00
02587              -0.40    22800.00
02588               0.40    23000.00
02589              -0.60    22800.00
02590              -0.60    22800.00
02591               0.40    22800.00
02592              -0.60    22400.00
02593              -1.20    22400.00
02594               0.60    22200.00
02595               0.20    22000.00
02596              -1.40    22000.00
02597               0.40    21800.00
02598              -0.20    21800.00
02599              -0.60    21600.00
02600              -0.20    21200.00
02601              -0.20    21200.00
02602              -1.20    21200.00
02603               1.00    20800.00
02604              -0.60    20800.00
02605              -1.00    20600.00
02606               0.40    20200.00
02607              -0.60    20000.00
02608              -1.20    19800.00
02609               0.40    19600.00
02610              -1.20    19400.00
02611              -0.20    19000.00
02612              -0.20    18800.00
02613              -1.20    18600.00
02614               0.60    18200.00
02615              -0.40    18000.00
02616              -1.80    17600.00
02617               0.40    17400.00
02618               0.20    17200.00
02619              -2.00    16800.00
02620               0.20    16400.00
02621               0.20    16200.00
02622              -1.20    16000.00
02623              -0.20    15800.00
02624               0.20    15400.00
02625              -1.20    15000.00
02626              -0.60    14600.00
02627              -0.40    14400.00
02628              -1.00    14000.00
02629              -0.60    13600.00
02630               0.00    13200.00
02631               0.00    12800.00
02632              -0.40    12400.00
02633              -0.60    12200.00
02634              -0.40    11800.00
02635              -0.60    11200.00
02636              -1.00    11000.00
02637              -0.60    10600.00
02638              -0.60    10000.00
02639              -0.60     9800.00
02640              -0.40     9400.00
02641               0.20     9000.00
02642              -0.40     8800.00
02643              -0.40     8200.00
02644              -0.60     7800.00
02645              -0.40     7200.00
02646              -0.40     7000.00
02647              -0.40     6600.00
02648              -0.40     6200.00
02649               0.20     5600.00
02650              -0.60     5200.00
02651              -0.60     4600.00
02652               0.20     4400.00
02653              -0.60     4000.00
02654              -1.00     3600.00
02655               0.20     3200.00
02656              -0.20     2400.00
02657              -1.20     2000.00
02658               0.60     1600.00
02659               0.20     1400.00
02660              -1.40      800.00
02661               0.60      400.00
02662               0.80        0.00
02663              -0.60     -400.00
02664               1.20     -800.00
02665               4.40    -1200.00
02666              -2.80    -1600.00
02667              -1.60    -2000.00
02668               3.40    -2400.00
02669               0.20    -2800.00
02670              -2.80    -3200.00
02671               7.40    -3400.00
02672              25.00    -4000.00
02673               6.60    -5000.00
02674             -25.00    -5400.00
02675              -3.80    -5800.00
02676              25.00    -6000.00
02677             -25.00    -6400.00
02678             -25.00    -6400.00
02679              25.00    -7200.00
02680              16.60    -7600.00
02681             -25.00    -7600.00
02682              25.00    -8800.00
02683              25.00    -8800.00
02684             -25.00    -9000.00
02685              25.00    -9800.00
02686              25.00    -9600.00
02687             -25.00   -10400.00
02688              10.60   -10800.00
02689              25.00   -11000.00
02690              10.00   -11600.00
02691             -25.00   -12000.00
02692               1.40   -12400.00
02693              25.00   -12600.00
02694             -25.00   -12800.00
02695              -4.60   -13600.00
02696              25.00   -13800.00
02697               0.00   -14000.00
02698             -21.80   -14600.00
02699              -3.60   -14800.00
02700              25.00   -15200.00
02701             -21.80   -15400.00
02702              -6.80   -16000.00
02703              25.00   -16000.00
02704             -12.20   -16400.00
02705             -10.20   -16800.00
02706              10.60   -17000.00
02707               1.00   -17200.00
02708             -10.20   -17600.00
02709               6.80   -17800.00
02710               5.00   -18400.00
02711              -5.40   -18600.00
02712               2.60   -18800.00
02713              -0.20   -19000.00
02714              -1.40   -19200.00
02715               0.40   -19400.00
02716               0.60   -19800.00
02717               0.20   -20000.00
02718               2.00   -20200.00
02719              -1.00   -20400.00
02720              -1.20   -20800.00
02721               2.60   -20800.00
02722              -4.60   -21000.00
02723               2.60   -21200.00
02724               3.00   -21200.00
02725              -2.80   -21600.00
02726               2.60   -21800.00
02727               1.20   -21800.00
02728              -3.60   -22000.00
02729               0.00   -22000.00
02730               2.80   -22400.00
02731              -2.00   -22200.00
02732              -0.20   -22400.00
02733               3.60   -22600.00
02734              -1.20   -22800.00
02735              -2.00   -22800.00
02736               2.00   -22800.00
02737               0.40   -23000.00
02738              -1.00   -22800.00
02739               1.00   -23000.00
02740               1.00   -23200.00
02741              -0.40   -23200.00
02742              -1.20   -23200.00
02743               1.00   -23200.00
02744               0.00   -23000.00
02745              -1.20   -23200.00
02746               0.60   -23200.00
02747               0.40   -23200.00
02748               0.00   -23200.00
02749              -0.60   -23000.00
02750              -0.20   -23000.00
02751               1.00   -23000.00
02752              -1.20   -22800.00
02753               0.00   -22800.00
02754               1.00   -22800.00
02755               0.40   -22800.00
02756              -0.60   -22600.00
02757               0.20   -22600.00
02758               1.00   -22400.00
02759              -1.40   -22400.00
02760              -0.20   -22200.00
02761               1.20   -22000.00
02762              -0.80   -22000.00
02763              -0.40   -21800.00
02764               0.40   -21600.00
02765               0.20   -21600.00
02766              -0.80   -21400.00
02767               0.20   -21000.00
02768               0.40   -21000.00
02769              -0.40   -20800.00
02770               0.40   -20600.00
02771              -0.20   -20400.00
02772              -0.20   -20000.00
02773               0.00   -19800.00
02774              -0.40   -19600.00
02775               0.20   -19400.00
02776               0.20   -19000.00
02777              -0.20   -18800.00
02778              -0.20   -18600.00
02779               0.00   -18400.00
02780              -0.40   -18000.00
02781              -0.60   -17600.00
02782               0.40   -17200.00
02783               0.20   -17200.00
02784              -0.40   -16800.00
02785               0.60   -16600.00
02786              -0.40   -16200.00
02787              -0.60   -15800.00
02788               0.40   -15600.00
02789              -0.40   -15200.00
02790              -0.60   -15000.00
02791              -0.20   -14600.00
02792               0.20   -14400.00
02793              -0.40   -14000.00
02794              -0.40   -13600.00
02795               0.20   -13200.00
02796              -0.40   -13000.00
02797               0.00   -12400.00
02798               0.20   -12200.00
02799              -0.60   -11600.00
02800              -0.20   -11400.00
02801               0.00   -10800.00
02802              -0.60   -10600.00
02803               0.20   -10000.00
02804              -0.40    -9800.00
02805              -0.40    -9600.00
02806               0.00    -9000.00
02807              -0.60    -8400.00
02808              -0.40    -8200.00
02809              -0.60    -7800.00
02810              -0.60    -7200.00
02811              -0.60    -6800.00
02812              -0.40    -6400.00
02813              -0.40    -6000.00
02814               0.20    -5600.00
02815              -1.00    -5200.00
02816              -0.20    -4600.00
02817              -0.40    -4200.00
02818              -0.40    -4000.00
02819              -0.60    -3400.00
02820              -0.20    -3200.00
02821              -0.20    -2600.00
02822              -0.60    -2000.00
02823              -0.60    -1800.00
02824              -0.20    -1200.00
02825              -1.20     -800.00
02826              -0.80     -400.00
02827               0.40        0.00
02828               0.20      600.00
02829               1.40      800.00
02830               2.80     1200.00
02831              -2.60     1800.00
02832              -1.00     2000.00
02833               3.00     2400.00
02834               0.60     2800.00
02835              -2.60     3200.00
02836               5.00     3600.00
02837              13.80     4200.00
02838              23.00     4800.00
02839             -25.00     5200.00
02840             -25.00     5600.00
02841              19.60     6000.00
02842              21.20     6400.00
02843             -25.00     6600.00
02844             -20.60     7000.00
02845              25.00     7800.00
02846              19.80     8000.00
02847             -25.00     8400.00
02848              25.00     8800.00
02849              25.00     9000.00
02850             -25.00     9400.00
02851              19.80    10000.00
02852              25.00    10400.00
02853             -25.00    10800.00
02854             -13.00    11000.00
02855              25.00    11400.00
02856              -3.60    11800.00
02857             -25.00    12400.00
02858              11.60    12600.00
02859              25.00    13000.00
02860             -22.20    13400.00
02861             -10.20    14000.00
02862              21.00    14000.00
02863               3.80    14600.00
02864             -19.60    14800.00
02865              -2.80    15200.00
02866              19.80    15600.00
02867             -10.20    15800.00
02868              -9.80    16200.00
02869              18.00    16400.00
02870              -3.60    16800.00
02871             -14.00    17000.00
02872              10.00    17200.00
02873               3.40    17600.00
02874             -12.40    18000.00
02875               6.20    18400.00
02876               6.20    18400.00
02877              -7.00    18800.00
02878              -0.60    19000.00
02879               2.80    19400.00
02880              -3.80    19600.00
02881              -0.60    19800.00
02882               1.20    19800.00
02883              -1.00    20000.00
02884               1.20    20400.00
02885              -1.00    20600.00
02886              -1.20    20800.00
02887               0.60    21000.00
02888              -2.80    21200.00
02889               0.20    21400.00
02890               2.20    21600.00
02891              -3.00    21600.00
02892               0.20    21600.00
02893               2.00    22000.00
02894              -3.00    22200.00
02895              -1.20    22200.00
02896               2.60    22400.00
02897              -1.20    22400.00
02898              -1.40    22400.00
02899               1.80    22600.00
02900              -1.40    22600.00
02901              -2.00    22800.00
02902               0.40    22800.00
02903              -0.60    23000.00
02904              -0.60    23000.00
02905              -0.40    23000.00
02906               0.20    23000.00
02907               0.20    23000.00
02908              -1.40    23000.00
02909              -0.40    23000.00
02910               0.40    23200.00
02911              -0.60    23000.00
02912              -0.60    23000.00
02913               0.40    23000.00
02914               0.20    23000.00
02915              -0.80    23000.00
02916              -0.40    22800.00
02917              -0.40    23000.00
02918              -0.60    22800.00
02919              -0.20    22800.00
02920              -0.40    22800.00
02921              -0.20    22400.00
02922              -0.40    22400.00
02923              -0.80    22400.00
02924               0.40    22200.00
02925              -0.20    22000.00
02926              -1.00    22000.00
02927               0.20    21600.00
02928               0.00    21600.00
02929              -0.60    21600.00
02930              -0.60    21400.00
02931              -0.60    21400.00
02932              -0.80    21200.00
02933               0.40    20800.00
02934              -0.60    20600.00
02935              -0.60    20400.00
02936               0.00    20200.00
02937               0.20    20000.00
02938              -1.40    19800.00
02939              -0.60    19600.00
02940               0.40    19400.00
02941              -0.40    19000.00
02942              -1.20    18800.00
02943               0.40    18400.00
02944              -0.40    18200.00
02945              -2.20    18000.00
02946              -0.20    17600.00
02947               0.40    17400.00
02948              -1.00    17000.00
02949              -0.20    16800.00
02950               0.20    16400.00
02951              -0.60    16200.00
02952              -1.00    15800.00
02953              -0.40    15600.00
02954              -0.40    15400.00
02955              -0.40    15000.00
02956              -0.60    14800.00
02957              -1.00    14200.00
02958               0.00    13800.00
02959               0.20    13600.00
02960              -1.20    13200.00
02961              -0.60    12800.00
02962              -0.40    12400.00
02963              -1.00    12000.00
02964              -0.20    11800.00
02965               0.20    11200.00
02966              -0.40    10800.00
02967               0.00    10400.00
02968               0.20    10000.00
02969              -0.60     9600.00
02970              -0.60     9200.00
02971              -0.20     9000.00
02972              -0.80     8600.00
02973              -1.00     8000.00
02974               0.40     7800.00
02975               0.20     7200.00
02976              -0.60     7000.00
02977               0.00     6400.00
02978              -0.20     6000.00
02979              -0.60     5600.00
02980              -0.40     5200.00
02981              -0.40     4600.00
02982              -0.60     4200.00
02983              -0.40     4000.00
02984              -0.20     3200.00
02985              -0.20     3000.00
02986              -0.40     2600.00
02987              -0.20     2200.00
02988               0.20     1800.00
02989              -0.20     1200.00
02990              -0.20      800.00
02991              -0.40      400.00
02992               0.20        0.00
02993               0.60     -600.00
02994               1.20     -800.00
02995               3.40    -1400.00
02996              -2.80    -1800.00
02997              -1.20    -2000.00
02998               3.60    -2400.00
02999              -1.00    -2800.00
03000              -2.00    -3200.00
03001              10.00    -3600.00
03002              25.00    -4400.00
03003             -10.20    -5200.00
03004             -25.00    -5600.00
03005              13.00    -6000.00
03006              25.00    -6200.00
03007             -25.00    -6400.00
03008             -22.80    -6400.00
03009              25.00    -7400.00
03010             -25.00    -7400.00
03011             -25.00    -8000.00
03012              25.00    -9000.00
03013              10.40    -8800.00
03014             -25.00    -9200.00
03015              25.00    -9800.00
03016              13.40    -9800.00
03017             -25.00   -10400.00
03018              19.40   -10600.00
03019              23.00   -11200.00
03020               3.80   -11800.00
03021             -25.00   -12000.00
03022              17.40   -12400.00
03023              25.00   -12800.00
03024             -25.00   -13000.00
03025               6.60   -13600.00
03026              23.40   -13800.00
03027              -4.20   -14400.00
03028             -24.20   -14600.00
03029               7.00   -14800.00
03030              25.00   -15200.00
03031             -25.00   -15400.00
03032               5.00   -16000.00
03033              23.60   -16200.00
03034             -17.40   -16400.00
03035              -5.20   -16800.00
03036              11.80   -17000.00
03037              -2.60   -17400.00
03038              -9.00   -17600.00
03039               9.80   -18000.00
03040               1.20   -18400.00
03041              -5.20   -18600.00
03042               2.80   -18800.00
03043              -1.00   -19000.00
03044              -1.20   -19200.00
03045               0.20   -19600.00
03046               1.40   -19800.00
03047               0.80   -20000.00
03048               2.00   -20200.00
03049              -2.20   -20400.00
03050               0.80   -20800.00
03051               1.00   -21000.00
03052              -4.60   -21000.00
03053               4.60   -21200.00
03054               0.60   -21200.00
03055              -3.40   -21600.00
03056               3.40   -21600.00
03057               0.40   -21800.00
03058              -3.00   -22000.00
03059               1.60   -22200.00
03060               2.60   -22200.00
03061              -2.80   -22400.00
03062               0.40   -22400.00
03063               2.80   -22600.00
03064              -2.20   -22600.00
03065              -1.40   -22800.00
03066               2.20   -22800.00
03067              -0.60   -22800.00
03068              -0.60   -23000.00
03069               1.00   -23000.00
03070               1.00   -23200.00
03071              -1.00   -23000.00
03072              -1.20   -23200.00
03073               0.60   -23200.00
03074              -0.60   -23200.00
03075              -0.40   -23200.00
03076               1.20   -23200.00
03077               0.40   -23200.00
03078               0.20   -23000.00
03079              -1.00   -22800.00
03080               0.00   -23200.00
03081               0.40   -23000.00
03082              -0.60   -22800.00
03083               0.20   -22800.00
03084               0.40   -22800.00
03085               0.20   -22600.00
03086              -1.20   -22400.00
03087              -0.20   -22600.00
03088               0.60   -22400.00
03089              -1.00   -22200.00
03090              -0.40   -22000.00
03091               1.20   -21800.00
03092               0.00   -22000.00
03093              -1.00   -21600.00
03094               1.20   -21600.00
03095              -0.20   -21200.00
03096              -1.80   -21200.00
03097               2.00   -21000.00
03098               0.20   -20800.00
03099              -1.40   -20800.00
03100               1.20   -20400.00
03101              -0.40   -20400.00
03102              -1.60   -20000.00
03103               0.40   -19600.00
03104               0.60   -19600.00
03105              -0.40   -19200.00
03106               0.20   -19000.00
03107               0.60   -18800.00
03108              -0.20   -18600.00
03109              -0.20   -18400.00
03110               0.40   -18000.00
03111              -0.40   -17400.00
03112               0.20   -17200.00
03113               0.40   -17000.00
03114              -0.60   -16800.00
03115               0.00   -16400.00
03116              -0.20   -16200.00
03117              -0.20   -15800.00
03118               0.20   -15400.00
03119              -0.20   -15200.00
03120              -0.20   -14800.00
03121               0.20   -14600.00
03122               0.00   -14400.00
03123              -0.40   -14000.00
03124              -0.20   -13400.00
03125               0.00   -13000.00
03126              -0.40   -12800.00
03127               0.20   -12400.00
03128              -0.20   -12000.00
03129              -0.40   -11600.00
03130              -0.20   -11200.00
03131              -0.60   -10800.00
03132              -0.60   -10400.00
03133              -0.20   -10000.00
03134              -0.40    -9600.00
03135              -0.40    -9200.00
03136              -0.20    -8800.00
03137              -0.40    -8400.00
03138              -0.20    -8000.00
03139              -0.40    -7600.00
03140              -0.20    -7200.00
03141              -0.40    -6800.00
03142              -0.60    -6400.00
03143              -0.20    -6000.00
03144              -0.40    -5600.00
03145              -1.00    -5000.00
03146              -0.40    -4600.00
03147              -0.60    -4200.00
03148              -0.20    -3800.00
03149              -0.20    -3400.00
03150              -0.20    -3000.00
03151               0.20    -2400.00
03152              -0.40    -2000.00
03153              -1.20    -1600.00
03154               0.40    -1200.00
03155              -0.60     -800.00
03156              -1.40     -400.00
03157               1.00      200.00
03158               0.20      600.00
03159               2.00      800.00
03160               1.60     1400.00
03161              -3.00     1600.00
03162               0.60     2000.00
03163               2.80     2600.00
03164              -1.80     2800.00
03165              -0.60     3200.00
03166               6.40     3600.00
03167              16.40     4200.00
03168              19.60     5000.00
03169             -25.00     5400.00
03170             -25.00     5800.00
03171              25.00     6200.00
03172              10.00     6400.00
03173             -25.00     6800.00
03174              -2.20     7200.00
03175              25.00     7800.00
03176             -15.60     7800.00
03177             -25.00     8400.00
03178              25.00     8800.00
03179              25.00     9000.00
03180             -25.00     9600.00
03181              25.00    10000.00
03182              25.00    10400.00
03183             -25.00    10800.00
03184               3.80    11000.00
03185              25.00    11600.00
03186             -14.20    12000.00
03187             -25.00    12200.00
03188              21.80    12800.00
03189              21.20    13200.00
03190             -25.00    13600.00
03191              -2.20    13800.00
03192              22.80    14200.00
03193              -3.40    14600.00
03194             -20.40    14800.00
03195               4.60    15200.00
03196              16.40    15600.00
03197             -15.40    15800.00
03198              -2.60    16000.00
03199              17.40    16400.00
03200              -9.40    16800.00
03201              -9.40    17000.00
03202              11.40    17200.00
03203              -1.80    17600.00
03204              -9.60    18000.00
03205               8.20    18200.00
03206               2.40    18400.00
03207              -6.60    18800.00
03208               1.00    19000.00
03209               1.40    19200.00
03210              -3.40    19600.00
03211              -0.20    19600.00
03212               0.60    20000.00
03213              -0.80    20400.00
03214               1.40    20400.00
03215              -1.80    20600.00
03216              -0.60    21000.00
03217               0.40    21000.00
03218              -2.80    21200.00
03219               1.20    21400.00
03220               1.20    21400.00
03221              -2.60    21800.00
03222               0.40    21800.00
03223               1.00    22000.00
03224              -3.40    22000.00
03225              -0.60    22200.00
03226               2.20    22200.00
03227              -1.40    22400.00
03228              -0.60    22400.00
03229               2.00    22800.00
03230              -2.00    22800.00
03231              -1.40    22800.00
03232               1.60    22800.00
03233              -1.20    23000.00
03234              -1.20    23000.00
03235               0.80    23200.00
03236               0.00    23200.00
03237              -1.20    23200.00
03238              -0.20    23000.00
03239              -0.20    23000.00
03240              -1.00    23000.00
03241               0.20    23200.00
03242              -0.20    23000.00
03243              -0.60    23200.00
03244               0.40    23000.00
03245              -0.20    23000.00
03246              -1.00    23000.00
03247               0.20    22800.00
03248               0.20    23000.00
03249              -0.60    22800.00
03250              -0.40    22800.00
03251               0.40    22400.00
03252              -1.00    22400.00
03253              -1.00    22200.00
03254               0.20    22200.00
03255              -0.80    22000.00
03256              -1.00    22000.00
03257               0.40    22000.00
03258               0.20    21600.00
03259              -0.40    21600.00
03260              -0.20    21400.00
03261              -0.60    21200.00
03262              -1.00    21000.00
03263               0.20    20800.00
03264              -0.60    20600.00
03265              -0.60    20400.00
03266              -0.20    20000.00
03267              -0.60    19800.00
03268              -1.00    19800.00
03269              -0.20    19600.00
03270              -0.60    19200.00
03271              -0.40    19000.00
03272              -0.20    18800.00
03273              -0.40    18400.00
03274              -0.80    18200.00
03275              -0.60    18000.00
03276              -0.60    17600.00
03277              -0.60    17400.00
03278              -0.40    17200.00
03279              -0.40    16800.00
03280              -0.20    16400.00
03281              -0.40    16200.00
03282              -0.60    15800.00
03283              -0.60    15600.00
03284              -0.60    15200.00
03285              -0.40    14800.00
03286              -0.60    14600.00
03287              -0.60    14200.00
03288               0.00    13600.00
03289              -0.40    13400.00
03290              -1.00    13000.00
03291               0.20    12800.00
03292              -0.20    12400.00
03293              -1.00    12000.00
03294               0.20    11600.00
03295               0.20    11000.00
03296              -1.20    10800.00
03297              -0.60    10400.00
03298               0.40    10000.00
03299              -0.40     9600.00
03300              -0.40     9200.00
03301               0.20     8800.00
03302              -0.20     8400.00
03303              -1.20     8000.00
03304              -0.40     7400.00
03305              -0.20     7200.00
03306              -0.60     6800.00
03307              -0.60     6400.00
03308               0.40     6000.00
03309               0.40     5600.00
03310              -0.60     5000.00
03311              -0.20     4600.00
03312               0.20     4200.00
03313              -1.20     3600.00
03314              -0.60     3200.00
03315               0.20     3000.00
03316              -0.60     2400.00
03317              -0.40     2000.00
03318               0.40     1600.00
03319               0.00     1200.00
03320              -0.40      800.00
03321              -0.20      400.00
03322              -0.20        0.00
03323               0.20     -600.00
03324               2.80     -800.00
03325               1.80    -1400.00
03326              -2.80    -1800.00
03327               0.20    -2000.00
03328               2.20    -2400.00
03329              -1.60    -2800.00
03330              -0.60    -3200.00
03331              13.20    -3600.00
03332              25.00    -4400.00
03333             -25.00    -5000.00
03334             -25.00    -5600.00
03335              25.00    -5800.00
03336              23.40    -6200.00
03337             -25.00    -6400.00
03338              11.80    -6600.00
03339              25.00    -7400.00
03340             -25.00    -7400.00
03341             -25.00    -8000.00
03342              25.00    -8800.00
03343             -25.00    -8800.00
03344             -25.00    -9400.00
03345              25.00    -9800.00
03346             -22.20    -9800.00
03347             -25.00   -10600.00
03348              24.40   -10800.00
03349              21.00   -11400.00
03350              -6.20   -11600.00
03351             -25.00   -12000.00
03352              25.00   -12400.00
03353              16.80   -12800.00
03354             -25.00   -13200.00
03355              17.00   -13800.00
03356              18.80   -13800.00
03357             -10.00   -14400.00
03358             -23.20   -14600.00
03359              17.80   -14800.00
03360              15.00   -15400.00
03361             -25.00   -15600.00
03362              17.00   -16000.00
03363              15.20   -16200.00
03364             -20.20   -16800.00
03365               1.00   -16800.00
03366              10.40   -17200.00
03367              -6.80   -17200.00
03368              -4.40   -17800.00
03369              10.60   -18000.00
03370              -2.60   -18200.00
03371              -2.60   -18600.00
03372               3.00   -19000.00
03373              -2.20   -19200.00
03374              -0.60   -19400.00
03375               0.40   -19600.00
03376               0.60   -19800.00
03377               1.20   -20000.00
03378               2.00   -20400.00
03379              -3.00   -20600.00
03380               2.20   -20800.00
03381              -0.60   -21000.00
03382              -4.00   -21000.00
03383               5.40   -21200.00
03384              -0.60   -21200.00
03385              -1.80   -21600.00
03386               3.80   -21600.00
03387              -1.20   -22000.00
03388              -3.40   -22000.00
03389               2.60   -22200.00
03390               1.40   -22200.00
03391              -2.80   -22400.00
03392               2.20   -22400.00
03393               2.00   -22600.00
03394              -3.40   -22800.00
03395              -0.40   -22800.00
03396               1.00   -22800.00
03397              -1.20   -23000.00
03398               0.60   -23000.00
03399               0.20   -23200.00
03400               0.40   -23000.00
03401               1.00   -23200.00
03402              -1.40   -23200.00
03403               0.20   -23200.00
03404               0.20   -23000.00
03405              -0.40   -23200.00
03406               0.60   -23200.00
03407               0.40   -23200.00
03408              -0.20   -23000.00
03409              -1.20   -23200.00
03410              -0.20   -23000.00
03411               1.00   -22800.00
03412              -1.00   -22800.00
03413               0.40   -22800.00
03414               0.60   -22800.00
03415               0.40   -22600.00
03416              -1.40   -22600.00
03417               0.00   -22400.00
03418               0.80   -22400.00
03419              -1.40   -22200.00
03420               1.00   -22000.00
03421               0.60   -22000.00
03422              -1.60   -21800.00
03423               1.00   -21600.00
03424               1.20   -21600.00
03425              -1.80   -21600.00
03426              -1.00   -21200.00
03427               1.20   -21000.00
03428              -0.40   -20800.00
03429               0.20   -20600.00
03430               1.00   -20200.00
03431              -0.20   -20200.00
03432              -0.60   -20000.00
03433              -0.20   -19600.00
03434              -0.20   -19400.00
03435               0.20   -19200.00
03436               0.00   -18800.00
03437               0.60   -18800.00
03438               0.20   -18400.00
03439              -0.80   -18400.00
03440              -0.40   -18000.00
03441               0.20   -17400.00
03442               0.40   -17400.00
03443               0.20   -17200.00
03444              -0.20   -16800.00
03445              -0.20   -16400.00
03446               0.20   -16200.00
03447              -0.40   -15800.00
03448              -0.20   -15600.00
03449               0.40   -15000.00
03450               0.20   -14800.00
03451              -0.40   -14400.00
03452               0.40   -14000.00
03453              -0.60   -13800.00
03454              -1.00   -13400.00
03455              -0.20   -13200.00
03456               0.20   -12600.00
03457               0.20   -12400.00
03458              -1.00   -12000.00
03459               0.20   -11600.00
03460               0.40   -11200.00
03461              -1.40   -10800.00
03462              -0.60   -10400.00
03463               1.00   -10000.00
03464              -0.60    -9600.00
03465              -1.00    -9200.00
03466               0.40    -8800.00
03467              -0.60    -8400.00
03468              -1.60    -8000.00
03469              -0.20    -7600.00
03470               0.40    -7200.00
03471              -1.00    -6800.00
03472              -0.60    -6400.00
03473               1.00    -6000.00
03474              -0.40    -5600.00
03475              -2.20    -5000.00
03476               0.20    -4600.00
03477              -0.40    -4200.00
03478              -1.20    -3600.00
03479              -0.20    -3200.00
03480              -0.20    -2800.00
03481               0.20    -2400.00
03482              -0.60    -2000.00
03483              -0.60    -1600.00
03484               0.00    -1200.00
03485              -0.40     -600.00
03486              -1.20     -200.00
03487               0.40        0.00
03488               1.00      600.00
03489               3.00      800.00
03490               0.00     1400.00
03491              -2.20     1800.00
03492               1.40     2000.00
03493               2.20     2600.00
03494              -1.40     3000.00
03495               0.20     3200.00
03496               7.60     3800.00
03497              19.80     4400.00
03498              11.60     4800.00
03499             -25.00     5400.00
03500             -19.80     5800.00
03501              25.00     6200.00
03502              -4.20     6400.00
03503             -25.00     6800.00
03504              17.80     7200.00
03505              25.00     7800.00
03506             -25.00     8000.00
03507             -25.00     8600.00
03508              25.00     8800.00
03509             -11.80     9200.00
03510             -25.00     9800.00
03511              25.00    10000.00
03512              19.40    10600.00
03513             -25.00    11000.00
03514              19.40    11200.00
03515              25.00    11600.00
03516             -25.00    12000.00
03517             -25.00    12400.00
03518              25.00    12800.00
03519              10.20    13200.00
03520             -25.00    13600.00
03521               6.20    13800.00
03522              20.60    14400.00
03523             -10.20    14600.00
03524             -17.40    14800.00
03525              12.20    15200.00
03526              10.20    15600.00
03527             -18.00    15800.00
03528               5.20    16200.00
03529              13.80    16600.00
03530             -14.80    16800.00
03531              -3.20    17200.00
03532              11.40    17400.00
03533              -6.60    17800.00
03534              -6.00    18200.00
03535               9.40    18200.00
03536              -1.00    18600.00
03537              -5.80    18800.00
03538               2.60    19200.00
03539              -0.40    19200.00
03540              -2.80    19600.00
03541               1.00    19800.00
03542               0.40    20000.00
03543              -0.20    20400.00
03544               1.00    20400.00
03545              -2.80    20800.00
03546              -0.20    20800.00
03547              -0.60    21000.00
03548              -2.80    21200.00
03549               2.20    21400.00
03550               0.20    21600.00
03551              -2.20    21600.00
03552               1.40    21800.00
03553               0.20    22000.00
03554              -3.60    22000.00
03555               0.20    22200.00
03556               1.40    22400.00
03557              -2.20    22400.00
03558              -0.20    22800.00
03559               1.00    22600.00
03560              -1.80    22800.00
03561              -1.00    22800.00
03562               0.60    22800.00
03563              -0.80    23000.00
03564              -0.60    23000.00
03565              -0.20    23200.00
03566               0.40    23000.00
03567              -1.00    23000.00
03568              -1.20    23000.00
03569               0.20    23000.00
03570              -0.40    23000.00
03571              -0.20    23000.00
03572              -0.40    23200.00
03573              -0.20    23000.00
03574               0.20    23000.00
03575              -1.00    23000.00
03576              -0.40    22800.00
03577              -0.40    22800.00
03578              -0.60    22800.00
03579              -0.60    22800.00
03580               0.00    22600.00
03581               0.20    22400.00
03582              -1.20    22400.00
03583              -0.20    22200.00
03584               0.20    22200.00
03585              -1.20    22000.00
03586              -0.60    22000.00
03587               0.40    21800.00
03588              -0.40    21600.00
03589              -0.60    21400.00
03590               0.20    21200.00
03591              -1.00    21200.00
03592              -1.20    20800.00
03593               0.20    21000.00
03594              -0.60    20600.00
03595              -0.80    20400.00
03596              -0.20    20200.00
03597              -0.40    19800.00
03598              -1.00    19600.00
03599              -0.60    19600.00
03600               0.20    19200.00
03601              -0.60    19000.00
03602              -0.40    18800.00
03603               0.40    18400.00
03604              -1.00    18200.00
03605              -1.20    17800.00
03606               0.40    17600.00
03607              -0.60    17200.00
03608              -1.20    16800.00
03609               0.20    16600.00
03610              -0.60    16400.00
03611              -1.20    16000.00
03612               0.20    15800.00
03613              -0.40    15600.00
03614              -1.00    15200.00
03615               0.40    14800.00
03616               0.00    14400.00
03617              -1.00    14200.00
03618              -0.20    13800.00
03619              -0.40    13400.00
03620              -0.80    12800.00
03621              -0.20    12600.00
03622              -0.20    12400.00
03623              -0.60    11800.00
03624              -0.40    11600.00
03625               0.20    10800.00
03626              -0.40    10800.00
03627              -0.80    10200.00
03628              -0.20    10000.00
03629               0.20     9600.00
03630              -0.80     9200.00
03631              -0.20     8800.00
03632               0.20     8400.00
03633              -0.40     8200.00
03634              -0.40     7600.00
03635               0.20     7200.00
03636              -0.40     6800.00
03637              -0.40     6400.00
03638              -0.60     6000.00
03639              -0.20     5400.00
03640               0.80     5000.00
03641              -1.60     4600.00
03642              -0.20     4000.00
03643               0.60     3800.00
03644              -0.60     3200.00
03645              -0.20     2800.00
03646              -0.20     2400.00
03647              -0.20     2000.00
03648              -0.20     1400.00
03649              -0.80     1000.00
03650               0.40      600.00
03651               0.20        0.00
03652              -0.60     -200.00
03653               1.00     -600.00
03654               3.40    -1000.00
03655              -0.40    -1600.00
03656              -2.20    -1800.00
03657               1.20    -2200.00
03658               1.20    -2600.00
03659              -2.20    -3000.00
03660               1.40    -3400.00
03661              17.40    -3800.00
03662              25.00    -4600.00
03663             -25.00    -5200.00
03664             -25.00    -5800.00
03665              25.00    -6000.00
03666               8.40    -6400.00
03667             -25.00    -6200.00
03668              25.00    -6600.00
03669              25.00    -7600.00
03670             -25.00    -7200.00
03671              11.00    -8200.00
03672              25.00    -8800.00
03673             -25.00    -8800.00
03674             -25.00    -9600.00
03675              25.00    -9600.00
03676             -25.00   -10000.00
03677             -19.00   -10600.00
03678              25.00   -10800.00
03679              18.60   -11400.00
03680             -18.20   -11800.00
03681             -25.00   -12000.00
03682              25.00   -12600.00
03683              -2.40   -12800.00
03684             -25.00   -13200.00
03685              24.20   -13800.00
03686              13.00   -13800.00
03687             -14.60   -14600.00
03688             -19.00   -14600.00
03689              25.00   -15000.00
03690               2.20   -15400.00
03691             -25.00   -15600.00
03692              25.00   -16000.00
03693               5.40   -16200.00
03694             -18.80   -16800.00
03695               6.00   -17000.00
03696               8.00   -17200.00
03697              -9.20   -17600.00
03698              -0.80   -17600.00
03699               9.40   -18200.00
03700              -4.40   -18400.00
03701              -1.00   -18600.00
03702               2.60   -18800.00
03703              -2.20   -19200.00
03704              -0.80   -19400.00
03705               1.00   -19600.00
03706               0.20   -19800.00
03707               1.20   -20200.00
03708               1.40   -20200.00
03709              -3.00   -20600.00
03710               3.80   -20800.00
03711              -2.60   -21000.00
03712              -2.80   -21000.00
03713               6.80   -21200.00
03714              -2.80   -21400.00
03715              -2.60   -21800.00
03716               6.80   -21800.00
03717              -3.40   -22000.00
03718              -7.00   -22000.00
03719               5.80   -22000.00
03720               3.40   -22400.00
03721              -5.20   -22400.00
03722               2.20   -22600.00
03723               2.60   -22800.00
03724              -5.20   -22800.00
03725              -0.20   -22800.00
03726               4.60   -22800.00
03727              -1.80   -22800.00
03728              -1.80   -22800.00
03729               2.20   -23200.00
03730               0.00   -23000.00
03731              -3.00   -23200.00
03732               1.00   -23200.00
03733               1.40   -23200.00
03734              -2.60   -23000.00
03735               1.80   -23200.00
03736               2.00   -23200.00
03737              -1.40   -23200.00
03738              -1.00   -23200.00
03739              -0.60   -23000.00
03740              -0.20   -23200.00
03741              -0.20   -22800.00
03742               0.20   -22800.00
03743               1.00   -22800.00
03744               0.00   -22800.00
03745               0.20   -22600.00
03746              -1.00   -22600.00
03747               0.20   -22600.00
03748               0.20   -22400.00
03749              -0.60   -22200.00
03750               1.20   -22000.00
03751               0.40   -22000.00
03752              -0.40   -21800.00
03753              -0.40   -21600.00
03754               0.20   -21400.00
03755              -0.40   -21200.00
03756              -0.20   -21200.00
03757               0.80   -20800.00
03758               0.20   -20800.00
03759               0.20   -20400.00
03760               0.40   -20200.00
03761              -0.60   -20200.00
03762              -0.40   -20000.00
03763               0.20   -19600.00
03764               0.00   -19400.00
03765               0.20   -19200.00
03766               0.40   -18800.00
03767               0.00   -18800.00
03768              -0.40   -18400.00
03769               0.20   -18200.00
03770              -1.00   -18000.00
03771              -0.40   -17400.00
03772               1.20   -17200.00
03773              -0.20   -17000.00
03774              -0.20   -16600.00
03775               0.60   -16200.00
03776              -0.60   -16200.00
03777              -0.40   -15600.00
03778               0.20   -15400.00
03779               0.20   -15200.00
03780              -0.60   -14600.00
03781               0.20   -14400.00
03782               0.20   -14000.00
03783              -0.60   -13600.00
03784              -0.20   -13400.00
03785               0.00   -13000.00
03786              -0.60   -12400.00
03787               0.20   -12200.00
03788              -0.40   -12000.00
03789              -0.20   -11600.00
03790              -0.60   -11200.00
03791              -0.40   -10600.00
03792               0.20   -10200.00
03793              -1.00    -9800.00
03794              -0.20    -9400.00
03795               0.40    -9200.00
03796              -1.20    -8800.00
03797              -0.60    -8200.00
03798               0.40    -8200.00
03799              -0.60    -7600.00
03800              -0.80    -7000.00
03801               0.20    -6800.00
03802              -0.60    -6200.00
03803               0.20    -6000.00
03804              -0.20    -5200.00
03805              -0.60    -5000.00
03806              -0.40    -4400.00
03807              -0.60    -4200.00
03808              -0.60    -3600.00
03809              -0.60    -3200.00
03810              -0.20    -2800.00
03811               0.00    -2400.00
03812              -1.00    -1800.00
03813               0.40    -1600.00
03814              -0.60    -1000.00
03815              -0.40     -600.00
03816              -0.20     -200.00
03817               0.20      400.00
03818               1.20      600.00
03819               3.40     1200.00
03820              -1.60     1400.00
03821              -1.00     1800.00
03822               2.60     2200.00
03823               1.00     2800.00
03824              -1.80     3000.00
03825               2.00     3200.00
03826               8.40     3800.00
03827              23.20     4600.00
03828               1.40     5200.00
03829             -25.00     5600.00
03830              -6.00     5800.00
03831              25.00     6200.00
03832             -19.60     6400.00
03833             -25.00     6800.00
03834              25.00     7200.00
03835              25.00     8000.00
03836             -25.00     8200.00
03837             -13.40     8600.00
03838              25.00     8800.00
03839             -25.00     9200.00
03840             -25.00     9800.00
03841              25.00    10200.00
03842             -18.80    10600.00
03843             -25.00    11000.00
03844              25.00    11200.00
03845              11.00    11600.00
03846             -25.00    12000.00
03847              -5.80    12400.00
03848              25.00    12800.00
03849              -3.80    13200.00
03850             -15.80    13600.00
03851               8.40    13800.00
03852              10.00    14400.00
03853              -7.40    14600.00
03854             -15.00    15000.00
03855              11.60    15600.00
03856               8.60    15600.00
03857             -17.40    16000.00
03858               7.80    16400.00
03859              12.20    16600.00
03860             -17.20    16800.00
03861              -0.60    17200.00
03862              11.80    17400.00
03863             -11.00    17800.00
03864              -2.80    18000.00
03865              12.80    18400.00
03866              -5.40    18400.00
03867              -5.40    18800.00
03868               6.40    19200.00
03869              -3.80    19200.00
03870              -5.00    19600.00
03871               5.00    19800.00
03872              -0.60    20200.00
03873              -2.20    20400.00
03874               3.80    20600.00
03875              -2.00    20800.00
03876              -2.80    20800.00
03877               0.40    21200.00
03878              -0.60    21200.00
03879               0.80    21600.00
03880              -0.40    21600.00
03881              -0.40    21800.00
03882               0.60    22000.00
03883              -1.40    22000.00
03884              -2.20    22000.00
03885               0.80    22200.00
03886               0.60    22400.00
03887              -2.00    22400.00
03888               1.00    22800.00
03889               1.00    22600.00
03890              -2.80    22800.00
03891              -0.80    22800.00
03892               1.20    23000.00
03893              -1.40    23000.00
03894              -0.60    22800.00
03895               1.20    23000.00
03896               0.40    23000.00
03897              -1.80    23000.00
03898              -0.60    23200.00
03899               0.40    23000.00
03900              -1.00    23000.00
03901              -0.60    23000.00
03902               0.20    23000.00
03903              -0.40    23000.00
03904              -0.20    23000.00
03905              -0.60    23000.00
03906              -0.60    23000.00
03907              -0.60    22800.00
03908              -0.20    22800.00
03909              -0.60    22800.00
03910               0.20    22600.00
03911               0.40    22600.00
03912              -2.20    22400.00
03913              -0.20    22200.00
03914               1.80    22200.00
03915              -2.20    22000.00
03916              -1.40    21800.00
03917               1.80    21600.00
03918              -0.80    21600.00
03919              -2.00    21400.00
03920               1.20    21200.00
03921              -0.60    21200.00
03922              -2.20    20800.00
03923               0.80    20600.00
03924               0.40    20600.00
03925              -2.20    20400.00
03926               0.40    20000.00
03927               0.40    19800.00
03928              -2.00    19600.00
03929              -0.80    19200.00
03930               0.60    19200.00
03931              -1.40    18800.00
03932              -1.00    18800.00
03933               0.60    18400.00
03934              -0.80    18000.00
03935              -1.20    17600.00
03936               0.40    17400.00
03937              -0.40    17200.00
03938              -0.80    16800.00
03939              -0.40    16600.00
03940              -0.40    16400.00
03941              -0.60    16000.00
03942              -0.60    15800.00
03943              -0.40    15600.00
03944               0.20    15200.00
03945              -0.20    14600.00
03946              -0.60    14400.00
03947              -0.20    14000.00
03948              -0.40    13600.00
03949              -1.00    13400.00
03950               0.00    12800.00
03951              -0.20    12600.00
03952              -0.60    12200.00
03953              -0.20    12000.00
03954               0.00    11200.00
03955              -0.60    11000.00
03956               0.40    10800.00
03957              -0.20    10200.00
03958              -1.00    10000.00
03959               0.20     9400.00
03960              -0.40     9200.00
03961              -0.60     8600.00
03962               0.00     8400.00
03963              -1.00     7800.00
03964               0.40     7600.00
03965              -0.20     7000.00
03966              -1.00     6800.00
03967               1.00     6200.00
03968              -0.40     5800.00
03969              -1.00     5400.00
03970               0.60     5000.00
03971              -0.40     4400.00
03972              -0.60     4000.00
03973               0.20     3600.00
03974              -0.20     3000.00
03975              -0.20     2800.00
03976               0.00     2200.00
03977               0.40     2000.00
03978              -0.60     1400.00
03979              -1.00      800.00
03980               0.20      600.00
03981              -0.60        0.00
03982               0.20     -400.00
03983               1.80     -800.00
03984               3.00    -1200.00
03985              -1.60    -1600.00
03986              -1.20    -2000.00
03987               0.80    -2400.00
03988               1.00    -2600.00
03989              -1.00    -3200.00
03990               4.40    -3400.00
03991              22.00    -4000.00
03992              22.60    -4800.00
03993             -25.00    -5200.00
03994             -23.40    -5600.00
03995              25.00    -6000.00
03996              -8.60    -6400.00
03997             -25.00    -6400.00
03998              25.00    -6800.00
03999              25.00    -7400.00
04000             -25.00    -7400.00
04001              25.00    -8400.00
04002              25.00    -8800.00
04003             -25.00    -9000.00
04004              25.00    -9800.00
04005              25.00    -9600.00
04006             -25.00   -10200.00
04007              -2.20   -10600.00
04008              25.00   -11000.00
04009              15.60   -11600.00
04010             -25.00   -12000.00
04011             -18.20   -12200.00
04012              25.00   -12800.00
04013             -20.60   -12800.00
04014             -19.00   -13600.00
04015              25.00   -13800.00
04016               6.80   -14000.00
04017             -18.20   -14600.00
04018             -12.20   -14800.00
04019              25.00   -15200.00
04020             -10.60   -15400.00
04021             -18.80   -15600.00
04022              25.00   -16200.00
04023              -4.20   -16200.00
04024             -15.40   -16800.00
04025               8.60   -17000.00
04026               4.40   -17200.00
04027             -10.00   -17600.00
04028               3.40   -17800.00
04029               7.80   -18000.00
04030              -5.40   -18400.00
04031               1.00   -18600.00
04032               1.00   -19000.00
04033              -1.20   -19200.00
04034              -0.60   -19400.00
04035               0.40   -19600.00
04036               1.40   -20000.00
04037               2.00   -20200.00
04038              -0.20   -20200.00
04039              -1.40   -20800.00
04040               2.80   -21000.00
04041              -5.00   -21000.00
04042               0.60   -21200.00
04043               4.40   -21200.00
04044              -3.80   -21600.00
04045               1.80   -21600.00
04046               2.80   -21800.00
04047              -3.40   -22000.00
04048              -1.40   -22000.00
04049               3.40   -22200.00
04050              -1.20   -22400.00
04051              -2.00   -22400.00
04052               3.40   -22600.00
04053               0.00   -22600.00
04054              -3.00   -22800.00
04055               1.20   -22800.00
04056               1.00   -23000.00
04057              -1.40   -22800.00
04058               0.20   -23000.00
04059               1.20   -22800.00
04060              -0.20   -23200.00
04061              -1.40   -23000.00
04062               0.80   -23200.00
04063               0.20   -23000.00
04064              -1.80   -23200.00
04065               0.60   -23200.00
04066               0.40   -23200.00
04067               0.20   -23200.00
04068              -0.20   -23000.00
04069              -0.60   -22800.00
04070               0.60   -23000.00
04071              -0.60   -22800.00
04072              -0.40   -22800.00
04073               0.60   -22800.00
04074               0.00   -22800.00
04075              -0.20   -22600.00
04076              -0.40   -22600.00
04077               1.00   -22400.00
04078              -0.40   -22400.00
04079              -0.40   -22000.00
04080               1.00   -22000.00
04081              -0.20   -22000.00
04082               0.00   -21800.00
04083               0.20   -21600.00
04084               0.20   -21400.00
04085               0.00   -21200.00
04086              -0.20   -21200.00
04087               0.40   -21000.00
04088               0.20   -20600.00
04089               0.20   -20400.00
04090              -0.40   -20000.00
04091              -0.60   -20000.00
04092               0.20   -20000.00
04093              -0.40   -19600.00
04094               0.00   -19400.00
04095               0.40   -19200.00
04096               0.40   -18800.00
04097              -0.20   -18600.00
04098              -0.20   -18400.00
04099               0.40   -18000.00
04100              -0.60   -17600.00
04101              -0.20   -17400.00
04102               0.80   -17200.00
04103              -0.40   -16800.00
04104              -0.40   -16800.00
04105               0.20   -16400.00
04106              -0.40   -16000.00
04107              -0.40   -15600.00
04108              -0.40   -15200.00
04109               0.20   -15000.00
04110              -0.60   -14800.00
04111              -0.20   -14400.00
04112               0.20   -14000.00
04113              -0.60   -13600.00
04114              -0.40   -13200.00
04115               0.00   -13000.00
04116              -0.40   -12600.00
04117              -0.20   -12200.00
04118              -0.40   -12000.00
04119              -0.40   -11400.00
04120              -0.40   -11000.00
04121              -0.40   -10600.00
04122              -0.40   -10400.00
04123              -0.40    -9800.00
04124              -0.60    -9400.00
04125               0.00    -9000.00
04126              -0.40    -8400.00
04127              -0.40    -8400.00
04128              -0.60    -7800.00
04129               0.20    -7400.00
04130              -0.20    -7000.00
04131              -0.60    -6600.00
04132              -0.60    -6000.00
04133               0.20    -5600.00
04134              -1.40    -5400.00
04135              -0.40    -4600.00
04136               0.20    -4400.00
04137              -0.40    -4000.00
04138              -0.60    -3600.00
04139               0.40    -3200.00
04140              -0.20    -2600.00
04141              -0.60    -2400.00
04142              -0.60    -1800.00
04143              -0.20    -1600.00
04144              -0.60    -1000.00
04145              -0.60     -400.00
04146               0.00     -200.00
04147               0.80      400.00
04148               1.40      800.00
04149               3.60     1200.00
04150              -1.80     1600.00
04151              -1.20     2000.00
04152               2.60     2200.00
04153               1.00     2800.00
04154              -2.40     3000.00
04155               3.60     3400.00
04156              11.40     4000.00
04157              24.40     4800.00
04158             -11.80     5000.00
04159             -25.00     5600.00
04160               7.40     6000.00
04161              25.00     6400.00
04162             -25.00     6800.00
04163             -25.00     6800.00
04164              25.00     7600.00
04165              25.00     8000.00
04166             -25.00     8200.00
04167              21.00     8600.00
04168              25.00     8800.00
04169             -25.00     9400.00
04170             -15.20    10000.00
04171              25.00    10200.00
04172             -25.00    10800.00
04173             -25.00    11000.00
04174              25.00    11200.00
04175              10.60    11600.00
04176             -25.00    12000.00
04177              -2.60    12400.00
04178              25.00    12800.00
04179             -12.60    13400.00
04180             -19.40    13800.00
04181              17.80    14000.00
04182              10.60    14600.00
04183             -19.00    14800.00
04184              -9.40    15000.00
04185              20.40    15600.00
04186              -3.60    15800.00
04187             -15.80    16000.00
04188              16.40    16400.00
04189               3.00    16800.00
04190             -17.00    16800.00
04191               7.00    17400.00
04192               6.20    17400.00
04193             -10.80    17800.00
04194               2.00    18000.00
04195               7.00    18400.00
04196              -4.40    18800.00
04197              -2.80    19000.00
04198               2.20    19000.00
04199              -1.40    19600.00
04200              -1.80    19600.00
04201               0.40    19800.00
04202               0.20    20200.00
04203               0.80    20400.00
04204              -0.60    20600.00
04205              -1.60    20800.00
04206               0.60    20800.00
04207              -2.00    21200.00
04208              -0.80    21400.00
04209               3.20    21400.00
04210              -2.20    21600.00
04211              -1.00    21800.00
04212               2.00    22000.00
04213              -2.00    22000.00
04214              -2.80    22200.00
04215               2.20    22200.00
04216               0.40    22400.00
04217              -2.00    22400.00
04218               1.80    22600.00
04219               0.20    22800.00
04220              -2.20    22800.00
04221               0.20    22800.00
04222               0.40    22800.00
04223              -1.00    22800.00
04224              -1.00    23000.00
04225               0.20    23200.00
04226               0.20    23000.00
04227              -1.20    23000.00
04228              -0.60    23000.00
04229               0.40    23000.00
04230              -0.40    23000.00
04231              -0.60    23000.00
04232              -0.20    23200.00
04233               0.20    23000.00
04234              -0.40    23000.00
04235              -0.60    22800.00
04236              -0.20    22800.00
04237              -0.60    22800.00
04238              -0.60    22800.00
04239              -0.60    22800.00
04240              -0.20    22600.00
04241              -0.60    22400.00
04242              -1.00    22200.00
04243              -0.20    22200.00
04244              -0.40    22200.00
04245              -1.00    22000.00
04246              -0.40    21600.00
04247              -0.20    21600.00
04248              -0.40    21600.00
04249              -0.20    21200.00
04250              -0.40    21200.00
04251              -1.20    21000.00
04252              -1.00    21000.00
04253               0.60    20600.00
04254              -1.20    20600.00
04255              -1.20    20400.00
04256               1.20    20000.00
04257              -1.20    19800.00
04258              -1.20    19600.00
04259               0.60    19200.00
04260              -1.00    19000.00
04261              -0.60    18800.00
04262               0.40    18800.00
04263              -1.20    18200.00
04264              -0.60    18000.00
04265               0.20    17800.00
04266              -0.60    17400.00
04267              -0.40    17200.00
04268              -0.20    16800.00
04269              -0.60    16600.00
04270               0.00    16200.00
04271              -0.60    16000.00
04272              -1.00    15600.00
04273              -0.20    15200.00
04274              -0.60    15000.00
04275              -0.60    14600.00
04276              -0.20    14400.00
04277              -0.40    14000.00
04278              -0.40    13600.00
04279              -0.20    13200.00
04280              -0.20    12800.00
04281              -0.40    12600.00
04282              -0.20    12200.00
04283              -0.40    11600.00
04284              -0.40    11400.00
04285              -0.40    10800.00
04286              -0.40    10800.00
04287              -0.40    10000.00
04288              -0.20     9800.00
04289              -0.20     9400.00
04290              -0.20     8800.00
04291              -0.60     8600.00
04292              -0.60     8200.00
04293               0.40     7800.00
04294              -0.60     7600.00
04295              -0.40     6800.00
04296               0.40     6600.00
04297              -0.60     6200.00
04298              -0.40     5600.00
04299               0.40     5400.00
04300              -0.20     4800.00
04301              -0.60     4400.00
04302              -0.20     4000.00
04303              -0.40     3400.00
04304              -0.40     3000.00
04305              -0.60     2800.00
04306              -0.20     2000.00
04307              -0.20     1800.00
04308              -0.40     1200.00
04309              -0.20      800.00
04310              -0.20      600.00
04311              -0.20        0.00
04312               0.40     -400.00
04313               1.20     -800.00
04314               3.60    -1200.00
04315              -2.20    -1600.00
04316              -2.00    -2000.00
04317               2.60    -2400.00
04318               0.40    -2800.00
04319              -2.80    -3000.00
04320               7.00    -3400.00
04321              25.00    -4200.00
04322               7.60    -4800.00
04323             -25.00    -5400.00
04324              -5.20    -5800.00
04325              25.00    -6000.00
04326             -25.00    -6400.00
04327             -25.00    -6200.00
04328              25.00    -7200.00
04329              19.00    -7600.00
04330             -25.00    -7600.00
04331              25.00    -8600.00
04332              25.00    -8800.00
04333             -25.00    -9000.00
04334              25.00    -9800.00
04335              25.00    -9800.00
04336             -25.00   -10400.00
04337              10.60   -10800.00
04338              25.00   -10800.00
04339              10.60   -11600.00
04340             -25.00   -12000.00
04341               0.40   -12400.00
04342              25.00   -12800.00
04343             -25.00   -12800.00
04344              -5.00   -13600.00
04345              25.00   -13800.00
04346               0.20   -14200.00
04347             -21.20   -14600.00
04348              -3.40   -14800.00
04349              25.00   -15200.00
04350             -21.00   -15400.00
04351              -7.40   -16000.00
04352              25.00   -16000.00
04353             -11.80   -16400.00
04354             -10.20   -17000.00
04355              10.60   -17000.00
04356               1.00   -17400.00
04357              -9.80   -17600.00
04358               7.00   -18000.00
04359               5.20   -18200.00
04360              -5.60   -18400.00
04361               3.00   -18800.00
04362              -0.60   -19200.00
04363              -2.00   -19400.00
04364               0.60   -19400.00
04365               0.60   -19600.00
04366              -0.40   -20000.00
04367               2.60   -20400.00
04368              -0.80   -20600.00
04369              -1.20   -20600.00
04370               2.00   -20800.00
04371              -4.40   -21200.00
04372               2.60   -21200.00
04373               2.00   -21200.00
04374              -3.60   -21400.00
04375               3.60   -21600.00
04376               0.40   -21800.00
04377              -3.80   -22000.00
04378               1.00   -22000.00
04379               2.60   -22400.00
04380              -2.60   -22400.00
04381              -0.20   -22400.00
04382               3.40   -22600.00
04383              -1.80   -22600.00
04384              -2.80   -22800.00
04385               1.60   -22800.00
04386               0.60   -22800.00
04387              -1.60   -22800.00
04388               1.00   -23000.00
04389               1.80   -23200.00
04390              -1.00   -23200.00
04391              -1.00   -23200.00
04392               1.80   -23200.00
04393              -0.60   -23000.00
04394              -1.80   -23200.00
04395               1.40   -23000.00
04396               0.20   -23200.00
04397              -1.00   -23200.00
04398               0.40   -23000.00
04399               0.40   -23200.00
04400               0.40   -23000.00
04401               0.20   -22800.00
04402              -0.40   -22800.00
04403              -0.60   -22800.00
04404               0.60   -22800.00
04405               0.20   -22600.00
04406              -0.60   -22400.00
04407               1.20   -22400.00
04408              -0.40   -22400.00
04409              -1.00   -22000.00
04410               1.00   -22000.00
04411               0.20   -21800.00
04412              -0.60   -21800.00
04413               0.20   -21400.00
04414               0.40   -21200.00
04415              -0.40   -21200.00
04416              -0.40   -21000.00
04417               0.00   -20800.00
04418               0.40   -20600.00
04419               0.60   -20400.00
04420              -0.60   -20200.00
04421               0.20   -20000.00
04422               1.00   -19800.00
04423              -1.20   -19600.00
04424              -0.60   -19400.00
04425               1.80   -19200.00
04426              -0.40   -19000.00
04427              -1.20   -18600.00
04428               1.00   -18400.00
04429               0.40   -18200.00
04430              -2.00   -17800.00
04431               1.00   -17400.00
04432               1.60   -17200.00
04433              -1.40   -16800.00
04434              -0.20   -16400.00
04435               0.60   -16400.00
04436              -1.20   -16000.00
04437              -0.80   -15600.00
04438               0.80   -15400.00
04439              -0.20   -14800.00
04440              -1.00   -14600.00
04441               0.20   -14400.00
04442               0.20   -14000.00
04443              -1.20   -13600.00
04444              -0.20   -13200.00
04445               0.00   -12800.00
04446              -0.60   -12400.00
04447              -0.20   -12000.00
04448              -0.20   -11600.00
04449               0.20   -11400.00
04450              -0.40   -10800.00
04451              -0.20   -10400.00
04452               0.20   -10200.00
04453              -0.60   -10000.00
04454              -0.60    -9200.00
04455              -0.40    -9000.00
04456              -0.60    -8400.00
04457              -0.20    -8200.00
04458              -0.40    -7800.00
04459              -0.20    -7400.00
04460              -0.20    -6800.00
04461              -1.00    -6400.00
04462               0.20    -6000.00
04463               0.40    -5800.00
04464              -1.40    -5200.00
04465               0.00    -4600.00
04466              -0.20    -4400.00
04467              -0.60    -4000.00
04468              -0.60    -3400.00
04469               0.40    -3200.00
04470              -0.40    -2600.00
04471              -0.40    -2000.00
04472               0.20    -1800.00
04473              -0.20    -1200.00
04474              -0.60    -1000.00
04475              -0.40     -400.00
04476               0.20        0.00
04477               0.40      400.00
04478               2.20      800.00
04479               2.80     1200.00
04480              -2.20     1600.00
04481              -0.20     2000.00
04482               3.00     2400.00
04483               0.20     2800.00
04484              -2.20     3200.00
04485               5.20     3600.00
04486              13.80     4200.00
04487              23.80     4800.00
04488             -24.40     5400.00
04489             -25.00     5600.00
04490              19.60     6000.00
04491              22.00     6200.00
04492             -25.00     6600.00
04493             -21.20     7200.00
04494              25.00     7800.00
04495              21.00     8000.00
04496             -25.00     8400.00
04497              25.00     8800.00
04498              25.00     9000.00
04499             -25.00     9600.00
04500              17.80     9800.00
04501              25.00    10200.00
04502             -25.00    10800.00
04503             -14.60    11200.00
04504              25.00    11200.00
04505              -2.00    12000.00
04506             -25.00    12400.00
04507              10.20    12600.00
04508              25.00    13000.00
04509             -22.20    13400.00
04510             -11.40    13600.00
04511              22.20    14200.00
04512               3.40    14400.00
04513             -20.80    14800.00
04514              -1.40    15000.00
04515              19.60    15600.00
04516             -11.40    15800.00
04517              -8.60    16000.00
04518              18.20    16400.00
04519              -4.60    16600.00
04520             -13.40    16800.00
04521              10.40    17200.00
04522               2.00    17600.00
04523             -11.40    18000.00
04524               6.40    18000.00
04525               5.20    18400.00
04526              -6.60    18600.00
04527               0.20    19000.00
04528               2.60    19200.00
04529              -3.60    19600.00
04530              -0.40    19600.00
04531               1.20    20000.00
04532              -1.00    20200.00
04533               1.40    20400.00
04534              -1.20    20600.00
04535              -2.00    20800.00
04536               0.80    21000.00
04537              -2.20    21200.00
04538               0.20    21200.00
04539               2.60    21400.00
04540              -2.20    21600.00
04541              -0.20    21800.00
04542               2.00    22000.00
04543              -2.80    22000.00
04544              -1.40    22200.00
04545               2.20    22400.00
04546              -1.00    22400.00
04547              -1.80    22600.00
04548               1.80    22600.00
04549              -1.00    22800.00
04550              -2.00    22800.00
04551               0.80    22800.00
04552              -0.20    23000.00
04553              -1.20    23000.00
04554               0.00    23000.00
04555               0.40    23000.00
04556              -0.60    23000.00
04557              -1.20    23000.00
04558              -0.40    23000.00
04559              -0.40    23000.00
04560              -0.20    23200.00
04561              -0.40    23000.00
04562              -0.40    23000.00
04563               0.20    23000.00
04564              -0.40    23000.00
04565              -1.00    22800.00
04566              -0.40    22800.00
04567              -0.60    22800.00
04568              -0.40    22800.00
04569              -0.80    22800.00
04570              -0.20    22600.00
04571              -0.40    22400.00
04572              -1.20    22200.00
04573               0.20    22400.00
04574              -0.40    22000.00
04575              -1.20    22000.00
04576              -0.40    21800.00
04577              -0.20    21600.00
04578              -0.60    21400.00
04579              -0.80    21400.00
04580               0.20    21200.00
04581              -1.00    21000.00
04582               0.00    21000.00
04583              -0.40    20600.00
04584              -1.00    20600.00
04585              -0.60    20000.00
04586              -0.20    20000.00
04587              -1.20    19800.00
04588              -0.40    19600.00
04589              -0.40    19200.00
04590              -0.40    19000.00
04591              -0.40    19000.00
04592               0.20    18400.00
04593              -0.60    18200.00
04594              -1.00    18000.00
04595              -0.20    17600.00
04596              -0.60    17600.00
04597              -0.60    17200.00
04598              -0.20    16800.00
04599              -0.80    16400.00
04600              -0.20    16200.00
04601              -0.20    15800.00
04602              -0.60    15600.00
04603              -0.20    15200.00
04604              -0.20    15000.00
04605              -0.60    14800.00
04606              -0.40    14200.00
04607              -0.40    14000.00
04608              -0.60    13400.00
04609              -0.40    13200.00
04610              -0.20    12800.00
04611              -0.40    12400.00
04612              -0.40    12000.00
04613              -0.20    11600.00
04614              -0.40    11200.00
04615              -0.40    10800.00
04616              -0.40    10400.00
04617              -0.60    10000.00
04618              -0.20     9600.00
04619              -0.20     9200.00
04620              -0.40     8800.00
04621              -0.20     8600.00
04622              -0.40     8000.00
04623              -0.40     7600.00
04624              -0.20     7200.00
04625              -0.40     6800.00
04626              -0.60     6400.00
04627              -0.60     6000.00
04628              -0.20     5600.00
04629              -0.40     5200.00
04630              -0.60     4600.00
04631              -0.20     4400.00
04632              -0.40     3800.00
04633              -0.40     3400.00
04634              -0.40     3000.00
04635              -0.20     2400.00
04636              -0.20     2000.00
04637              -0.40     1800.00
04638              -0.40     1200.00
04639              -0.40      800.00
04640              -0.60      400.00
04641              -0.40     -200.00
04642               0.60     -400.00
04643               1.80     -800.00
04644               2.60    -1200.00
04645              -2.60    -1600.00
04646              -1.00    -2000.00
04647               2.60    -2400.00
04648              -0.60    -2800.00
04649              -1.80    -3200.00
04650               9.80    -3600.00
04651              25.00    -4200.00
04652              -9.20    -5200.00
04653             -25.00    -5600.00
04654              11.60    -5800.00
04655              25.00    -6000.00
04656             -25.00    -6400.00
04657             -24.20    -6400.00
04658              25.00    -7400.00
04659             -25.00    -7400.00
04660             -25.00    -7800.00
04661              25.00    -8800.00
04662              13.40    -8800.00
04663             -25.00    -9200.00
04664              25.00    -9800.00
04665              15.40    -9600.00
04666             -25.00   -10400.00
04667              19.80   -10800.00
04668              23.40   -11000.00
04669               3.60   -11600.00
04670             -25.00   -12000.00
04671              17.20   -12400.00
04672              25.00   -12800.00
04673             -25.00   -13000.00
04674               7.00   -13600.00
04675              24.20   -13600.00
04676              -5.60   -14400.00
04677             -23.40   -14800.00
04678               8.20   -14800.00
04679              23.80   -15400.00
04680             -25.00   -15400.00
04681               6.40   -16000.00
04682              24.40   -16200.00
04683             -19.80   -16600.00
04684              -4.20   -17000.00
04685              14.60   -17200.00
04686              -6.00   -17400.00
04687              -9.40   -17600.00
04688              13.80   -18000.00
04689              -0.60   -18400.00
04690              -7.00   -18600.00
04691               7.00   -18800.00
04692              -1.80   -19200.00
04693              -4.60   -19400.00
04694               2.60   -19400.00
04695               2.60   -19800.00
04696              -3.00   -20000.00
04697               3.40   -20200.00
04698               0.20   -20600.00
04699              -2.20   -20800.00
04700               1.00   -21000.00
04701              -3.00   -21000.00
04702               3.60   -21200.00
04703               0.40   -21200.00
04704              -2.40   -21600.00
04705               3.40   -21800.00
04706              -1.00   -22000.00
04707              -3.80   -22000.00
04708               1.60   -22000.00
04709               2.00   -22400.00
04710              -3.40   -22400.00
04711               1.20   -22600.00
04712               3.60   -22600.00
04713              -2.80   -22600.00
04714              -1.40   -22800.00
04715               2.60   -23000.00
04716              -1.40   -22800.00
04717              -1.20   -22800.00
04718               1.80   -23000.00
04719               0.20   -23200.00
04720              -1.00   -23200.00
04721              -0.20   -23200.00
04722               0.80   -23200.00
04723              -1.00   -23200.00
04724              -0.20   -23200.00
04725               1.20   -23000.00
04726              -0.20   -23200.00
04727               0.20   -23000.00
04728              -0.40   -23000.00
04729               0.00   -23000.00
04730               1.00   -23000.00
04731              -1.00   -22800.00
04732               0.20   -22800.00
04733               0.60   -22800.00
04734               0.00   -22800.00
04735              -0.60   -22600.00
04736               0.40   -22600.00
04737               0.40   -22400.00
04738              -1.60   -22000.00
04739               1.00   -22000.00
04740               0.40   -22000.00
04741              -0.60   -21800.00
04742               0.60   -21600.00
04743               0.20   -21600.00
04744              -0.40   -21200.00
04745               0.20   -21200.00
04746              -0.20   -21000.00
04747              -0.20   -21000.00
04748               0.40   -20800.00
04749               0.40   -20600.00
04750              -1.00   -20200.00
04751               0.20   -20000.00
04752               0.40   -19800.00
04753              -0.40   -19600.00
04754               0.20   -19200.00
04755               0.60   -19000.00
04756              -0.40   -18800.00
04757              -0.60   -18400.00
04758               0.40   -18400.00
04759              -0.60   -18000.00
04760              -1.00   -17600.00
04761               0.40   -17400.00
04762               0.20   -17200.00
04763              -0.60   -16800.00
04764               0.20   -16400.00
04765              -0.20   -16200.00
04766              -1.00   -16000.00
04767              -0.20   -15600.00
04768              -0.20   -15400.00
04769              -0.60   -14800.00
04770              -0.40   -14600.00
04771               0.20   -14400.00
04772              -0.60   -13600.00
04773              -0.60   -13600.00
04774               0.00   -13000.00
04775              -0.40   -12800.00
04776              -0.40   -12400.00
04777              -0.20   -12000.00
04778              -0.60   -11600.00
04779              -0.40   -11200.00
04780              -0.20   -10800.00
04781              -0.40   -10400.00
04782               0.20   -10000.00
04783              -0.40    -9600.00
04784              -0.60    -9200.00
04785               0.20    -8800.00
04786              -0.60    -8600.00
04787              -0.20    -8000.00
04788              -0.40    -7600.00
04789              -0.20    -7200.00
04790              -0.20    -6800.00
04791              -0.80    -6400.00
04792               0.40    -6000.00
04793               0.40    -5600.00
04794              -1.40    -5200.00
04795               0.20    -4600.00
04796               0.00    -4200.00
04797              -1.00    -3800.00
04798              -0.40    -3400.00
04799               0.40    -3000.00
04800              -0.80    -2600.00
04801               0.20    -2400.00
04802              -0.20    -1600.00
04803              -0.80    -1200.00
04804               0.40     -800.00
04805              -0.40     -400.00
04806              -0.60        0.00
04807               1.00      600.00
04808               2.80      800.00
04809               1.80     1400.00
04810              -2.20     1800.00
04811               0.20     2000.00
04812               3.60     2400.00
04813              -1.20     2800.00
04814              -2.00     3200.00
04815               7.60     3800.00
04816              16.40     4400.00
04817              19.00     4800.00
04818             -25.00     5400.00
04819             -25.00     5600.00
04820              25.00     6000.00
04821              11.00     6400.00
04822             -25.00     6600.00
04823              -3.60     7000.00
04824              25.00     7800.00
04825             -14.80     7800.00
04826             -25.00     8400.00
04827              25.00     8800.00
04828              25.00     8800.00
04829             -25.00     9600.00
04830              25.00    10000.00
04831              25.00    10200.00
04832             -25.00    10800.00
04833               3.60    11200.00
04834              25.00    11600.00
04835             -14.00    12000.00
04836             -25.00    12200.00
04837              21.00    12800.00
04838              21.40    13000.00
04839             -25.00    13600.00
04840              -3.60    14000.00
04841              22.20    14200.00
04842              -3.00    14600.00
04843             -20.40    14800.00
04844               5.00    15200.00
04845              16.60    15600.00
04846             -17.00    15800.00
04847              -2.00    16000.00
04848              19.00    16400.00
04849             -10.80    16800.00
04850             -10.00    17000.00
04851              12.60    17400.00
04852              -2.40    17600.00
04853             -10.20    18000.00
04854              10.00    18200.00
04855               2.00    18400.00
04856              -7.00    18800.00
04857               2.40    19000.00
04858               0.40    19200.00
04859              -4.20    19600.00
04860               1.40    19800.00
04861               0.40    20000.00
04862              -1.40    20200.00
04863               2.80    20400.00
04864              -1.40    20600.00
04865              -1.60    21000.00
04866               1.00    21200.00
04867              -2.20    21200.00
04868               0.20    21400.00
04869               2.00    21400.00
04870              -2.20    21600.00
04871              -0.20    21800.00
04872               1.80    22000.00
04873              -3.00    22000.00
04874              -1.20    22200.00
04875               2.40    22400.00
04876              -1.20    22400.00
04877              -1.60    22400.00
04878               1.80    22800.00
04879              -0.60    22600.00
04880              -2.20    22800.00
04881               0.40    22800.00
04882               0.20    22800.00
04883              -1.00    22800.00
04884              -0.20    23000.00
04885               0.60    23000.00
04886              -0.60    23000.00
04887              -1.40    23000.00
04888               0.20    23000.00
04889              -0.60    23200.00
04890              -1.00    23000.00
04891              -0.20    23000.00
04892              -0.60    23000.00
04893               0.00    22800.00
04894              -0.20    23000.00
04895              -1.00    22800.00
04896              -0.60    22800.00
04897              -0.40    22800.00
04898              -1.00    22800.00
04899              -0.40    22600.00
04900               0.40    22400.00
04901              -1.20    22400.00
04902              -1.00    22400.00
04903               0.60    22200.00
04904              -1.00    22000.00
04905              -1.60    22000.00
04906               0.40    21800.00
04907              -0.20    21600.00
04908              -1.00    21400.00
04909              -0.60    21200.00
04910              -0.40    21200.00
04911              -1.00    21200.00
04912               0.40    20800.00
04913              -0.60    20600.00
04914              -0.40    20400.00
04915              -0.40    20000.00
04916              -0.40    20000.00
04917              -0.40    19800.00
04918              -0.40    19600.00
04919              -0.80    19200.00
04920              -0.60    19000.00
04921              -0.60    18600.00
04922              -0.40    18400.00
04923              -1.00    18200.00
04924              -0.40    17800.00
04925               0.40    17600.00
04926              -1.40    17400.00
04927               0.40    17200.00
04928               0.20    16600.00
04929              -1.40    16400.00
04930               0.60    16000.00
04931              -1.00    15800.00
04932              -0.60    15600.00
04933               0.00    15200.00
04934              -0.60    14800.00
04935               0.00    14600.00
04936              -0.40    14200.00
04937              -0.60    13800.00
04938              -0.20    13400.00
04939              -0.40    13200.00
04940              -0.80    12800.00
04941              -0.20    12400.00
04942              -0.20    11800.00
04943              -0.60    11600.00
04944               0.20    11200.00
04945               0.20    10800.00
04946              -0.60    10400.00
04947              -0.80    10000.00
04948               0.40     9400.00
04949              -0.60     9200.00
04950              -1.40     8800.00
04951               0.60     8600.00
04952               0.20     8000.00
04953              -1.20     7800.00
04954               0.20     7200.00
04955              -0.20     6800.00
04956              -1.20     6400.00
04957              -0.40     6000.00
04958               0.40     5600.00
04959              -0.20     4800.00
04960              -1.20     4600.00
04961              -0.20     4200.00
04962               0.00     3800.00
04963              -1.00     3200.00
04964              -0.60     2800.00
04965               0.20     2400.00
04966              -0.40     2000.00
04967              -0.20     1600.00
04968              -0.40     1200.00
04969              -0.40      600.00
04970              -0.60      200.00
04971              -0.20     -200.00
04972               0.60     -400.00
04973               2.60    -1000.00
04974               2.00    -1400.00
04975              -2.20    -1800.00
04976              -0.40    -2200.00
04977               2.00    -2600.00
04978              -1.40    -2800.00
04979              -0.40    -3200.00
04980              13.00    -3600.00
04981              25.00    -4400.00
04982             -25.00    -5200.00
04983             -25.00    -5400.00
04984              25.00    -5800.00
04985              24.40    -6200.00
04986             -25.00    -6400.00
04987              11.00    -6400.00
04988              25.00    -7400.00
04989             -25.00    -7200.00
04990             -25.00    -8000.00
04991              25.00    -9000.00
04992             -25.00    -8800.00
04993             -25.00    -9400.00
04994              25.00    -9800.00
04995             -24.60    -9800.00
04996             -25.00   -10600.00
04997              25.00   -10600.00
04998              17.20   -11200.00
04999              -4.60   -11800.00
05000             -25.00   -12000.00
