Unit:(mV)
                     CH1         CH2
Frequency              ? 303.198 kHz
00001              -0.60     8800.00
00002              -0.40     8800.00
00003              -0.20     8200.00
00004              -0.40     7800.00
00005              -0.40     7600.00
00006              -0.40     7200.00
00007              -0.20     6800.00
00008              -0.60     6400.00
00009              -0.60     6000.00
00010              -0.20     5600.00
00011              -0.20     4800.00
00012              -0.60     4600.00
00013              -0.20     4000.00
00014               0.20     3800.00
00015              -0.20     3400.00
00016              -0.20     3000.00
00017              -0.20     2400.00
00018              -0.40     2200.00
00019              -0.20     1600.00
00020               0.00     1400.00
00021              -0.40      800.00
00022              -0.20      400.00
00023               0.20        0.00
00024               0.60     -400.00
00025               1.80     -800.00
00026               3.00    -1200.00
00027              -2.20    -1600.00
00028              -1.20    -2000.00
00029               2.80    -2400.00
00030              -0.20    -2800.00
00031              -2.40    -3200.00
00032               8.40    -3400.00
00033              25.00    -4000.00
00034              -1.40    -4800.00
00035             -25.00    -5200.00
00036               3.60    -5600.00
00037              25.00    -6000.00
00038             -25.00    -6200.00
00039             -25.00    -6200.00
00040              25.00    -7200.00
00041             -21.00    -7200.00
00042             -25.00    -7200.00
00043              25.00    -8400.00
00044              23.80    -8400.00
00045             -25.00    -8800.00
00046              25.00    -9600.00
00047              24.40    -9400.00
00048             -25.00   -10000.00
00049              24.20   -10400.00
00050              23.00   -10800.00
00051               1.80   -11400.00
00052             -25.00   -11400.00
00053              12.60   -12000.00
00054              25.00   -12400.00
00055             -25.00   -12600.00
00056               5.80   -13200.00
00057              25.00   -13200.00
00058              -8.60   -13800.00
00059             -20.20   -14400.00
00060               5.20   -14400.00
00061              24.20   -14800.00
00062             -25.00   -15000.00
00063               2.00   -15400.00
00064              25.00   -15600.00
00065             -19.00   -16000.00
00066              -4.40   -16200.00
00067              12.40   -16600.00
00068              -4.40   -16800.00
00069              -7.00   -17200.00
00070               9.00   -17400.00
00071               2.00   -17600.00
00072              -5.20   -18000.00
00073               4.20   -18200.00
00074              -1.20   -18400.00
00075              -1.00   -18800.00
00076               1.20   -18800.00
00077               0.20   -19200.00
00078               1.40   -19400.00
00079               2.00   -19600.00
00080              -1.80   -19800.00
00081               0.60   -20000.00
00082               1.80   -20200.00
00083              -5.20   -20400.00
00084               4.20   -20400.00
00085               2.60   -20800.00
00086              -3.60   -20800.00
00087               4.20   -21000.00
00088               1.00   -21000.00
00089              -3.80   -21400.00
00090               1.40   -21400.00
00091               3.20   -21600.00
00092              -2.60   -21600.00
00093               1.00   -21800.00
00094               3.60   -22000.00
00095              -2.20   -22000.00
00096              -1.00   -22000.00
00097               2.00   -22000.00
00098              -0.60   -22200.00
00099              -0.60   -22400.00
00100               1.00   -22400.00
00101               0.60   -22400.00
00102              -0.40   -22400.00
00103              -0.20   -22400.00
00104               0.60   -22400.00
00105               0.00   -22400.00
00106               0.20   -22600.00
00107               0.60   -22400.00
00108               0.40   -22400.00
00109               0.60   -22400.00
00110              -0.60   -22400.00
00111              -0.20   -22400.00
00112               0.80   -22200.00
00113              -0.40   -22400.00
00114              -0.40   -22400.00
00115               0.40   -22000.00
00116               0.60   -22000.00
00117              -0.60   -22000.00
00118               0.40   -21800.00
00119               1.20   -21800.00
00120              -1.20   -21600.00
00121               0.20   -21600.00
00122               1.80   -21200.00
00123              -0.60   -21200.00
00124              -0.20   -21000.00
00125               1.40   -20800.00
00126               0.00   -20800.00
00127              -0.60   -20800.00
00128               1.00   -20400.00
00129               0.20   -20200.00
00130              -0.60   -20000.00
00131               1.00   -19800.00
00132              -0.20   -19600.00
00133              -0.60   -19400.00
00134               0.80   -19200.00
00135               0.40   -19000.00
00136               0.20   -18600.00
00137               0.60   -18400.00
00138               0.60   -18400.00
00139              -0.20   -18000.00
00140               0.20   -17400.00
00141               0.20   -17400.00
00142              -0.40   -17200.00
00143               0.40   -17000.00
00144               0.60   -16400.00
00145              -0.20   -16200.00
00146               0.60   -16000.00
00147               0.20   -15800.00
00148               0.00   -15400.00
00149               0.40   -15200.00
00150              -0.20   -14800.00
00151               0.20   -14600.00
00152               0.40   -14000.00
00153               0.20   -13800.00
00154               0.20   -13400.00
00155               0.20   -13000.00
00156              -0.20   -12800.00
00157               0.20   -12400.00
00158               0.40   -12000.00
00159               0.20   -11600.00
00160              -0.40   -11200.00
00161               0.00   -11000.00
00162              -0.40   -10400.00
00163              -0.40   -10200.00
00164              -0.20    -9800.00
00165              -0.40    -9200.00
00166              -0.20    -9000.00
00167               0.20    -8600.00
00168              -0.20    -8200.00
00169              -0.20    -8000.00
00170              -0.40    -7400.00
00171              -0.20    -7200.00
00172              -0.40    -6600.00
00173              -0.60    -6200.00
00174              -0.20    -5800.00
00175               0.60    -5400.00
00176              -1.20    -4800.00
00177               0.20    -4400.00
00178              -0.40    -4200.00
00179              -0.40    -3600.00
00180              -0.80    -3400.00
00181              -0.60    -2800.00
00182               1.00    -2400.00
00183              -0.60    -2000.00
00184              -0.60    -1600.00
00185               0.60    -1200.00
00186              -0.80     -800.00
00187              -1.40     -200.00
00188               0.60        0.00
00189               0.60      600.00
00190               2.00      800.00
00191               1.80     1400.00
00192              -2.20     1800.00
00193               0.20     2000.00
00194               2.60     2400.00
00195              -0.40     2800.00
00196              -1.40     3200.00
00197               5.60     3600.00
00198              14.80     4000.00
00199              22.00     4800.00
00200             -25.00     5400.00
00201             -25.00     5600.00
00202              23.00     6000.00
00203              17.00     6400.00
00204             -25.00     6600.00
00205             -11.80     7000.00
00206              25.00     7600.00
00207              -2.00     7800.00
00208             -25.00     8200.00
00209              25.00     8600.00
00210              25.00     8800.00
00211             -25.00     9400.00
00212              25.00     9600.00
00213              25.00    10000.00
00214             -25.00    10600.00
00215              -1.60    10800.00
00216              25.00    11200.00
00217             -11.80    11600.00
00218             -25.00    12000.00
00219              18.00    12400.00
00220              24.20    12600.00
00221             -25.00    13200.00
00222              -5.40    13400.00
00223              23.80    14000.00
00224              -2.80    14200.00
00225             -20.00    14600.00
00226               3.60    14800.00
00227              17.20    15200.00
00228             -15.00    15400.00
00229              -4.40    15800.00
00230              18.60    16000.00
00231              -9.80    16400.00
00232             -10.80    16400.00
00233              12.20    17000.00
00234              -1.80    17200.00
00235             -10.60    17400.00
00236               8.60    17600.00
00237               3.00    18000.00
00238              -7.60    18400.00
00239               1.40    18400.00
00240               1.80    18800.00
00241              -4.60    19000.00
00242               0.20    19200.00
00243               0.40    19600.00
00244              -0.20    19600.00
00245               0.20    19800.00
00246              -1.80    20000.00
00247              -0.20    20400.00
00248              -0.40    20400.00
00249              -2.80    20600.00
00250               1.00    21000.00
00251               1.00    20800.00
00252              -2.80    21200.00
00253               0.00    21200.00
00254               1.80    21400.00
00255              -3.60    21600.00
00256              -2.00    21600.00
00257               3.40    21800.00
00258              -2.00    21800.00
00259              -2.80    22000.00
00260               2.60    22200.00
00261              -1.40    22200.00
00262              -2.80    22200.00
00263               1.80    22200.00
00264              -0.60    22200.00
00265              -2.40    22400.00
00266              -0.20    22400.00
00267               0.60    22400.00
00268              -1.20    22400.00
00269              -1.20    22400.00
00270               0.20    22400.00
00271              -0.60    22400.00
00272              -0.40    22400.00
00273              -0.60    22400.00
00274              -0.60    22400.00
00275               0.20    22400.00
00276              -0.40    22400.00
00277              -1.00    22200.00
00278              -0.20    22200.00
00279              -0.40    22200.00
00280              -0.80    22000.00
00281              -0.40    22200.00
00282              -0.40    22000.00
00283              -1.40    21800.00
00284              -1.00    21800.00
00285               0.60    21600.00
00286              -1.00    21600.00
00287              -1.20    21200.00
00288               0.60    21200.00
00289              -0.60    21000.00
00290              -1.00    21000.00
00291              -0.40    21000.00
00292              -0.60    20400.00
00293              -1.00    20400.00
00294               0.40    20400.00
00295              -0.60    20000.00
00296              -0.80    19800.00
00297              -0.40    19600.00
00298              -0.40    19400.00
00299              -1.00    19200.00
00300              -0.60    19000.00
00301              -0.60    18800.00
00302              -0.80    18400.00
00303              -0.40    18200.00
00304              -0.40    18000.00
00305              -0.80    17600.00
00306              -1.00    17400.00
00307              -0.20    17200.00
00308              -0.20    16800.00
00309              -1.20    16400.00
00310              -0.40    16400.00
00311              -0.20    16000.00
00312              -1.80    15800.00
00313              -0.40    15600.00
00314              -0.20    15200.00
00315              -1.40    15000.00
00316               0.20    14400.00
00317              -0.20    14200.00
00318              -1.00    13600.00
00319               0.20    13400.00
00320              -1.20    13200.00
00321              -0.60    12800.00
00322               0.40    12400.00
00323              -1.20    12000.00
00324              -0.40    11600.00
00325               0.40    11200.00
00326              -1.20    10800.00
00327              -0.40    10400.00
00328               0.60    10200.00
00329              -1.00     9600.00
00330              -0.60     9400.00
00331               0.40     9200.00
00332              -0.60     8600.00
00333              -1.00     8400.00
00334               0.20     8000.00
00335              -0.40     7600.00
00336              -0.60     7000.00
00337               0.20     6800.00
00338              -0.60     6400.00
00339              -0.40     5800.00
00340               0.40     5400.00
00341              -0.20     4800.00
00342              -0.60     4400.00
00343              -0.20     4200.00
00344              -0.20     3600.00
00345              -0.60     3200.00
00346              -0.20     2800.00
00347              -0.40     2400.00
00348              -0.20     2000.00
00349               0.20     1600.00
00350              -0.20     1400.00
00351              -0.40      800.00
00352               0.20      400.00
00353              -0.40     -200.00
00354               0.40     -600.00
00355               2.60     -800.00
00356               2.00    -1400.00
00357              -2.80    -1600.00
00358              -0.20    -2000.00
00359               2.60    -2400.00
00360              -1.00    -2800.00
00361              -1.20    -3000.00
00362              11.60    -3600.00
00363              25.00    -4200.00
00364             -17.80    -5000.00
00365             -25.00    -5200.00
00366              18.60    -5600.00
00367              25.00    -6000.00
00368             -25.00    -6200.00
00369               0.40    -6200.00
00370              25.00    -7200.00
00371             -25.00    -7200.00
00372             -25.00    -7600.00
00373              25.00    -8600.00
00374             -25.00    -8400.00
00375             -25.00    -9000.00
00376              25.00    -9200.00
00377             -15.40    -9600.00
00378             -25.00   -10000.00
00379              25.00   -10400.00
00380              15.00   -10800.00
00381              -4.00   -11400.00
00382             -25.00   -11600.00
00383              23.60   -12200.00
00384              23.60   -12400.00
00385             -25.00   -12600.00
00386              15.00   -13200.00
00387              21.40   -13200.00
00388             -10.80   -14000.00
00389             -20.40   -14200.00
00390              12.60   -14400.00
00391              18.60   -14800.00
00392             -25.00   -15000.00
00393              13.00   -15600.00
00394              21.40   -15600.00
00395             -23.80   -16000.00
00396               1.20   -16400.00
00397              14.00   -16800.00
00398              -9.20   -17000.00
00399              -6.00   -17200.00
00400              14.20   -17600.00
00401              -2.80   -17600.00
00402              -6.00   -18000.00
00403               8.60   -18400.00
00404              -3.00   -18600.00
00405              -4.40   -18800.00
00406               3.60   -19200.00
00407               1.40   -19400.00
00408              -2.20   -19400.00
00409               4.20   -19600.00
00410               0.20   -19800.00
00411              -1.40   -20200.00
00412               1.20   -20200.00
00413              -3.00   -20400.00
00414               3.60   -20400.00
00415               0.40   -20800.00
00416              -1.60   -21000.00
00417               4.20   -21200.00
00418              -1.20   -21200.00
00419              -2.60   -21400.00
00420               2.60   -21400.00
00421               2.00   -21600.00
00422              -2.80   -21800.00
00423               1.40   -22000.00
00424               3.00   -22000.00
00425              -3.20   -22000.00
00426              -1.00   -22000.00
00427               3.40   -22000.00
00428              -1.00   -22200.00
00429              -1.00   -22400.00
00430               2.20   -22200.00
00431               0.40   -22400.00
00432              -1.80   -22400.00
00433               0.40   -22400.00
00434               1.40   -22400.00
00435              -1.20   -22400.00
00436               0.20   -22400.00
00437               1.80   -22400.00
00438              -0.20   -22400.00
00439               0.20   -22400.00
00440              -0.40   -22400.00
00441               0.20   -22400.00
00442               0.20   -22200.00
00443              -0.60   -22200.00
00444               0.60   -22200.00
00445               0.40   -22000.00
00446               0.20   -22000.00
00447              -0.40   -22000.00
00448               0.80   -21800.00
00449               0.40   -21800.00
00450              -0.80   -21600.00
00451               0.60   -21400.00
00452               0.60   -21200.00
00453              -0.60   -21000.00
00454               0.20   -21000.00
00455               1.20   -20800.00
00456              -0.60   -20800.00
00457              -0.40   -20400.00
00458               1.00   -20400.00
00459               0.20   -20000.00
00460               0.20   -20200.00
00461               1.00   -19600.00
00462              -0.40   -19600.00
00463               0.40   -19400.00
00464               0.40   -19200.00
00465              -1.00   -18800.00
00466               0.60   -18600.00
00467               0.20   -18400.00
00468              -0.40   -18200.00
00469               0.40   -17800.00
00470               0.40   -17600.00
00471              -0.40   -17200.00
00472              -0.20   -17000.00
00473               1.00   -16800.00
00474               0.20   -16600.00
00475               0.00   -16200.00
00476               0.60   -16000.00
00477              -0.40   -15600.00
00478              -0.20   -15200.00
00479               0.60   -15000.00
00480              -0.20   -14800.00
00481              -0.20   -14400.00
00482               0.20   -14000.00
00483               0.20   -13600.00
00484              -0.40   -13400.00
00485              -0.20   -13000.00
00486              -0.20   -12800.00
00487              -0.20   -12400.00
00488               0.40   -12000.00
00489              -0.20   -11600.00
00490              -0.40   -11200.00
00491               0.40   -10800.00
00492              -0.20   -10400.00
00493              -0.60   -10000.00
00494               0.40    -9600.00
00495              -0.60    -9200.00
00496              -0.60    -9000.00
00497               0.20    -8600.00
00498              -0.40    -8200.00
00499              -0.40    -7800.00
00500               0.40    -7200.00
00501              -0.20    -6800.00
00502              -0.60    -6600.00
00503              -0.40    -6000.00
00504               0.20    -5800.00
00505              -0.40    -5200.00
00506              -0.40    -4800.00
00507               0.20    -4400.00
00508              -0.60    -4000.00
00509              -0.20    -3600.00
00510              -0.20    -3200.00
00511              -0.20    -2800.00
00512              -0.20    -2400.00
00513              -0.40    -2000.00
00514              -1.00    -1600.00
00515              -0.20    -1200.00
00516              -0.40     -600.00
00517              -0.60     -400.00
00518               1.00      200.00
00519               1.20      600.00
00520               2.60      800.00
00521               0.40     1600.00
00522              -2.20     1800.00
00523               0.60     2000.00
00524               2.20     2400.00
00525              -1.20     2800.00
00526              -0.60     3200.00
00527               7.00     3800.00
00528              18.00     4400.00
00529              17.00     4800.00
00530             -25.00     5200.00
00531             -25.00     5600.00
00532              25.00     6000.00
00533               4.80     6400.00
00534             -25.00     6400.00
00535               6.80     7000.00
00536              25.00     7600.00
00537             -25.00     7800.00
00538             -25.00     8200.00
00539              25.00     8600.00
00540               5.20     8800.00
00541             -25.00     9400.00
00542              25.00     9600.00
00543              25.00    10200.00
00544             -25.00    10800.00
00545              15.40    10800.00
00546              25.00    11200.00
00547             -22.60    11600.00
00548             -25.00    12000.00
00549              25.00    12400.00
00550              14.60    12800.00
00551             -25.00    13200.00
00552               3.00    13400.00
00553              22.00    13800.00
00554              -9.00    14200.00
00555             -18.00    14400.00
00556               9.80    14800.00
00557              12.00    15200.00
00558             -17.80    15600.00
00559               3.40    15800.00
00560              15.20    16000.00
00561             -15.00    16400.00
00562              -4.00    16600.00
00563              11.00    16800.00
00564              -6.80    17200.00
00565              -6.60    17400.00
00566               9.40    17600.00
00567              -0.40    18000.00
00568              -6.00    18400.00
00569               2.60    18400.00
00570              -0.40    18800.00
00571              -4.20    19000.00
00572               1.20    19200.00
00573               0.40    19600.00
00574              -1.20    19800.00
00575               1.40    19800.00
00576              -2.20    20000.00
00577              -1.00    20400.00
00578              -1.00    20400.00
00579              -2.20    20600.00
00580               2.00    20800.00
00581               0.20    21000.00
00582              -2.20    21200.00
00583               0.60    21200.00
00584               0.20    21400.00
00585              -2.60    21400.00
00586              -0.60    21800.00
00587               0.40    21600.00
00588              -1.80    22000.00
00589               0.40    22000.00
00590               1.00    22000.00
00591              -2.20    22200.00
00592              -1.20    22200.00
00593               0.00    22400.00
00594              -1.80    22200.00
00595              -0.60    22200.00
00596               0.40    22200.00
00597              -0.40    22400.00
00598              -0.20    22400.00
00599              -0.40    22400.00
00600              -1.00    22200.00
00601              -0.60    22400.00
00602               0.20    22400.00
00603              -1.20    22400.00
00604              -0.60    22400.00
00605               0.20    22400.00
00606              -1.40    22400.00
00607              -0.60    22200.00
00608              -0.20    22200.00
00609              -1.20    22200.00
00610              -0.60    22000.00
00611              -0.20    22000.00
00612              -0.40    22000.00
00613              -1.00    21600.00
00614              -1.00    21600.00
00615              -0.60    21600.00
00616              -1.00    21400.00
00617              -0.40    21200.00
00618              -0.20    21200.00
00619              -0.40    21000.00
00620              -0.60    20800.00
00621              -0.60    21000.00
00622              -1.20    20600.00
00623              -1.20    20400.00
00624               0.40    20400.00
00625              -0.60    20000.00
00626              -1.00    19800.00
00627              -0.20    19600.00
00628              -0.60    19400.00
00629              -1.20    19200.00
00630              -0.40    18800.00
00631              -0.40    18800.00
00632              -0.60    18400.00
00633               0.00    18200.00
00634              -0.60    18000.00
00635              -1.20    17600.00
00636              -1.20    17200.00
00637              -0.60    17200.00
00638              -1.00    16800.00
00639              -0.40    16600.00
00640              -0.40    16200.00
00641              -0.60    16200.00
00642              -0.40    15600.00
00643              -1.00    15200.00
00644              -0.80    15000.00
00645              -0.40    14800.00
00646              -0.40    14400.00
00647              -0.20    14200.00
00648              -0.20    13800.00
00649              -0.60    13400.00
00650              -0.60    13000.00
00651              -0.40    12600.00
00652              -0.60    12400.00
00653              -0.60    12000.00
00654              -0.20    11600.00
00655              -0.40    11200.00
00656              -0.60    10800.00
00657              -0.20    10200.00
00658              -0.60    10000.00
00659              -0.60     9800.00
00660               0.20     9400.00
00661              -0.40     8800.00
00662              -0.60     8600.00
00663               0.40     8200.00
00664              -0.40     7800.00
00665              -0.80     7200.00
00666               0.40     7000.00
00667              -0.60     6600.00
00668              -1.00     6200.00
00669               0.60     5800.00
00670              -0.20     5400.00
00671              -0.20     4800.00
00672              -0.20     4400.00
00673              -0.20     4000.00
00674               0.20     3800.00
00675              -0.60     3200.00
00676               0.20     2800.00
00677               0.00     2200.00
00678              -0.20     2000.00
00679               0.40     1600.00
00680              -0.40     1200.00
00681               0.20      600.00
00682               0.20      200.00
00683              -0.40     -200.00
00684               0.60     -400.00
00685               3.40     -800.00
00686               0.00    -1600.00
00687              -1.80    -1800.00
00688               0.80    -2000.00
00689               1.20    -2600.00
00690              -1.00    -2800.00
00691               0.60    -3200.00
00692              14.80    -3600.00
00693              25.00    -4400.00
00694             -25.00    -5000.00
00695             -25.00    -5600.00
00696              25.00    -5800.00
00697              16.20    -6000.00
00698             -25.00    -6200.00
00699              25.00    -6400.00
00700              25.00    -7200.00
00701             -25.00    -7000.00
00702              -1.40    -8000.00
00703              25.00    -8600.00
00704             -25.00    -8400.00
00705             -25.00    -9200.00
00706              25.00    -9400.00
00707             -25.00    -9600.00
00708             -16.20   -10400.00
00709              25.00   -10600.00
00710              -1.80   -11000.00
00711              -9.20   -11600.00
00712             -23.00   -11600.00
00713              25.00   -12200.00
00714               4.20   -12400.00
00715             -25.00   -12800.00
00716              19.60   -13200.00
00717               8.60   -13400.00
00718              -7.00   -14000.00
00719             -18.80   -14000.00
00720              15.60   -14600.00
00721              13.20   -14800.00
00722             -25.00   -15200.00
00723              19.80   -15600.00
00724              14.00   -15600.00
00725             -23.40   -16000.00
00726               5.40   -16400.00
00727              10.80   -16800.00
00728             -11.80   -17000.00
00729              -1.40   -17200.00
00730              14.60   -17600.00
00731              -6.80   -17600.00
00732              -2.60   -18000.00
00733               8.40   -18400.00
00734              -6.00   -18600.00
00735              -2.60   -18800.00
00736               5.40   -19200.00
00737              -0.20   -19400.00
00738              -2.00   -19600.00
00739               5.40   -19600.00
00740              -2.00   -20000.00
00741              -1.00   -20200.00
00742               1.00   -20200.00
00743              -2.20   -20400.00
00744               4.20   -20800.00
00745              -1.00   -20800.00
00746               0.40   -21000.00
00747               3.20   -21200.00
00748              -2.80   -21200.00
00749              -1.60   -21200.00
00750               2.80   -21600.00
00751               0.20   -21600.00
00752              -2.20   -21800.00
00753               3.20   -22000.00
00754               2.20   -21800.00
00755              -3.60   -22000.00
00756               0.40   -22000.00
00757               2.20   -22000.00
00758              -2.20   -22400.00
00759              -0.20   -22200.00
00760               2.20   -22400.00
00761              -0.20   -22000.00
00762              -1.00   -22400.00
00763               1.00   -22400.00
00764               0.60   -22600.00
00765              -1.40   -22400.00
00766               1.00   -22400.00
00767               1.00   -22400.00
00768              -0.20   -22400.00
00769               0.40   -22400.00
00770              -0.40   -22400.00
00771               0.40   -22200.00
00772               0.20   -22200.00
00773              -0.20   -22200.00
00774               0.20   -22200.00
00775               0.40   -22000.00
00776               0.40   -22000.00
00777              -0.60   -21800.00
00778               0.60   -21600.00
00779               0.40   -21600.00
00780              -1.00   -21200.00
00781               1.00   -21400.00
00782               1.00   -21200.00
00783              -0.60   -21200.00
00784               0.20   -21000.00
00785               1.00   -20800.00
00786              -0.40   -20600.00
00787              -0.40   -20400.00
00788               1.00   -20200.00
00789              -0.20   -20200.00
00790               0.40   -20000.00
00791               0.60   -19600.00
00792               0.20   -19600.00
00793              -0.20   -19400.00
00794              -0.20   -19200.00
00795               1.00   -18800.00
00796              -0.20   -18600.00
00797               1.00   -18200.00
00798               0.40   -18000.00
00799              -1.00   -17800.00
00800               1.40   -17400.00
00801               0.00   -17200.00
00802              -1.20   -17000.00
00803               2.00   -16600.00
00804               0.20   -16400.00
00805              -1.20   -16200.00
00806               1.20   -16000.00
00807              -0.20   -15400.00
00808              -1.00   -15200.00
00809               1.00   -15000.00
00810               0.40   -14600.00
00811              -0.60   -14400.00
00812               1.20   -14000.00
00813               0.80   -13800.00
00814              -1.60   -13200.00
00815               0.40   -13000.00
00816               0.60   -12800.00
00817              -2.00   -12400.00
00818               0.40   -12000.00
00819               1.20   -11200.00
00820              -1.40   -11200.00
00821               0.40   -10800.00
00822               1.00   -10400.00
00823              -1.20   -10000.00
00824               0.40    -9600.00
00825               0.20    -9200.00
00826              -1.20    -8800.00
00827               0.40    -8600.00
00828               0.20    -8000.00
00829              -1.20    -7600.00
00830              -0.20    -7200.00
00831               0.40    -6800.00
00832              -0.60    -6400.00
00833              -0.60    -6000.00
00834               1.80    -5600.00
00835              -0.40    -5200.00
00836              -2.00    -4800.00
00837               0.20    -4400.00
00838               0.40    -4000.00
00839              -2.60    -3600.00
00840              -0.80    -3200.00
00841               1.40    -2800.00
00842               0.60    -2200.00
00843              -1.20    -2000.00
00844               0.20    -1400.00
00845              -0.20    -1000.00
00846              -0.60     -400.00
00847               0.20     -200.00
00848               0.40      400.00
00849              -0.20      600.00
00850               3.60     1000.00
00851               0.20     1400.00
00852              -1.60     2000.00
00853               2.00     2000.00
00854               2.00     2400.00
00855              -2.40     3000.00
00856               0.40     3200.00
00857               7.20     3800.00
00858              21.80     4400.00
00859               9.80     4800.00
00860             -25.00     5400.00
00861             -15.40     5600.00
00862              25.00     6000.00
00863             -10.80     6400.00
00864             -25.00     6600.00
00865              25.00     7200.00
00866              25.00     7600.00
00867             -25.00     7800.00
00868             -25.00     8400.00
00869              25.00     8600.00
00870             -25.00     8800.00
00871             -25.00     9600.00
00872              25.00     9800.00
00873               4.60    10200.00
00874             -25.00    10800.00
00875              25.00    10800.00
00876              25.00    11400.00
00877             -25.00    11600.00
00878             -19.80    12000.00
00879              25.00    12400.00
00880               4.60    12800.00
00881             -25.00    13400.00
00882              10.20    13600.00
00883              17.40    13800.00
00884             -14.80    14400.00
00885             -14.80    14600.00
00886              14.80    15000.00
00887               6.00    15200.00
00888             -17.40    15600.00
00889               8.60    15800.00
00890              10.60    16000.00
00891             -16.40    16400.00
00892               0.00    16600.00
00893               9.60    17000.00
00894              -7.80    17200.00
00895              -2.80    17600.00
00896               8.80    17800.00
00897              -3.20    18000.00
00898              -4.60    18400.00
00899               2.40    18600.00
00900              -2.00    18800.00
00901              -2.20    19200.00
00902               1.40    19200.00
00903               0.00    19400.00
00904               0.40    19800.00
00905               0.60    20000.00
00906              -2.60    20000.00
00907              -0.20    20400.00
00908              -1.20    20400.00
00909              -2.20    20800.00
00910               2.80    21000.00
00911              -0.60    21000.00
00912              -2.20    21200.00
00913               1.40    21200.00
00914              -1.00    21400.00
00915              -3.40    21600.00
00916               1.20    21600.00
00917               1.20    21800.00
00918              -2.60    21800.00
00919               0.40    22000.00
00920               0.60    22000.00
00921              -2.60    22000.00
00922              -1.20    22200.00
00923               0.40    22400.00
00924              -0.60    22400.00
00925              -0.60    22400.00
00926               0.20    22400.00
00927              -0.20    22400.00
00928              -1.20    22200.00
00929              -1.40    22400.00
00930              -0.20    22400.00
00931              -0.20    22400.00
00932              -0.60    22400.00
00933              -0.40    22400.00
00934               0.20    22400.00
00935              -0.40    22200.00
00936              -1.00    22200.00
00937              -0.80    22200.00
00938              -0.40    22200.00
00939              -0.60    22200.00
00940              -1.00    22000.00
00941               0.20    22000.00
00942              -0.40    21800.00
00943              -1.60    21800.00
00944              -0.40    21600.00
00945               0.20    21600.00
00946              -1.40    21400.00
00947              -1.00    21200.00
00948               0.20    21200.00
00949              -1.00    21000.00
00950              -1.00    20800.00
00951              -0.60    20600.00
00952              -0.60    20400.00
00953              -1.00    20400.00
00954               0.20    20000.00
00955              -1.00    20000.00
00956              -0.80    19800.00
00957              -0.40    19400.00
00958              -1.00    19200.00
00959              -1.40    19000.00
00960              -0.40    19000.00
00961              -0.60    18600.00
00962              -0.60    18400.00
00963              -0.40    18000.00
00964              -0.60    17800.00
00965              -1.00    17600.00
00966              -0.60    17400.00
00967              -0.40    17000.00
00968              -0.80    16800.00
00969              -0.40    16400.00
00970              -0.40    16000.00
00971              -1.00    16000.00
00972              -0.40    15600.00
00973              -0.60    15200.00
00974              -1.00    15000.00
00975              -0.20    14600.00
00976               0.00    14200.00
00977              -1.20    14000.00
00978              -0.40    13600.00
00979               0.00    13400.00
00980              -1.00    13000.00
00981              -0.40    12600.00
00982               0.20    12400.00
00983              -0.60    11800.00
00984              -0.60    11600.00
00985               0.20    11000.00
00986              -0.40    10800.00
00987              -0.60    10400.00
00988              -0.40    10000.00
00989              -0.60     9600.00
00990              -0.60     9200.00
00991              -0.40     8800.00
00992              -0.20     8400.00
00993              -0.20     8200.00
00994              -0.20     7600.00
00995              -0.20     7200.00
00996              -0.20     6800.00
00997              -0.20     6400.00
00998              -0.60     6000.00
00999               0.00     5600.00
01000               0.20     5200.00
01001              -0.60     4600.00
01002              -0.20     4400.00
01003              -0.20     4000.00
01004              -0.20     3600.00
01005              -0.60     3000.00
01006              -0.20     2800.00
01007              -0.40     2200.00
01008              -0.60     2000.00
01009              -0.40     1400.00
01010              -0.20     1000.00
01011              -0.60      600.00
01012               0.20      200.00
01013               0.40     -200.00
01014               0.60     -800.00
01015               3.40    -1000.00
01016              -0.40    -1600.00
01017              -2.20    -1800.00
01018               1.20    -2000.00
01019               1.80    -2600.00
01020              -2.20    -3000.00
01021               2.00    -3200.00
01022              19.60    -3800.00
01023              25.00    -4400.00
01024             -25.00    -5200.00
01025             -25.00    -5600.00
01026              25.00    -5800.00
01027               1.40    -6000.00
01028             -25.00    -6000.00
01029              25.00    -6600.00
01030              25.00    -7400.00
01031             -25.00    -7200.00
01032              25.00    -8200.00
01033              25.00    -8600.00
01034             -25.00    -8600.00
01035               4.20    -9400.00
01036              25.00    -9400.00
01037             -25.00    -9800.00
01038              -5.20   -10400.00
01039              25.00   -10400.00
01040               9.40   -11200.00
01041             -21.80   -11400.00
01042             -23.00   -11800.00
01043              25.00   -12400.00
01044             -11.40   -12400.00
01045             -25.00   -12800.00
01046              25.00   -13200.00
01047               7.40   -13600.00
01048             -17.20   -14200.00
01049             -13.20   -14000.00
01050              25.00   -14600.00
01051              -3.00   -14800.00
01052             -24.20   -15200.00
01053              25.00   -15600.00
01054               0.60   -15600.00
01055             -18.80   -16200.00
01056              10.00   -16400.00
01057               5.20   -16800.00
01058              -9.40   -17000.00
01059               1.80   -17200.00
01060               9.40   -17600.00
01061              -5.00   -17800.00
01062               0.20   -18000.00
01063               2.60   -18400.00
01064              -2.60   -18800.00
01065               0.20   -18800.00
01066               0.20   -19200.00
01067               1.80   -19400.00
01068               1.40   -19600.00
01069               0.20   -19600.00
01070              -1.00   -20000.00
01071               2.60   -20200.00
01072              -3.00   -20400.00
01073              -0.60   -20400.00
01074               5.60   -20600.00
01075              -3.00   -20800.00
01076               0.60   -21000.00
01077               3.00   -21000.00
01078              -2.80   -21200.00
01079              -1.00   -21200.00
01080               3.00   -21600.00
01081              -1.00   -21600.00
01082              -1.80   -21800.00
01083               3.60   -21800.00
01084               0.20   -21800.00
01085              -2.60   -22000.00
01086               1.40   -22000.00
01087               1.40   -22200.00
01088              -0.60   -22200.00
01089              -0.20   -22400.00
01090               1.20   -22400.00
01091               0.40   -22400.00
01092              -2.00   -22400.00
01093               0.40   -22400.00
01094               1.40   -22400.00
01095              -1.20   -22400.00
01096               1.00   -22400.00
01097               1.80   -22400.00
01098               0.20   -22400.00
01099              -0.20   -22400.00
01100              -0.20   -22400.00
01101              -0.20   -22400.00
01102              -1.00   -22200.00
01103              -0.40   -22200.00
01104               0.20   -22000.00
01105               1.00   -22000.00
01106               0.40   -22000.00
01107               0.40   -21800.00
01108               1.80   -21800.00
01109              -0.40   -21600.00
01110              -1.20   -21400.00
01111               1.20   -21400.00
01112              -0.40   -21200.00
01113              -1.00   -21000.00
01114               1.00   -21000.00
01115               1.00   -20800.00
01116               0.40   -20600.00
01117               1.60   -20200.00
01118               0.60   -20200.00
01119              -0.40   -20000.00
01120               0.40   -19800.00
01121              -0.40   -19600.00
01122              -1.40   -19400.00
01123               0.40   -19200.00
01124               0.40   -19000.00
01125               0.40   -18800.00
01126               1.20   -18400.00
01127               1.00   -18400.00
01128              -0.20   -18000.00
01129              -0.40   -17600.00
01130              -0.20   -17400.00
01131              -0.60   -17200.00
01132              -0.40   -17000.00
01133               1.40   -16600.00
01134               0.60   -16400.00
01135               0.20   -16200.00
01136               0.60   -15600.00
01137              -0.40   -15600.00
01138              -0.40   -15200.00
01139              -0.20   -15000.00
01140               0.20   -14400.00
01141              -0.20   -14400.00
01142              -0.20   -13800.00
01143               0.20   -13600.00
01144              -0.60   -13200.00
01145              -0.20   -12800.00
01146               0.20   -12400.00
01147               0.00   -12200.00
01148               0.20   -11800.00
01149              -0.20   -11400.00
01150              -0.60   -11200.00
01151              -0.40   -10600.00
01152              -0.60   -10400.00
01153              -0.40   -10000.00
01154               0.20    -9600.00
01155               0.20    -9200.00
01156               0.40    -8800.00
01157              -0.20    -8400.00
01158              -0.20    -8000.00
01159              -0.60    -7600.00
01160              -0.60    -7200.00
01161              -0.40    -6800.00
01162              -0.60    -6400.00
01163              -0.40    -6000.00
01164               0.60    -5600.00
01165              -0.60    -5000.00
01166              -0.40    -4600.00
01167               0.20    -4200.00
01168              -0.40    -3800.00
01169              -0.60    -3600.00
01170               0.20    -3000.00
01171              -0.20    -2600.00
01172               0.20    -2400.00
01173              -0.40    -1800.00
01174               0.20    -1600.00
01175              -0.40     -800.00
01176              -0.60     -400.00
01177              -0.40        0.00
01178               0.60      400.00
01179               1.20      800.00
01180               3.60     1200.00
01181              -1.20     1600.00
01182              -1.40     1800.00
01183               2.60     2200.00
01184               1.20     2600.00
01185              -2.20     3000.00
01186               2.60     3200.00
01187               9.40     3800.00
01188              22.80     4600.00
01189              -2.20     4800.00
01190             -25.00     5400.00
01191              -3.60     5600.00
01192              25.00     6200.00
01193             -22.20     6400.00
01194             -25.00     6800.00
01195              25.00     7200.00
01196              25.00     7800.00
01197             -25.00     8000.00
01198               2.00     8400.00
01199              25.00     8600.00
01200             -25.00     9200.00
01201             -25.00     9800.00
01202              25.00     9600.00
01203             -22.60    10200.00
01204             -25.00    10800.00
01205              25.00    11000.00
01206              15.40    11400.00
01207             -25.00    11800.00
01208              -8.60    12000.00
01209              25.00    12600.00
01210              -6.60    12800.00
01211             -22.80    13200.00
01212              15.60    13600.00
01213              12.60    14000.00
01214             -17.00    14200.00
01215             -11.40    14600.00
01216              18.00    15000.00
01217               0.60    15200.00
01218             -17.20    15600.00
01219              13.20    15800.00
01220               7.20    16000.00
01221             -17.60    16400.00
01222               3.80    16600.00
01223               8.40    16800.00
01224             -10.80    17400.00
01225              -0.60    17600.00
01226               9.20    18000.00
01227              -4.60    18200.00
01228              -3.80    18200.00
01229               3.60    18600.00
01230              -2.60    18800.00
01231              -2.40    19200.00
01232               1.40    19200.00
01233              -0.60    19600.00
01234               0.00    19800.00
01235               0.20    20000.00
01236              -2.20    20000.00
01237               0.40    20400.00
01238              -1.40    20600.00
01239              -1.80    20800.00
01240               2.60    20800.00
01241              -1.80    21000.00
01242              -1.60    21200.00
01243               2.00    21400.00
01244              -1.80    21200.00
01245              -3.00    21600.00
01246               2.00    21600.00
01247               0.40    21800.00
01248              -2.60    22000.00
01249               1.20    22000.00
01250               0.20    22000.00
01251              -2.60    22000.00
01252              -0.40    22200.00
01253               0.40    22200.00
01254              -1.40    22400.00
01255              -1.00    22400.00
01256               0.60    22400.00
01257              -0.60    22200.00
01258              -1.20    22400.00
01259              -0.40    22400.00
01260              -0.20    22400.00
01261              -1.00    22400.00
01262              -0.20    22600.00
01263              -1.00    22400.00
01264              -0.60    22400.00
01265              -0.20    22200.00
01266              -1.20    22200.00
01267              -0.60    22200.00
01268              -0.20    22000.00
01269              -1.00    22200.00
01270              -1.00    22000.00
01271               0.20    22000.00
01272              -0.80    21800.00
01273              -2.00    21600.00
01274               0.40    21400.00
01275              -0.20    21400.00
01276              -1.80    21400.00
01277              -0.40    21200.00
01278               0.40    21200.00
01279              -1.00    20800.00
01280              -0.60    20600.00
01281              -0.20    20600.00
01282              -1.80    20400.00
01283              -1.20    20000.00
01284               0.20    20400.00
01285              -1.20    19800.00
01286              -0.60    19600.00
01287               0.40    19400.00
01288              -1.00    19200.00
01289              -0.60    19000.00
01290              -0.40    18800.00
01291              -0.60    18600.00
01292              -0.80    18200.00
01293              -0.40    18000.00
01294              -0.80    17800.00
01295              -0.60    17600.00
01296              -0.60    17200.00
01297              -0.60    17000.00
01298              -0.40    16800.00
01299              -0.20    16400.00
01300              -0.60    16000.00
01301              -0.40    15800.00
01302              -0.40    15600.00
01303              -0.60    15200.00
01304              -0.60    14800.00
01305              -0.60    14400.00
01306              -0.60    14200.00
01307              -0.40    14000.00
01308              -0.40    13600.00
01309              -0.60    13200.00
01310              -0.80    13000.00
01311              -0.40    12600.00
01312              -0.40    12400.00
01313              -0.60    11800.00
01314              -0.40    11400.00
01315              -0.20    11000.00
01316              -0.20    10800.00
01317              -0.40    10200.00
01318              -0.40    10000.00
01319              -0.20     9400.00
01320               0.20     9200.00
01321              -0.20     8800.00
01322              -0.60     8400.00
01323              -0.20     8000.00
01324              -0.40     7800.00
01325              -0.40     7200.00
01326              -0.20     6800.00
01327              -0.40     6400.00
01328              -0.20     6000.00
01329               0.00     5600.00
01330              -0.20     5000.00
01331              -0.40     4600.00
01332              -0.40     4200.00
01333              -0.60     3800.00
01334              -0.20     3400.00
01335              -0.20     3000.00
01336              -0.20     2400.00
01337              -0.40     2200.00
01338               0.20     1800.00
01339              -0.20     1600.00
01340              -0.60      800.00
01341              -0.20      400.00
01342              -1.00        0.00
01343               1.00     -400.00
01344               0.40     -800.00
01345               3.40    -1200.00
01346              -0.80    -1600.00
01347              -2.20    -1800.00
01348               2.00    -2400.00
01349               1.40    -2600.00
01350              -3.00    -3000.00
01351               5.00    -3400.00
01352              24.40    -4000.00
01353              18.60    -4800.00
01354             -25.00    -5200.00
01355             -18.00    -5600.00
01356              25.00    -5800.00
01357             -16.20    -6400.00
01358             -25.00    -6000.00
01359              25.00    -6600.00
01360              25.00    -7400.00
01361             -25.00    -7200.00
01362              25.00    -8400.00
01363              25.00    -8400.00
01364             -25.00    -8800.00
01365              25.00    -9400.00
01366              25.00    -9200.00
01367             -25.00    -9800.00
01368              10.60   -10400.00
01369              25.00   -10600.00
01370               6.60   -11200.00
01371             -25.00   -11600.00
01372              -8.40   -12000.00
01373              25.00   -12200.00
01374             -25.00   -12400.00
01375             -12.20   -13000.00
01376              25.00   -13200.00
01377              -0.60   -13600.00
01378             -18.80   -14400.00
01379              -5.40   -14400.00
01380              25.00   -14800.00
01381             -14.80   -14800.00
01382             -13.80   -15400.00
01383              25.00   -15600.00
01384              -9.40   -15800.00
01385             -13.20   -16400.00
01386              12.20   -16600.00
01387               1.00   -16800.00
01388              -9.20   -17000.00
01389               5.40   -17200.00
01390               7.00   -17600.00
01391              -6.00   -17800.00
01392               1.80   -18400.00
01393               1.40   -18400.00
01394              -2.00   -18600.00
01395               0.40   -18800.00
01396               0.80   -19200.00
01397               1.80   -19200.00
01398               1.20   -19600.00
01399              -0.20   -19800.00
01400               0.20   -20000.00
01401               1.40   -20200.00
01402              -4.40   -20400.00
01403               2.00   -20600.00
01404               3.40   -20800.00
01405              -3.80   -20800.00
01406               2.80   -21000.00
01407               2.00   -21200.00
01408              -3.80   -21200.00
01409               0.40   -21600.00
01410               3.40   -21600.00
01411              -2.40   -21600.00
01412               0.00   -21800.00
01413               3.60   -22000.00
01414              -2.20   -22000.00
01415              -0.60   -22000.00
01416               1.40   -22200.00
01417              -0.60   -22000.00
01418               0.20   -22400.00
01419               0.60   -22200.00
01420               0.20   -22400.00
01421               0.60   -22400.00
01422              -1.00   -22400.00
01423               0.40   -22400.00
01424               0.80   -22400.00
01425              -1.00   -22400.00
01426               0.60   -22400.00
01427               1.20   -22400.00
01428               0.40   -22400.00
01429              -0.20   -22400.00
01430               0.60   -22400.00
01431               0.40   -22400.00
01432              -0.60   -22400.00
01433               0.40   -22000.00
01434               0.80   -22000.00
01435               0.20   -22000.00
01436              -0.40   -22000.00
01437               0.20   -21800.00
01438               1.40   -21600.00
01439              -0.60   -21600.00
01440              -0.20   -21400.00
01441               1.80   -21400.00
01442              -0.20   -21200.00
01443              -0.60   -21000.00
01444               1.00   -20800.00
01445               0.60   -20800.00
01446              -0.60   -20800.00
01447               0.40   -20400.00
01448               1.00   -20400.00
01449              -0.40   -20000.00
01450               0.60   -19800.00
01451               0.40   -19600.00
01452              -0.60   -19400.00
01453               0.40   -19400.00
01454               0.20   -19000.00
01455              -0.40   -18800.00
01456               0.80   -18400.00
01457               0.40   -18200.00
01458               0.00   -18000.00
01459               0.60   -17800.00
01460               0.20   -17400.00
01461              -0.60   -17200.00
01462               1.00   -17000.00
01463               0.60   -16400.00
01464              -1.00   -16400.00
01465               0.40   -16000.00
01466               0.20   -15800.00
01467              -1.00   -15400.00
01468               0.40   -15200.00
01469               0.20   -14800.00
01470              -0.40   -14600.00
01471              -0.20   -14200.00
01472               0.20   -13800.00
01473              -0.20   -13600.00
01474              -0.60   -13200.00
01475               0.20   -12800.00
01476              -0.20   -12600.00
01477              -0.20   -12200.00
01478               0.20   -11600.00
01479              -0.20   -11600.00
01480              -0.20   -11000.00
01481              -0.20   -10600.00
01482              -0.60   -10400.00
01483              -0.20   -10000.00
01484              -0.40    -9400.00
01485              -0.60    -9000.00
01486               0.20    -8800.00
01487               0.20    -8400.00
01488              -0.40    -8000.00
01489              -0.60    -7600.00
01490               0.20    -7200.00
01491              -0.20    -6600.00
01492              -0.60    -6400.00
01493               0.20    -5800.00
01494               0.40    -5600.00
01495              -1.20    -5000.00
01496               0.20    -4400.00
01497              -0.20    -4400.00
01498              -0.80    -4000.00
01499              -0.40    -3400.00
01500               0.40    -3000.00
01501              -0.20    -2600.00
01502              -0.20    -2000.00
01503              -0.40    -1800.00
01504               0.00    -1200.00
01505              -0.40     -800.00
01506              -0.60     -400.00
01507               0.20        0.00
01508               0.80      400.00
01509               1.80      800.00
01510               3.00     1200.00
01511              -2.00     1800.00
01512              -1.20     2000.00
01513               2.60     2400.00
01514               0.60     2600.00
01515              -2.60     3200.00
01516               4.20     3400.00
01517              11.40     4000.00
01518              24.40     4600.00
01519             -13.20     5000.00
01520             -25.00     5600.00
01521               9.00     6000.00
01522              25.00     6200.00
01523             -25.00     6400.00
01524             -25.00     6800.00
01525              25.00     7600.00
01526              25.00     7800.00
01527             -25.00     8200.00
01528              25.00     8600.00
01529              25.00     8600.00
01530             -25.00     9000.00
01531              -0.60     9600.00
01532              25.00    10000.00
01533             -25.00    10400.00
01534             -24.20    10800.00
01535              25.00    11000.00
01536               3.20    11400.00
01537             -25.00    12000.00
01538               2.80    12000.00
01539              25.00    12600.00
01540             -16.60    13000.00
01541             -16.40    13200.00
01542              20.20    13600.00
01543               6.80    14000.00
01544             -19.60    14600.00
01545              -5.80    14600.00
01546              19.60    15000.00
01547              -6.80    15200.00
01548             -13.20    15600.00
01549              17.40    16000.00
01550               0.00    16200.00
01551             -15.80    16400.00
01552               8.60    16600.00
01553               4.60    17000.00
01554             -12.20    17400.00
01555               3.80    17600.00
01556               6.80    18000.00
01557              -6.60    18200.00
01558              -1.20    18400.00
01559               3.20    18800.00
01560              -3.60    19000.00
01561              -0.60    19200.00
01562               1.20    19400.00
01563              -1.20    19600.00
01564               1.00    19800.00
01565              -1.00    20000.00
01566              -2.00    20200.00
01567               1.20    20400.00
01568              -2.60    20400.00
01569               0.20    20800.00
01570               3.00    20800.00
01571              -3.00    21000.00
01572              -0.40    21200.00
01573               2.00    21400.00
01574              -3.00    21600.00
01575              -2.20    21400.00
01576               2.00    21600.00
01577               0.20    21800.00
01578              -2.80    21600.00
01579               1.20    22000.00
01580               0.40    22000.00
01581              -2.60    22200.00
01582              -0.40    22200.00
01583               0.60    22200.00
01584              -0.80    22200.00
01585              -1.20    22400.00
01586               0.60    22400.00
01587              -0.40    22400.00
01588              -2.00    22400.00
01589              -0.60    22400.00
01590               0.00    22400.00
01591              -0.60    22400.00
01592              -0.20    22400.00
01593              -0.40    22400.00
01594              -0.60    22400.00
01595              -0.60    22200.00
01596              -1.20    22200.00
01597              -1.20    22200.00
01598               0.60    22000.00
01599              -0.60    22000.00
01600              -1.20    22000.00
01601               0.40    22000.00
01602              -1.40    21800.00
01603              -2.40    21600.00
01604               0.40    21600.00
01605              -0.20    21400.00
01606              -1.20    21200.00
01607              -0.20    21200.00
01608              -0.60    21000.00
01609              -1.00    20800.00
01610              -0.60    20800.00
01611               0.20    20600.00
01612              -0.60    20400.00
01613              -0.60    20200.00
01614              -0.60    20000.00
01615              -1.20    19800.00
01616              -1.20    19600.00
01617              -0.40    19600.00
01618              -0.60    19200.00
01619               0.20    19000.00
01620              -1.00    18800.00
01621              -1.40    18800.00
01622              -0.40    18200.00
01623              -0.20    18000.00
01624              -0.60    18000.00
01625              -0.40    17400.00
01626              -0.40    17200.00
01627              -0.60    16800.00
01628              -0.80    16800.00
01629              -0.20    16400.00
01630              -1.00    16000.00
01631              -0.20    15800.00
01632               0.40    15600.00
01633              -1.20    15200.00
01634              -0.60    15000.00
01635              -0.60    14400.00
01636              -1.40    14200.00
01637              -0.20    13800.00
01638               1.00    13600.00
01639              -1.00    13200.00
01640              -1.20    12800.00
01641               0.20    12400.00
01642              -1.00    12000.00
01643              -1.20    11800.00
01644               1.00    11400.00
01645              -0.40    10800.00
01646              -0.60    10600.00
01647               0.40    10200.00
01648              -0.60    10000.00
01649              -1.20     9400.00
01650               0.60     9200.00
01651              -0.80     8800.00
01652              -1.00     8400.00
01653               1.00     8000.00
01654              -0.60     7600.00
01655              -1.00     7200.00
01656               0.20     6600.00
01657              -0.60     6400.00
01658              -1.20     6000.00
01659               0.60     5400.00
01660              -0.40     5000.00
01661              -1.20     4600.00
01662               0.40     4200.00
01663              -0.20     3600.00
01664              -1.40     3400.00
01665               0.20     3000.00
01666              -0.40     2600.00
01667              -1.20     2200.00
01668               0.20     1800.00
01669              -0.20     1200.00
01670              -1.00      800.00
01671               0.20      400.00
01672               0.20        0.00
01673              -0.40     -400.00
01674               1.80     -800.00
01675               3.40    -1200.00
01676              -2.60    -1600.00
01677              -1.20    -2000.00
01678               2.60    -2400.00
01679              -0.40    -2800.00
01680              -2.20    -3200.00
01681               7.60    -3400.00
01682              25.00    -4000.00
01683               4.60    -4600.00
01684             -25.00    -5200.00
01685              -2.20    -5600.00
01686              25.00    -6000.00
01687             -25.00    -6000.00
01688             -25.00    -6000.00
01689              25.00    -7000.00
01690              -4.60    -7200.00
01691             -25.00    -7400.00
01692              25.00    -8400.00
01693              25.00    -8400.00
01694             -25.00    -9000.00
01695              25.00    -9400.00
01696              25.00    -9200.00
01697             -25.00   -10000.00
01698              21.40   -10400.00
01699              24.20   -10800.00
01700               3.80   -11200.00
01701             -25.00   -11600.00
01702               6.20   -12000.00
01703              25.00   -12400.00
01704             -25.00   -12400.00
01705              -0.20   -13200.00
01706              25.00   -13200.00
01707              -6.20   -13800.00
01708             -21.40   -14400.00
01709               3.20   -14400.00
01710              25.00   -14800.00
01711             -25.00   -15000.00
01712              -1.80   -15400.00
01713              25.00   -15600.00
01714             -18.00   -16000.00
01715              -6.80   -16200.00
01716              13.40   -16400.00
01717              -3.00   -16800.00
01718              -8.20   -17000.00
01719               9.00   -17200.00
01720               4.20   -17600.00
01721              -6.20   -17800.00
01722               3.80   -18400.00
01723              -0.20   -18600.00
01724              -2.60   -18800.00
01725               0.60   -19000.00
01726               0.60   -19200.00
01727               1.00   -19400.00
01728               1.40   -19400.00
01729              -0.60   -20000.00
01730               0.40   -20000.00
01731               1.80   -20200.00
01732              -5.00   -20200.00
01733               3.80   -20400.00
01734               2.80   -20800.00
01735              -4.20   -20800.00
01736               4.00   -21000.00
01737               1.00   -21200.00
01738              -4.40   -21200.00
01739               1.40   -21400.00
01740               3.40   -21600.00
01741              -2.80   -21600.00
01742               0.40   -21800.00
01743               4.40   -22000.00
01744              -2.00   -22000.00
01745              -2.20   -22200.00
01746               2.60   -22000.00
01747              -0.20   -22000.00
01748              -1.40   -22200.00
01749               1.40   -22200.00
01750               1.20   -22400.00
01751              -0.60   -22400.00
01752              -0.40   -22400.00
01753               1.20   -22400.00
01754              -0.20   -22400.00
01755              -0.40   -22400.00
01756               1.60   -22400.00
01757              -0.20   -22400.00
01758               0.40   -22400.00
01759               0.20   -22400.00
01760              -0.20   -22400.00
01761               1.00   -22200.00
01762               0.20   -22200.00
01763               0.20   -22400.00
01764               0.60   -22000.00
01765               0.60   -22000.00
01766              -0.60   -21800.00
01767               0.20   -21800.00
01768               1.20   -21600.00
01769              -0.60   -21600.00
01770               0.20   -21400.00
01771               1.40   -21200.00
01772              -0.20   -21000.00
01773               0.00   -21200.00
01774               1.00   -20800.00
01775               0.20   -20800.00
01776              -0.40   -20400.00
01777               0.40   -20400.00
01778               0.40   -20000.00
01779              -0.40   -20000.00
01780               0.80   -19800.00
01781               1.00   -19600.00
01782              -0.60   -19400.00
01783               0.20   -19200.00
01784               1.00   -19000.00
01785              -0.20   -18800.00
01786              -0.20   -18400.00
01787               1.00   -18200.00
01788              -0.40   -18000.00
01789              -0.60   -17600.00
01790               0.60   -17200.00
01791              -0.40   -17200.00
01792              -0.20   -16800.00
01793               0.60   -16400.00
01794              -0.20   -16400.00
01795              -0.20   -16000.00
01796               0.20   -15800.00
01797              -0.40   -15400.00
01798              -0.20   -15000.00
01799              -0.20   -14800.00
01800              -0.20   -14400.00
01801              -0.20   -14000.00
01802              -0.20   -13800.00
01803              -0.40   -13400.00
01804              -0.40   -13000.00
01805               0.00   -12800.00
01806              -0.20   -12400.00
01807               0.00   -12000.00
01808               0.20   -11600.00
01809              -0.40   -11400.00
01810              -0.20   -10800.00
01811               0.20   -10400.00
01812              -0.20   -10000.00
01813               0.20    -9800.00
01814              -0.40    -9200.00
01815              -0.60    -9000.00
01816               0.00    -8800.00
01817              -0.60    -8200.00
01818              -0.40    -8000.00
01819               0.20    -7400.00
01820              -0.60    -7200.00
01821              -0.60    -6600.00
01822               0.20    -6200.00
01823               0.40    -5800.00
01824              -0.60    -5400.00
01825              -0.40    -5000.00
01826               0.60    -4400.00
01827              -2.20    -4200.00
01828               0.20    -3800.00
01829               1.00    -3200.00
01830              -1.40    -2800.00
01831              -0.40    -2400.00
01832               1.80    -2000.00
01833              -1.60    -1600.00
01834              -1.00    -1200.00
01835               1.40     -800.00
01836              -1.60     -400.00
01837              -0.20        0.00
01838               2.20      400.00
01839               1.80      800.00
01840               1.00     1200.00
01841              -0.80     1800.00
01842              -0.40     2000.00
01843               2.20     2400.00
01844               1.60     2800.00
01845              -2.60     3000.00
01846               4.00     3600.00
01847              15.40     4200.00
01848              22.40     4600.00
01849             -25.00     5200.00
01850             -25.00     5600.00
01851              20.20     6000.00
01852              18.80     6400.00
01853             -25.00     6400.00
01854             -17.00     6800.00
01855              25.00     7600.00
01856               9.80     7600.00
01857             -25.00     8200.00
01858              25.00     8400.00
01859              25.00     8800.00
01860             -25.00     9200.00
01861              25.00     9600.00
01862              25.00    10000.00
01863             -25.00    10600.00
01864              -7.40    10800.00
01865              25.00    11000.00
01866              -7.80    11600.00
01867             -25.00    11800.00
01868              13.40    12400.00
01869              25.00    12800.00
01870             -24.20    13200.00
01871              -8.60    13400.00
01872              22.80    13800.00
01873               0.40    14200.00
01874             -20.20    14400.00
01875               0.60    14800.00
01876              18.80    15200.00
01877             -13.00    15400.00
01878              -7.60    15800.00
01879              18.60    16000.00
01880              -7.00    16200.00
01881             -12.40    16600.00
01882              11.40    16800.00
01883               0.40    17200.00
01884             -11.40    17400.00
01885               7.40    17600.00
01886               5.00    18000.00
01887              -7.40    18200.00
01888               0.20    18400.00
01889               2.60    18800.00
01890              -3.80    19000.00
01891              -0.20    19200.00
01892               1.00    19400.00
01893              -1.20    19600.00
01894               2.00    19800.00
01895              -2.20    20000.00
01896              -0.60    20200.00
01897               0.80    20600.00
01898              -4.20    20600.00
01899               1.80    20800.00
01900               2.20    21000.00
01901              -4.20    21000.00
01902               1.20    21200.00
01903               2.00    21400.00
01904              -3.80    21400.00
01905              -0.60    21600.00
01906               2.40    21800.00
01907              -2.00    21600.00
01908              -1.20    22000.00
01909               1.40    22000.00
01910              -1.60    22000.00
01911              -1.80    22200.00
01912               0.60    22200.00
01913              -0.60    22200.00
01914              -1.00    22400.00
01915              -0.40    22200.00
01916               0.20    22400.00
01917              -0.40    22400.00
01918              -1.20    22400.00
01919              -0.40    22400.00
01920              -0.20    22400.00
01921              -0.60    22400.00
01922              -1.00    22400.00
01923              -0.40    22400.00
01924              -0.40    22200.00
01925              -0.60    22200.00
01926              -1.20    22400.00
01927              -0.60    22200.00
01928              -0.60    22200.00
01929              -1.00    22000.00
01930              -0.60    22000.00
01931              -0.20    22000.00
01932              -1.00    21600.00
01933              -1.20    21600.00
01934               0.20    21600.00
01935              -1.00    21400.00
01936              -1.20    21400.00
01937              -0.20    21200.00
01938              -0.60    21000.00
01939              -1.20    20800.00
01940              -0.60    20800.00
01941              -0.20    20600.00
01942              -1.20    20400.00
01943               0.20    20200.00
01944              -0.60    20000.00
01945              -0.80    19800.00
01946              -0.60    19600.00
01947              -0.20    19600.00
01948              -1.00    19200.00
01949              -0.60    19000.00
01950              -0.60    18800.00
01951              -0.60    18400.00
01952              -0.60    18200.00
01953              -0.20    18000.00
01954              -0.60    17600.00
01955              -0.20    17400.00
01956              -1.00    17200.00
01957              -1.00    16800.00
01958               0.00    16400.00
01959              -1.20    16200.00
01960              -0.60    16000.00
01961               0.40    15600.00
01962              -1.00    15600.00
01963               0.40    15000.00
01964              -0.40    14800.00
01965              -1.20    14400.00
01966               1.00    14200.00
01967              -0.40    13800.00
01968              -2.20    13400.00
01969               0.20    13200.00
01970               0.40    12800.00
01971              -1.60    12400.00
01972              -0.40    12000.00
01973               0.20    11600.00
01974              -1.00    11200.00
01975              -1.20    11000.00
01976               0.60    10400.00
01977              -0.20    10200.00
01978              -1.20     9600.00
01979               0.40     9600.00
01980              -0.20     9200.00
01981              -1.00     8600.00
01982               0.00     8400.00
01983              -0.20     7800.00
01984              -0.40     7400.00
01985              -0.60     7200.00
01986              -0.60     6600.00
01987              -0.60     6200.00
01988              -0.60     6000.00
01989              -0.60     5400.00
01990               0.20     4800.00
01991              -0.40     4600.00
01992              -0.80     4000.00
01993               0.20     3600.00
01994               0.20     3200.00
01995              -1.00     3000.00
01996              -0.20     2600.00
01997               0.20     2000.00
01998              -0.60     1800.00
01999              -0.60     1200.00
02000              -0.20      800.00
02001              -0.60      400.00
02002              -0.40     -200.00
02003               0.40     -400.00
02004               1.80     -800.00
02005               2.20    -1200.00
02006              -2.60    -1600.00
02007              -0.60    -2000.00
02008               2.60    -2400.00
02009              -0.60    -2800.00
02010              -1.80    -3000.00
02011              10.40    -3400.00
02012              25.00    -4200.00
02013             -11.80    -4800.00
02014             -25.00    -5400.00
02015              13.80    -5800.00
02016              25.00    -6000.00
02017             -25.00    -6200.00
02018             -11.60    -6000.00
02019              25.00    -7200.00
02020             -25.00    -7200.00
02021             -25.00    -7600.00
02022              25.00    -8400.00
02023             -10.80    -8400.00
02024             -25.00    -9000.00
02025              25.00    -9600.00
02026              -1.20    -9600.00
02027             -25.00   -10000.00
02028              25.00   -10400.00
02029              17.40   -10800.00
02030              -2.60   -11400.00
02031             -25.00   -11400.00
02032              20.60   -12200.00
02033              25.00   -12400.00
02034             -25.00   -12600.00
02035              13.20   -13200.00
02036              23.40   -13200.00
02037             -10.80   -13800.00
02038             -18.80   -14400.00
02039              10.20   -14400.00
02040              20.20   -14800.00
02041             -25.00   -15000.00
02042              10.20   -15600.00
02043              22.60   -15800.00
02044             -22.00   -16000.00
02045               0.20   -16400.00
02046              12.40   -16600.00
02047              -7.40   -16800.00
02048              -5.40   -17200.00
02049              11.80   -17600.00
02050              -1.20   -17800.00
02051              -5.40   -18000.00
02052               6.20   -18400.00
02053              -2.60   -18600.00
02054              -2.80   -18800.00
02055               2.80   -19200.00
02056               1.00   -19200.00
02057              -0.40   -19400.00
02058               2.80   -19600.00
02059              -1.00   -20000.00
02060              -0.40   -20000.00
02061               0.60   -20400.00
02062              -3.40   -20400.00
02063               4.20   -20800.00
02064               0.60   -20800.00
02065              -2.00   -20800.00
02066               4.20   -21000.00
02067              -0.60   -21200.00
02068              -3.00   -21600.00
02069               2.20   -21400.00
02070               1.80   -21600.00
02071              -3.00   -21800.00
02072               2.00   -21800.00
02073               2.80   -22000.00
02074              -2.80   -22000.00
02075              -0.20   -22000.00
02076               2.00   -22000.00
02077              -1.00   -22200.00
02078              -0.20   -22400.00
02079               1.40   -22400.00
02080               0.60   -22400.00
02081              -0.60   -22400.00
02082               0.20   -22400.00
02083               1.00   -22400.00
02084              -0.60   -22400.00
02085               0.20   -22400.00
02086               1.20   -22400.00
02087               0.40   -22400.00
02088               0.60   -22400.00
02089              -0.40   -22400.00
02090               0.40   -22200.00
02091               0.80   -22400.00
02092              -0.40   -22200.00
02093               0.20   -22000.00
02094               0.60   -22000.00
02095               0.40   -21800.00
02096              -0.40   -21800.00
02097               0.60   -21800.00
02098               0.80   -21600.00
02099              -1.00   -21400.00
02100               0.60   -21400.00
02101               1.20   -21200.00
02102              -0.40   -21000.00
02103               0.20   -21000.00
02104               1.00   -20800.00
02105               0.00   -20800.00
02106              -0.20   -20400.00
02107               0.60   -20400.00
02108               0.20   -20200.00
02109              -0.20   -20000.00
02110               1.00   -19600.00
02111              -0.20   -19600.00
02112              -0.40   -19200.00
02113               0.40   -19200.00
02114              -0.20   -18800.00
02115               0.40   -18600.00
02116               0.60   -18400.00
02117               0.00   -18200.00
02118              -0.20   -17800.00
02119               0.20   -17400.00
02120              -0.40   -17400.00
02121              -0.60   -17200.00
02122               0.60   -16800.00
02123               0.20   -16400.00
02124              -0.60   -16400.00
02125               0.40   -16000.00
02126               0.00   -15600.00
02127              -0.60   -15400.00
02128               0.40   -15000.00
02129              -0.20   -14800.00
02130              -0.40   -14400.00
02131               0.00   -14000.00
02132               0.20   -13600.00
02133              -0.20   -13200.00
02134              -0.20   -13000.00
02135               0.20   -12800.00
02136              -0.20   -12400.00
02137              -0.40   -12000.00
02138               0.20   -11400.00
02139              -0.80   -11400.00
02140              -0.40   -10800.00
02141               0.40   -10400.00
02142              -0.60   -10000.00
02143              -0.40    -9800.00
02144               0.40    -9200.00
02145              -0.20    -9000.00
02146              -0.60    -8600.00
02147               0.60    -8200.00
02148               0.20    -7800.00
02149              -1.20    -7200.00
02150               0.20    -6800.00
02151               0.20    -6600.00
02152              -1.20    -6200.00
02153               0.40    -5600.00
02154               0.40    -5200.00
02155              -1.00    -4800.00
02156               0.40    -4400.00
02157               0.20    -4200.00
02158              -0.60    -3600.00
02159              -0.20    -3200.00
02160               0.20    -2800.00
02161              -0.40    -2400.00
02162              -0.40    -2000.00
02163               0.40    -1600.00
02164              -0.40    -1000.00
02165              -0.60     -800.00
02166              -0.20     -200.00
02167               0.80      200.00
02168               0.40      400.00
02169               3.00     1200.00
02170               1.00     1400.00
02171              -2.40     1800.00
02172               0.60     2000.00
02173               3.00     2600.00
02174              -1.20     2800.00
02175              -1.40     3200.00
02176               6.80     3600.00
02177              16.40     4200.00
02178              18.80     4800.00
02179             -25.00     5200.00
02180             -25.00     5400.00
02181              25.00     6000.00
02182               9.80     6200.00
02183             -25.00     6400.00
02184              -1.00     7000.00
02185              25.00     7600.00
02186             -24.40     7800.00
02187             -25.00     8400.00
02188              25.00     8400.00
02189              20.20     8800.00
02190             -25.00     9400.00
02191              25.00     9800.00
02192              25.00    10000.00
02193             -25.00    10600.00
02194               9.20    10800.00
02195              25.00    11200.00
02196             -18.80    11600.00
02197             -25.00    12000.00
02198              24.20    12400.00
02199              18.60    12800.00
02200             -25.00    13200.00
02201               0.40    13400.00
02202              22.80    13800.00
02203              -7.40    14200.00
02204             -18.80    14400.00
02205               7.60    14800.00
02206              13.80    15200.00
02207             -16.80    15400.00
02208               0.60    15800.00
02209              17.20    16000.00
02210             -12.40    16200.00
02211              -6.80    16400.00
02212              11.80    16800.00
02213              -4.60    17200.00
02214              -8.40    17400.00
02215               9.00    17600.00
02216               1.00    18000.00
02217              -6.60    18200.00
02218               2.60    18400.00
02219               0.40    18800.00
02220              -3.80    19000.00
02221               1.00    19200.00
02222               0.60    19600.00
02223              -1.00    19600.00
02224               1.80    19800.00
02225              -1.40    20200.00
02226              -1.20    20400.00
02227               0.00    20400.00
02228              -2.20    20600.00
02229               1.40    21000.00
02230               1.00    21000.00
02231              -2.20    21200.00
02232               0.60    21200.00
02233               0.40    21400.00
02234              -3.40    21400.00
02235              -0.40    21600.00
02236               1.80    21800.00
02237              -1.80    21800.00
02238              -0.20    22000.00
02239               1.40    22200.00
02240              -1.40    22000.00
02241              -1.80    22200.00
02242               0.40    22200.00
02243              -0.80    22200.00
02244              -1.00    22400.00
02245              -0.40    22400.00
02246               0.40    22400.00
02247              -0.40    22200.00
02248              -1.20    22400.00
02249              -0.60    22400.00
02250              -0.60    22400.00
02251              -0.60    22400.00
02252              -1.00    22400.00
02253              -0.40    22400.00
02254               0.20    22200.00
02255              -1.00    22200.00
02256              -1.40    22200.00
02257               0.00    22200.00
02258              -0.60    22200.00
02259              -1.00    22000.00
02260              -0.40    22000.00
02261              -0.20    22000.00
02262              -1.40    21600.00
02263              -0.60    21800.00
02264               0.20    21600.00
02265              -1.20    21400.00
02266              -1.00    21200.00
02267               0.20    21200.00
02268              -0.60    21200.00
02269              -0.80    20800.00
02270              -0.20    20600.00
02271              -0.80    20600.00
02272              -1.20    20400.00
02273               0.40    20200.00
02274              -1.00    20000.00
02275              -0.80    19800.00
02276               0.20    19600.00
02277              -0.40    19400.00
02278              -1.20    19200.00
02279              -0.20    18800.00
02280              -0.60    18800.00
02281              -0.80    18400.00
02282              -0.40    18200.00
02283              -0.60    18000.00
02284              -0.60    17600.00
02285              -0.60    17400.00
02286              -0.20    16800.00
02287              -0.40    16800.00
02288              -0.40    16600.00
02289              -0.40    16200.00
02290               0.20    16000.00
02291              -0.60    15800.00
02292              -0.60    15200.00
02293              -0.20    15000.00
02294              -0.60    14800.00
02295              -0.60    14400.00
02296               0.20    14200.00
02297              -0.60    13600.00
02298              -0.60    13400.00
02299               0.00    13000.00
02300              -0.20    12800.00
02301              -0.40    12400.00
02302               0.20    12000.00
02303              -0.40    11600.00
02304              -0.60    11200.00
02305              -0.40    10800.00
02306              -0.60    10400.00
02307              -0.80    10000.00
02308              -0.20     9800.00
02309               0.20     9200.00
02310              -0.40     9000.00
02311              -0.60     8600.00
02312              -0.60     8200.00
02313              -0.80     7800.00
02314              -0.60     7400.00
02315               0.20     7000.00
02316              -0.40     6400.00
02317              -0.20     6000.00
02318              -0.20     5800.00
02319              -0.40     5400.00
02320              -0.60     4800.00
02321              -0.60     4600.00
02322              -0.40     4000.00
02323              -0.60     3600.00
02324              -0.40     3200.00
02325              -0.40     2800.00
02326              -0.20     2400.00
02327               0.20     2000.00
02328              -0.20     1400.00
02329              -0.60      800.00
02330              -0.40      800.00
02331              -0.40      200.00
02332              -0.40     -200.00
02333               1.00     -600.00
02334               2.60    -1000.00
02335               1.00    -1400.00
02336              -2.60    -1800.00
02337               0.20    -2000.00
02338               2.00    -2400.00
02339              -1.40    -2800.00
02340              -0.20    -3200.00
02341              14.00    -3600.00
02342              25.00    -4400.00
02343             -25.00    -4800.00
02344             -25.00    -5200.00
02345              25.00    -5800.00
02346              22.20    -6000.00
02347             -25.00    -6000.00
02348              21.60    -6400.00
02349              25.00    -7200.00
02350             -25.00    -7200.00
02351             -24.60    -7800.00
02352              25.00    -8600.00
02353             -25.00    -8400.00
02354             -25.00    -9000.00
02355              25.00    -9200.00
02356             -25.00    -9400.00
02357             -25.00   -10400.00
02358              25.00   -10400.00
02359              15.60   -10800.00
02360              -9.20   -11600.00
02361             -25.00   -11400.00
02362              25.00   -12200.00
02363              13.00   -12400.00
02364             -25.00   -12800.00
02365              23.40   -13200.00
02366              18.00   -13200.00
02367             -15.60   -14000.00
02368             -17.20   -14400.00
02369              19.00   -14600.00
02370              10.60   -14800.00
02371             -25.00   -15000.00
02372              20.40   -15400.00
02373              13.40   -15600.00
02374             -22.20   -16200.00
02375               5.80   -16400.00
02376               8.60   -16800.00
02377              -7.80   -17000.00
02378              -2.20   -17200.00
02379              10.00   -17400.00
02380              -2.20   -17600.00
02381              -2.60   -18000.00
02382               3.60   -18400.00
02383              -2.20   -18600.00
02384              -0.40   -18800.00
02385               0.00   -19000.00
02386               1.00   -19200.00
02387               1.60   -19400.00
02388               0.60   -19600.00
02389              -1.40   -20000.00
02390               2.80   -20000.00
02391              -1.60   -20400.00
02392              -3.60   -20200.00
02393               6.20   -20400.00
02394              -1.40   -20800.00
02395              -1.80   -21000.00
02396               5.00   -21000.00
02397              -1.60   -21200.00
02398              -2.80   -21400.00
02399               3.00   -21400.00
02400               1.00   -21600.00
02401              -3.00   -21800.00
02402               2.60   -22000.00
02403               1.80   -22000.00
02404              -2.80   -22000.00
02405               0.40   -22000.00
02406               1.80   -22000.00
02407              -0.60   -22200.00
02408               0.40   -22200.00
02409               1.60   -22400.00
02410               0.20   -22400.00
02411              -0.20   -22400.00
02412               0.20   -22400.00
02413               0.40   -22600.00
02414              -0.20   -22400.00
02415               0.40   -22400.00
02416               0.40   -22400.00
02417               0.60   -22400.00
02418               1.00   -22400.00
02419              -0.60   -22400.00
02420               0.60   -22400.00
02421               1.00   -22400.00
02422              -0.60   -22000.00
02423               0.40   -22200.00
02424               1.00   -22000.00
02425               0.20   -22000.00
02426              -0.40   -21800.00
02427               1.00   -21600.00
02428               0.60   -21600.00
02429              -0.60   -21600.00
02430               1.00   -21200.00
02431               0.40   -21200.00
02432              -0.40   -21200.00
02433               0.40   -20800.00
02434               0.60   -20800.00
02435               0.20   -20800.00
02436               0.20   -20400.00
02437               0.40   -20400.00
02438               0.20   -20200.00
02439               0.40   -19800.00
02440               0.40   -19600.00
02441              -1.00   -19600.00
02442               1.00   -19400.00
02443              -0.40   -19200.00
02444              -1.00   -18800.00
02445               1.00   -18800.00
02446              -0.60   -18400.00
02447              -0.40   -18200.00
02448               0.60   -17800.00
02449              -0.20   -17600.00
02450              -0.20   -17200.00
02451               0.20   -17000.00
02452               0.60   -16800.00
02453              -0.60   -16600.00
02454              -0.40   -16200.00
02455               0.60   -16000.00
02456              -0.60   -15600.00
02457              -0.40   -15200.00
02458               0.60   -15000.00
02459              -0.20   -14800.00
02460              -0.60   -14400.00
02461               0.20   -13800.00
02462               0.20   -13800.00
02463              -0.60   -13200.00
02464              -0.40   -13000.00
02465               0.00   -12800.00
02466              -0.40   -12200.00
02467               0.20   -12000.00
02468              -0.20   -11400.00
02469              -0.20   -11200.00
02470               0.40   -10600.00
02471              -0.60   -10400.00
02472               0.20   -10000.00
02473               0.60    -9600.00
02474              -1.40    -9400.00
02475               0.40    -9000.00
02476               0.20    -8600.00
02477              -1.00    -8200.00
02478               0.20    -7600.00
02479              -0.20    -7200.00
02480               0.40    -6800.00
02481              -0.60    -6400.00
02482              -1.00    -6000.00
02483               2.00    -5600.00
02484              -1.20    -5000.00
02485              -2.00    -5000.00
02486               2.00    -4400.00
02487              -0.20    -4000.00
02488              -2.00    -3600.00
02489               1.00    -3200.00
02490               0.20    -2800.00
02491               0.20    -2400.00
02492              -0.80    -2000.00
02493               0.20    -1600.00
02494              -0.40    -1000.00
02495              -2.00     -600.00
02496               0.60     -200.00
02497               1.20      200.00
02498               0.20      600.00
02499               4.20     1000.00
02500               0.20     1400.00
02501              -2.80     2000.00
02502               1.40     2000.00
02503               2.60     2600.00
02504              -1.80     2800.00
02505               0.20     3200.00
02506               8.40     3600.00
02507              18.40     4400.00
02508              11.80     4800.00
02509             -25.00     5400.00
02510             -22.00     5600.00
02511              25.00     6000.00
02512              -2.80     6400.00
02513             -25.00     6400.00
02514              19.80     7000.00
02515              25.00     7600.00
02516             -25.00     7800.00
02517             -25.00     8400.00
02518              25.00     8600.00
02519             -19.80     9000.00
02520             -25.00     9400.00
02521              25.00     9600.00
02522              14.80    10200.00
02523             -25.00    10800.00
02524              22.40    10800.00
02525              25.00    11200.00
02526             -25.00    11600.00
02527             -23.80    12000.00
02528              25.00    12400.00
02529               9.20    12800.00
02530             -25.00    13200.00
02531               7.80    13400.00
02532              20.20    14000.00
02533             -13.40    14200.00
02534             -16.60    14400.00
02535              13.80    14800.00
02536               8.40    15200.00
02537             -18.80    15600.00
02538               7.80    15800.00
02539              13.00    16200.00
02540             -17.20    16400.00
02541              -0.20    16600.00
02542              10.80    16800.00
02543              -8.80    17200.00
02544              -3.80    17400.00
02545              10.00    17600.00
02546              -3.40    18000.00
02547              -5.00    18400.00
02548               3.80    18600.00
02549              -1.80    19000.00
02550              -2.60    19000.00
02551               2.20    19200.00
02552              -0.60    19600.00
02553              -0.60    19800.00
02554               1.20    19800.00
02555              -2.80    20000.00
02556               0.40    20400.00
02557               0.20    20600.00
02558              -2.80    20600.00
02559               2.60    20800.00
02560              -0.20    21000.00
02561              -2.80    21200.00
02562               2.00    21200.00
02563               0.20    21400.00
02564              -4.20    21400.00
02565               1.20    21600.00
02566               1.40    21600.00
02567              -3.20    21800.00
02568               0.40    22000.00
02569               1.20    22000.00
02570              -2.20    22000.00
02571              -0.40    22200.00
02572               0.60    22200.00
02573              -1.40    22200.00
02574              -0.60    22400.00
02575              -0.40    22400.00
02576              -0.80    22400.00
02577              -0.60    22400.00
02578              -1.00    22600.00
02579              -0.60    22400.00
02580               0.60    22400.00
02581              -0.60    22400.00
02582              -1.80    22200.00
02583               0.20    22400.00
02584              -0.40    22200.00
02585              -2.20    22200.00
02586              -0.40    22200.00
02587              -0.20    22200.00
02588              -1.80    22200.00
02589              -0.20    22000.00
02590              -0.20    22000.00
02591              -1.40    21800.00
02592              -0.60    21800.00
02593              -0.60    21600.00
02594              -0.80    21400.00
02595              -0.20    21400.00
02596              -0.60    21200.00
02597              -1.00    21200.00
02598               0.20    21000.00
02599              -0.40    20800.00
02600              -1.80    20600.00
02601               0.20    20400.00
02602              -0.20    20400.00
02603              -1.20    20000.00
02604              -0.20    20000.00
02605               0.20    19800.00
02606              -1.20    19600.00
02607              -0.60    19200.00
02608              -0.20    19000.00
02609              -0.80    18800.00
02610              -0.60    18800.00
02611              -0.20    18400.00
02612              -0.20    18200.00
02613              -0.40    18000.00
02614              -1.00    17600.00
02615              -0.80    17400.00
02616              -0.20    17000.00
02617              -0.60    16800.00
02618              -0.40    16400.00
02619              -0.20    16000.00
02620              -0.40    15800.00
02621              -0.40    15600.00
02622              -0.40    15200.00
02623              -1.00    15000.00
02624              -0.60    14800.00
02625              -0.20    14200.00
02626              -0.60    14000.00
02627              -0.60    13600.00
02628              -0.20    13400.00
02629              -0.60    13000.00
02630              -0.60    12600.00
02631               0.20    12200.00
02632              -0.40    11800.00
02633              -0.80    11600.00
02634               0.20    11000.00
02635              -0.40    10800.00
02636              -0.80    10400.00
02637              -0.40    10000.00
02638              -0.20     9600.00
02639              -0.40     9200.00
02640              -0.60     8800.00
02641              -0.60     8400.00
02642              -0.40     8000.00
02643              -0.60     7800.00
02644              -0.60     7400.00
02645              -0.20     6800.00
02646              -0.60     6400.00
02647              -1.00     6000.00
02648              -0.40     5600.00
02649               0.20     5200.00
02650              -0.60     4800.00
02651              -0.60     4400.00
02652              -0.20     4000.00
02653              -0.40     3600.00
02654              -0.60     3200.00
02655              -0.40     2800.00
02656              -0.20     2400.00
02657              -0.60     1800.00
02658              -0.40     1400.00
02659               0.20     1200.00
02660              -0.40      800.00
02661              -0.20      200.00
02662               0.20     -200.00
02663               0.60     -400.00
02664               3.00    -1000.00
02665               0.20    -1400.00
02666              -2.00    -1800.00
02667               0.60    -2200.00
02668               1.80    -2400.00
02669              -1.80    -2800.00
02670               1.40    -3200.00
02671              17.40    -3600.00
02672              25.00    -4400.00
02673             -25.00    -5000.00
02674             -25.00    -5600.00
02675              25.00    -5800.00
02676               7.80    -6000.00
02677             -25.00    -6000.00
02678              25.00    -6400.00
02679              25.00    -7400.00
02680             -25.00    -7200.00
02681              25.00    -8000.00
02682              25.00    -8400.00
02683             -25.00    -8400.00
02684             -16.40    -9200.00
02685              25.00    -9400.00
02686             -25.00    -9600.00
02687             -12.20   -10400.00
02688              25.00   -10400.00
02689              10.60   -11000.00
02690             -17.20   -11400.00
02691             -25.00   -11600.00
02692              25.00   -12200.00
02693              -4.20   -12400.00
02694             -25.00   -12800.00
02695              25.00   -13200.00
02696              10.00   -13600.00
02697             -18.00   -14000.00
02698             -13.60   -14400.00
02699              25.00   -14800.00
02700              -0.40   -14800.00
02701             -25.00   -15200.00
02702              25.00   -15600.00
02703               3.60   -15600.00
02704             -22.20   -16200.00
02705              11.20   -16400.00
02706               6.20   -16800.00
02707             -13.20   -17000.00
02708               2.60   -17200.00
02709              12.00   -17600.00
02710              -7.80   -17800.00
02711               0.40   -18000.00
02712               6.20   -18400.00
02713              -7.00   -18600.00
02714              -1.00   -18800.00
02715               4.40   -19200.00
02716              -0.40   -19400.00
02717              -0.40   -19600.00
02718               4.40   -19800.00
02719              -2.60   -20000.00
02720              -0.40   -20200.00
02721              -1.00   -20200.00
02722              -1.20   -20400.00
02723               4.20   -20600.00
02724              -2.00   -20800.00
02725               1.00   -21000.00
02726               3.20   -21000.00
02727              -3.60   -21200.00
02728              -1.20   -21200.00
02729               4.40   -21600.00
02730              -0.80   -21600.00
02731              -3.40   -21800.00
02732               4.60   -21800.00
02733               2.20   -22000.00
02734              -3.60   -22000.00
02735               1.80   -22000.00
02736               1.40   -22000.00
02737              -2.80   -22200.00
02738               1.00   -22200.00
02739               2.00   -22400.00
02740              -0.60   -22400.00
02741               0.20   -22400.00
02742               1.20   -22400.00
02743               1.00   -22400.00
02744              -1.20   -22400.00
02745               1.00   -22400.00
02746               1.00   -22400.00
02747              -0.60   -22400.00
02748              -0.20   -22400.00
02749               0.60   -22400.00
02750               0.60   -22400.00
02751              -0.20   -22000.00
02752               0.40   -22000.00
02753               0.60   -22000.00
02754               0.00   -22000.00
02755               0.60   -22000.00
02756               0.20   -21800.00
02757               0.60   -21800.00
02758               0.20   -21600.00
02759              -0.40   -21600.00
02760               0.40   -21200.00
02761               1.00   -21200.00
02762               1.00   -21000.00
02763               0.20   -21000.00
02764               0.60   -20800.00
02765               0.20   -20600.00
02766              -1.00   -20400.00
02767               0.40   -20200.00
02768               0.40   -20200.00
02769              -0.20   -20000.00
02770               0.20   -19600.00
02771               0.20   -19600.00
02772               1.00   -19200.00
02773              -0.40   -19000.00
02774              -0.20   -18800.00
02775               0.40   -18800.00
02776               0.00   -18400.00
02777              -0.20   -18200.00
02778               0.80   -17600.00
02779               0.60   -17600.00
02780              -1.20   -17200.00
02781              -0.40   -17000.00
02782               1.00   -16800.00
02783              -0.60   -16400.00
02784              -0.20   -16200.00
02785               1.00   -15800.00
02786              -0.40   -15600.00
02787              -0.60   -15200.00
02788              -0.40   -14800.00
02789               0.20   -14600.00
02790               0.20   -14400.00
02791              -0.20   -13800.00
02792               0.20   -13600.00
02793               0.40   -13200.00
02794              -0.60   -12800.00
02795              -0.60   -12400.00
02796               0.40   -12200.00
02797               0.40   -12000.00
02798              -0.40   -11600.00
02799              -0.20   -11000.00
02800               0.20   -10800.00
02801              -0.60   -10400.00
02802              -0.40   -10000.00
02803              -0.20    -9600.00
02804              -0.40    -9200.00
02805               0.20    -8800.00
02806               0.20    -8400.00
02807               0.20    -8200.00
02808              -0.40    -7600.00
02809               0.20    -7200.00
02810              -0.20    -6800.00
02811              -0.60    -6400.00
02812              -0.20    -6000.00
02813               0.60    -5600.00
02814              -0.80    -5200.00
02815               0.20    -4600.00
02816               0.20    -4200.00
02817              -0.60    -3800.00
02818              -1.00    -3400.00
02819               0.40    -3000.00
02820               0.20    -2600.00
02821               0.20    -2000.00
02822              -0.20    -1800.00
02823               0.60    -1200.00
02824              -0.20    -1000.00
02825              -0.60     -400.00
02826              -0.20        0.00
02827               0.40      400.00
02828               0.40      600.00
02829               4.00     1200.00
02830              -1.00     1400.00
02831              -2.00     1800.00
02832               2.60     2200.00
02833               1.40     2600.00
02834              -2.80     2800.00
02835               1.80     3200.00
02836               9.20     3800.00
02837              21.80     4400.00
02838               2.40     4800.00
02839             -25.00     5400.00
02840              -9.20     5600.00
02841              25.00     6000.00
02842             -16.60     6400.00
02843             -25.00     6600.00
02844              25.00     7200.00
02845              25.00     7600.00
02846             -25.00     7800.00
02847             -13.00     8400.00
02848              25.00     8600.00
02849             -25.00     9000.00
02850             -25.00     9600.00
02851              25.00    10000.00
02852             -12.60    10200.00
02853             -25.00    10600.00
02854              25.00    10800.00
02855              20.40    11200.00
02856             -25.00    11800.00
02857             -13.40    12200.00
02858              25.00    12600.00
02859              -2.60    12800.00
02860             -25.00    13400.00
02861              14.20    13400.00
02862              15.40    14000.00
02863             -16.60    14400.00
02864             -12.40    14600.00
02865              17.40    15000.00
02866               2.20    15200.00
02867             -18.00    15600.00
02868              12.40    16000.00
02869               8.40    16000.00
02870             -17.80    16400.00
02871               3.00    16600.00
02872               9.60    17200.00
02873             -10.20    17200.00
02874              -1.20    17400.00
02875               9.60    17600.00
02876              -4.40    18200.00
02877              -4.40    18400.00
02878               3.80    18800.00
02879              -2.20    18800.00
02880              -2.60    19200.00
02881               1.60    19400.00
02882              -0.20    19600.00
02883               0.00    19800.00
02884               0.60    19800.00
02885              -2.20    20000.00
02886               0.40    20200.00
02887              -1.40    20600.00
02888              -2.00    20600.00
02889               2.80    20800.00
02890              -1.40    21000.00
02891              -2.00    21200.00
02892               2.20    21200.00
02893              -1.40    21400.00
02894              -3.00    21600.00
02895               1.80    21600.00
02896               0.80    21600.00
02897              -3.00    22000.00
02898               1.00    22000.00
02899               0.40    22200.00
02900              -2.80    22000.00
02901              -0.60    22200.00
02902               0.80    22200.00
02903              -1.20    22400.00
02904              -1.20    22200.00
02905               0.20    22400.00
02906              -0.20    22400.00
02907              -1.80    22400.00
02908              -1.20    22400.00
02909               0.00    22400.00
02910              -1.20    22400.00
02911              -0.80    22400.00
02912              -0.20    22400.00
02913              -0.40    22400.00
02914              -0.80    22200.00
02915              -0.60    22400.00
02916              -0.60    22200.00
02917              -1.00    22200.00
02918              -0.40    22200.00
02919              -0.80    22000.00
02920              -0.60    21800.00
02921              -0.40    22000.00
02922              -1.40    21600.00
02923              -0.60    21600.00
02924               0.20    21400.00
02925              -1.40    21400.00
02926              -1.00    21200.00
02927               0.40    21200.00
02928              -0.60    20800.00
02929              -1.00    20800.00
02930               0.20    20600.00
02931              -1.00    20400.00
02932              -1.00    20400.00
02933              -0.20    20000.00
02934              -0.40    20000.00
02935              -1.00    19600.00
02936               0.20    19600.00
02937              -1.00    19200.00
02938              -0.80    19000.00
02939              -0.40    18800.00
02940              -0.40    18600.00
02941              -0.60    18400.00
02942               0.20    18200.00
02943              -0.20    17800.00
02944              -0.60    17600.00
02945              -0.20    17200.00
02946              -0.20    17000.00
02947              -0.60    16600.00
02948              -0.40    16400.00
02949              -0.40    16200.00
02950              -0.60    16000.00
02951              -0.40    15600.00
02952              -0.40    15200.00
02953              -0.40    15000.00
02954              -0.40    14400.00
02955               0.20    14200.00
02956              -0.40    14000.00
02957              -0.60    13600.00
02958              -0.40    13200.00
02959              -0.60    12800.00
02960              -0.60    12400.00
02961              -0.20    12200.00
02962              -0.60    11800.00
02963              -0.60    11600.00
02964              -0.40    11000.00
02965              -0.60    10600.00
02966              -0.60    10400.00
02967              -0.60    10000.00
02968              -0.60     9400.00
02969              -0.40     9200.00
02970              -0.60     8800.00
02971              -0.60     8400.00
02972              -0.40     8000.00
02973              -0.60     7600.00
02974              -0.40     7200.00
02975              -0.60     6800.00
02976              -0.40     6400.00
02977              -0.60     6000.00
02978              -0.40     5600.00
02979              -0.40     5200.00
02980              -1.00     4600.00
02981              -0.20     4200.00
02982              -0.40     4000.00
02983              -0.60     3400.00
02984              -0.40     3000.00
02985              -0.20     2600.00
02986              -0.40     2200.00
02987              -0.20     1800.00
02988              -0.20     1400.00
02989              -0.60     1000.00
02990               0.40      600.00
02991              -0.20        0.00
02992              -0.80     -200.00
02993               2.00     -800.00
02994               2.60    -1000.00
02995              -0.60    -1600.00
02996              -1.40    -1800.00
02997               0.60    -2200.00
02998               1.80    -2600.00
02999              -2.20    -2800.00
03000               2.60    -3400.00
03001              23.20    -3800.00
03002              23.80    -4600.00
03003             -25.00    -5000.00
03004             -23.20    -5400.00
03005              25.00    -5800.00
03006              -9.40    -6200.00
03007             -25.00    -6200.00
03008              25.00    -6600.00
03009              25.00    -7400.00
03010             -25.00    -7200.00
03011              25.00    -8200.00
03012              25.00    -8400.00
03013             -25.00    -8600.00
03014              25.00    -9400.00
03015              25.00    -9200.00
03016             -25.00    -9800.00
03017               5.20   -10400.00
03018              25.00   -10600.00
03019               8.20   -11200.00
03020             -25.00   -11400.00
03021             -15.00   -11600.00
03022              25.00   -12400.00
03023             -21.40   -12400.00
03024             -18.00   -13000.00
03025              25.00   -13200.00
03026               2.60   -13600.00
03027             -18.80   -14200.00
03028              -9.00   -14400.00
03029              25.00   -14600.00
03030             -10.80   -14800.00
03031             -18.80   -15400.00
03032              25.00   -15600.00
03033              -6.00   -15800.00
03034             -15.80   -16200.00
03035              11.80   -16400.00
03036               2.60   -16800.00
03037              -9.60   -17000.00
03038               3.60   -17200.00
03039               8.20   -17600.00
03040              -6.20   -17600.00
03041               0.60   -18200.00
03042               2.00   -18400.00
03043              -2.60   -18800.00
03044               0.20   -18800.00
03045               0.40   -19200.00
03046               1.80   -19200.00
03047               1.60   -19600.00
03048              -0.20   -19800.00
03049               0.20   -20000.00
03050               3.80   -20200.00
03051              -9.80   -20400.00
03052               6.40   -20600.00
03053              -0.40   -20800.00
03054              -3.60   -20800.00
03055               2.60   -21000.00
03056               4.40   -21200.00
03057               2.60   -21200.00
03058              -5.80   -21200.00
03059               6.80   -21600.00
03060              -4.80   -21600.00
03061              -1.00   -21800.00
03062               2.00   -21800.00
03063              -4.20   -22000.00
03064               1.80   -22000.00
03065               6.60   -22000.00
03066               0.20   -22000.00
03067              -2.40   -22200.00
03068               4.40   -22400.00
03069              -1.80   -22400.00
03070              -3.00   -22400.00
03071              -2.60   -22400.00
03072               3.20   -22400.00
03073               2.60   -22400.00
03074              -0.20   -22400.00
03075               0.40   -22400.00
03076               2.60   -22400.00
03077              -0.20   -22400.00
03078              -2.80   -22400.00
03079              -0.20   -22400.00
03080               2.00   -22400.00
03081               1.00   -22200.00
03082              -2.20   -22000.00
03083               1.80   -22000.00
03084               3.40   -22000.00
03085              -1.20   -22000.00
03086              -1.60   -21800.00
03087               2.60   -21800.00
03088              -0.60   -21600.00
03089              -1.00   -21600.00
03090               1.00   -21200.00
03091              -0.20   -21200.00
03092              -0.20   -21000.00
03093               1.00   -21000.00
03094               1.00   -20800.00
03095              -0.60   -20600.00
03096               0.60   -20400.00
03097              -0.20   -20200.00
03098              -0.20   -20000.00
03099               0.20   -19600.00
03100              -0.60   -19600.00
03101              -0.20   -19400.00
03102               1.20   -19200.00
03103               0.20   -19000.00
03104               0.20   -18800.00
03105               0.60   -18400.00
03106              -0.40   -18600.00
03107              -0.20   -18000.00
03108              -0.60   -17600.00
03109               1.00   -17400.00
03110              -0.60   -17200.00
03111              -0.60   -16800.00
03112               1.40   -16800.00
03113               0.20   -16400.00
03114              -0.40   -16200.00
03115               0.40   -15800.00
03116               0.20   -15400.00
03117              -1.00   -15200.00
03118              -0.20   -14800.00
03119               0.60   -14400.00
03120              -0.40   -14200.00
03121              -0.40   -13800.00
03122               0.60   -13600.00
03123              -0.20   -13200.00
03124              -0.80   -12800.00
03125               0.40   -12400.00
03126               0.20   -12200.00
03127              -0.60   -11600.00
03128              -0.40   -11400.00
03129               0.40   -11000.00
03130              -0.20   -10600.00
03131              -0.40   -10200.00
03132               0.20    -9800.00
03133               0.40    -9600.00
03134              -0.60    -9000.00
03135              -0.20    -8800.00
03136              -0.20    -8400.00
03137              -0.20    -8000.00
03138              -1.00    -7600.00
03139               0.40    -7200.00
03140               0.60    -6600.00
03141              -1.20    -6400.00
03142              -0.20    -5800.00
03143               1.20    -5600.00
03144              -1.20    -5000.00
03145              -0.60    -4600.00
03146               0.60    -4200.00
03147              -0.40    -3800.00
03148              -1.20    -3400.00
03149               0.40    -2800.00
03150               0.20    -2600.00
03151              -0.60    -2200.00
03152              -0.40    -1800.00
03153               0.60    -1200.00
03154              -0.60    -1000.00
03155              -0.80     -400.00
03156               0.60        0.00
03157               0.80      400.00
03158               1.00      800.00
03159               3.60     1200.00
03160              -1.80     1400.00
03161              -2.00     2000.00
03162               2.80     2400.00
03163               0.60     2800.00
03164              -3.40     3000.00
03165               3.80     3200.00
03166              10.60     4000.00
03167              23.40     4600.00
03168              -8.40     5200.00
03169             -25.00     5600.00
03170               3.00     5600.00
03171              25.00     6200.00
03172             -25.00     6400.00
03173             -25.00     6600.00
03174              25.00     7200.00
03175              25.00     7800.00
03176             -25.00     8000.00
03177              22.20     8600.00
03178              25.00     8600.00
03179             -25.00     9200.00
03180             -14.80     9600.00
03181              25.00    10000.00
03182             -25.00    10400.00
03183             -25.00    10800.00
03184              25.00    11000.00
03185               8.20    11600.00
03186             -25.00    11800.00
03187              -1.80    12200.00
03188              25.00    12600.00
03189             -11.80    13000.00
03190             -19.20    13200.00
03191              18.20    13600.00
03192               9.80    14200.00
03193             -18.80    14400.00
03194              -9.00    14800.00
03195              19.80    15200.00
03196              -3.60    15400.00
03197             -15.60    15600.00
03198              16.60    16000.00
03199               3.00    16000.00
03200             -17.60    16400.00
03201               7.60    16600.00
03202               6.80    17200.00
03203             -12.40    17400.00
03204               2.80    17600.00
03205               9.00    17600.00
03206              -6.20    18200.00
03207              -2.60    18400.00
03208               4.20    18800.00
03209              -3.60    18800.00
03210              -2.00    19200.00
03211               2.00    19200.00
03212              -1.00    19800.00
03213               0.20    19800.00
03214               0.40    20000.00
03215              -2.00    20200.00
03216              -0.20    20400.00
03217              -1.20    20600.00
03218              -1.00    20600.00
03219               2.00    21000.00
03220              -2.00    21200.00
03221              -0.60    21200.00
03222               1.20    21200.00
03223              -2.20    21400.00
03224              -2.20    21600.00
03225               1.80    21600.00
03226              -0.20    21800.00
03227              -2.20    21800.00
03228               1.00    22000.00
03229              -0.60    22000.00
03230              -2.60    22200.00
03231              -0.20    22200.00
03232               0.00    22200.00
03233              -1.20    22400.00
03234              -0.60    22400.00
03235               0.20    22400.00
03236              -0.40    22400.00
03237              -1.80    22200.00
03238              -0.60    22400.00
03239              -0.20    22400.00
03240              -1.00    22200.00
03241              -1.00    22400.00
03242              -0.60    22400.00
03243              -0.40    22400.00
03244              -0.60    22400.00
03245              -1.20    22200.00
03246              -0.40    22200.00
03247              -0.40    22000.00
03248              -0.60    22000.00
03249              -0.60    22000.00
03250               0.20    22000.00
03251              -1.00    21800.00
03252              -1.00    22000.00
03253              -0.20    21600.00
03254              -0.60    21600.00
03255              -1.00    21400.00
03256               0.20    21200.00
03257              -1.00    21200.00
03258              -0.40    20800.00
03259              -0.40    20600.00
03260              -1.20    20800.00
03261              -0.60    20400.00
03262               0.40    20200.00
03263              -1.20    20000.00
03264              -0.40    19800.00
03265               0.40    19800.00
03266              -1.00    19600.00
03267              -0.60    19200.00
03268               0.40    19000.00
03269              -1.20    18800.00
03270              -1.00    18400.00
03271               0.40    18200.00
03272              -0.40    18200.00
03273              -1.20    17600.00
03274              -0.40    17400.00
03275              -0.40    17200.00
03276              -0.60    16800.00
03277               0.00    16800.00
03278               0.20    16400.00
03279              -0.80    16000.00
03280              -0.40    15800.00
03281               0.00    15600.00
03282              -1.00    15200.00
03283              -0.80    15000.00
03284              -0.20    14600.00
03285              -0.40    14200.00
03286              -0.60    13800.00
03287              -0.40    13400.00
03288               0.20    13200.00
03289              -0.60    12800.00
03290              -0.80    12400.00
03291              -0.40    12200.00
03292              -0.40    11800.00
03293              -1.20    11200.00
03294               0.00    11000.00
03295               0.20    10800.00
03296              -1.00    10200.00
03297              -0.80    10000.00
03298               0.60     9400.00
03299              -0.80     9200.00
03300              -1.00     8800.00
03301               0.20     8400.00
03302              -0.60     8000.00
03303              -0.60     7600.00
03304               0.20     7200.00
03305              -0.60     6800.00
03306              -0.60     6400.00
03307              -0.40     6000.00
03308              -1.00     5600.00
03309              -1.40     5000.00
03310               1.20     4600.00
03311               0.80     4200.00
03312              -4.40     4000.00
03313              -0.60     3400.00
03314               4.60     3000.00
03315              -0.60     2800.00
03316              -3.40     2200.00
03317               1.20     1800.00
03318              -0.60     1400.00
03319              -2.00      800.00
03320               2.60      400.00
03321               1.40        0.00
03322              -2.20     -200.00
03323               1.40     -800.00
03324               4.40    -1200.00
03325              -3.80    -1600.00
03326              -1.60    -1800.00
03327               3.80    -2200.00
03328              -0.60    -2600.00
03329              -1.80    -3000.00
03330               8.40    -3200.00
03331              25.00    -4000.00
03332               8.60    -4600.00
03333             -25.00    -5200.00
03334              -7.40    -5600.00
03335              25.00    -6000.00
03336             -25.00    -6000.00
03337             -25.00    -6200.00
03338              25.00    -6800.00
03339              10.00    -7200.00
03340             -25.00    -7400.00
03341              25.00    -8400.00
03342              25.00    -8400.00
03343             -25.00    -8600.00
03344              25.00    -9400.00
03345              25.00    -9200.00
03346             -25.00   -10000.00
03347              25.00   -10400.00
03348              18.60   -10600.00
03349              -8.20   -11200.00
03350             -18.80   -11400.00
03351              -1.00   -11800.00
03352              25.00   -12200.00
03353             -23.60   -12400.00
03354               0.40   -13000.00
03355              16.40   -13200.00
03356              -0.20   -13600.00
03357             -11.60   -14200.00
03358             -10.80   -14400.00
03359              25.00   -14600.00
03360             -13.80   -14800.00
03361             -13.20   -15400.00
03362              25.00   -15600.00
03363             -11.60   -16000.00
03364             -14.60   -16200.00
03365              15.20   -16400.00
03366              -0.60   -16800.00
03367             -12.80   -17000.00
03368              12.20   -17400.00
03369               6.20   -17600.00
03370             -11.80   -17800.00
03371               6.60   -18000.00
03372               1.40   -18600.00
03373              -6.80   -18800.00
03374               2.20   -19200.00
03375               3.40   -19200.00
03376              -2.20   -19200.00
03377               2.20   -19600.00
03378               2.60   -20000.00
03379              -3.60   -20200.00
03380               0.20   -20000.00
03381              -1.80   -20400.00
03382               3.00   -20600.00
03383               2.20   -20600.00
03384              -3.00   -21000.00
03385               4.20   -21000.00
03386              -0.80   -21200.00
03387              -3.40   -21200.00
03388               2.80   -21400.00
03389               2.00   -21600.00
03390              -3.60   -21800.00
03391               1.40   -21800.00
03392               5.40   -22000.00
03393              -3.80   -22000.00
03394              -2.20   -22200.00
03395               4.20   -22000.00
03396              -1.40   -22200.00
03397              -1.20   -22200.00
03398               3.60   -22400.00
03399               0.20   -22400.00
03400              -1.40   -22400.00
03401               0.60   -22400.00
03402               1.20   -22600.00
03403              -0.60   -22400.00
03404               0.00   -22400.00
03405               1.80   -22400.00
03406               0.20   -22400.00
03407               1.00   -22400.00
03408              -0.60   -22400.00
03409               0.20   -22400.00
03410               1.20   -22400.00
03411              -0.60   -22400.00
03412               1.00   -22200.00
03413               1.40   -22000.00
03414              -0.40   -22000.00
03415               0.00   -21800.00
03416               0.60   -21800.00
03417               0.20   -21800.00
03418              -0.40   -21600.00
03419               1.00   -21600.00
03420               0.40   -21400.00
03421               0.20   -21200.00
03422               0.20   -21200.00
03423               0.20   -20800.00
03424               0.20   -20800.00
03425              -0.20   -20600.00
03426              -0.60   -20400.00
03427               0.60   -20400.00
03428               0.40   -20000.00
03429               0.20   -20000.00
03430              -0.40   -19600.00
03431               0.20   -19400.00
03432               0.20   -19200.00
03433               0.20   -19000.00
03434              -0.20   -18600.00
03435               0.40   -18400.00
03436               0.40   -18400.00
03437               0.00   -18000.00
03438              -0.40   -17600.00
03439               1.40   -17600.00
03440              -1.20   -17200.00
03441              -0.40   -16800.00
03442               1.40   -16600.00
03443              -0.60   -16400.00
03444              -1.00   -16000.00
03445               0.60   -15800.00
03446              -0.40   -15600.00
03447               0.00   -15200.00
03448               0.60   -14800.00
03449               0.20   -14600.00
03450              -0.60   -14000.00
03451               0.00   -13800.00
03452               0.20   -13400.00
03453              -0.40   -13000.00
03454               0.60   -12800.00
03455               0.00   -12400.00
03456              -0.20   -12000.00
03457              -0.40   -11600.00
03458              -0.20   -11400.00
03459              -0.60   -11000.00
03460               0.40   -10600.00
03461               0.40   -10000.00
03462               0.40    -9800.00
03463              -0.60    -9400.00
03464              -0.40    -9200.00
03465               0.20    -8800.00
03466              -0.40    -8400.00
03467               0.20    -8000.00
03468              -0.20    -7400.00
03469               0.20    -7000.00
03470               0.20    -6600.00
03471              -0.60    -6400.00
03472               0.20    -5800.00
03473               0.60    -5400.00
03474              -1.00    -5000.00
03475              -0.40    -4400.00
03476               0.20    -4200.00
03477               0.00    -3800.00
03478              -0.60    -3400.00
03479               0.60    -3000.00
03480               0.80    -2400.00
03481              -1.40    -2000.00
03482              -0.20    -1800.00
03483               1.20    -1200.00
03484              -2.00    -1000.00
03485              -1.80     -400.00
03486               2.00        0.00
03487               0.20      400.00
03488               1.00      800.00
03489               3.60     1200.00
03490              -2.20     1600.00
03491              -1.40     2000.00
03492               3.60     2200.00
03493               0.20     2800.00
03494              -2.80     3000.00
03495               5.00     3200.00
03496              12.60     4000.00
03497              22.80     4800.00
03498             -20.40     5200.00
03499             -25.00     5600.00
03500              15.40     5600.00
03501              23.60     6200.00
03502             -25.00     6400.00
03503             -24.20     6800.00
03504              25.00     7200.00
03505              22.80     7800.00
03506             -25.00     8200.00
03507              25.00     8600.00
03508              25.00     8600.00
03509             -25.00     9200.00
03510              16.80     9600.00
03511              25.00    10000.00
03512             -25.00    10400.00
03513             -14.20    10800.00
03514              25.00    11000.00
03515              -3.00    11200.00
03516             -25.00    12000.00
03517               8.60    12000.00
03518              25.00    12600.00
03519             -20.40    13000.00
03520             -12.60    13400.00
03521              22.00    13600.00
03522               3.80    14200.00
03523             -20.40    14600.00
03524              -2.80    14600.00
03525              20.20    15000.00
03526             -10.20    15200.00
03527             -10.40    15800.00
03528              19.00    16000.00
03529              -3.40    16200.00
03530             -14.80    16600.00
03531              10.80    16800.00
03532               2.80    17200.00
03533             -12.40    17400.00
03534               6.20    17600.00
03535               6.00    18000.00
03536              -7.60    18200.00
03537              -0.20    18200.00
03538               3.00    18800.00
03539              -4.00    19000.00
03540              -1.00    19200.00
03541               3.00    19200.00
03542              -1.80    19600.00
03543               0.40    19800.00
03544               0.60    20000.00
03545              -2.80    20200.00
03546              -0.20    20400.00
03547              -0.60    20600.00
03548              -0.60    20600.00
03549               1.20    21000.00
03550              -1.80    21000.00
03551              -0.20    21200.00
03552               0.40    21400.00
03553              -2.80    21600.00
03554              -0.60    21400.00
03555               0.60    21600.00
03556              -1.80    21800.00
03557               0.00    21800.00
03558               1.40    22000.00
03559              -2.60    22200.00
03560              -1.20    22000.00
03561               1.20    22400.00
03562              -2.20    22200.00
03563              -1.40    22200.00
03564               1.00    22400.00
03565              -1.00    22400.00
03566              -2.20    22400.00
03567               0.00    22400.00
03568               0.20    22200.00
03569              -2.20    22400.00
03570              -0.20    22400.00
03571               1.20    22400.00
03572              -2.00    22200.00
03573              -0.60    22400.00
03574               1.00    22200.00
03575              -1.80    22200.00
03576              -2.00    22200.00
03577               0.40    22200.00
03578              -0.80    22000.00
03579              -1.00    22000.00
03580               0.20    22000.00
03581              -0.60    21800.00
03582              -1.20    21600.00
03583               0.20    21600.00
03584              -1.20    21400.00
03585              -0.60    21400.00
03586               0.40    21200.00
03587              -1.40    21000.00
03588              -0.60    21000.00
03589               0.20    20800.00
03590              -1.20    20600.00
03591              -0.60    20400.00
03592               1.00    20000.00
03593              -1.20    20000.00
03594              -1.00    20000.00
03595               0.40    19600.00
03596              -1.00    19600.00
03597              -1.20    19200.00
03598               0.80    19000.00
03599              -0.60    18800.00
03600              -0.60    18400.00
03601               0.40    18200.00
03602              -0.20    17800.00
03603              -0.60    17600.00
03604              -0.60    17400.00
03605               0.20    17200.00
03606              -1.20    16800.00
03607              -1.00    16600.00
03608               0.60    16400.00
03609              -1.00    16000.00
03610              -0.40    15800.00
03611              -0.20    15400.00
03612              -1.20    15200.00
03613               0.40    14800.00
03614              -0.40    14600.00
03615              -1.40    14000.00
03616               0.20    13600.00
03617              -0.40    13400.00
03618              -1.20    13200.00
03619               0.00    12800.00
03620              -0.40    12400.00
03621              -0.60    12000.00
03622              -0.20    11600.00
03623              -0.80    11200.00
03624              -0.60    10800.00
03625              -0.20    10600.00
03626              -1.00    10000.00
03627              -0.60     9800.00
03628               0.00     9400.00
03629              -0.80     9000.00
03630              -0.60     8600.00
03631              -0.20     8400.00
03632              -0.40     8000.00
03633              -0.60     7600.00
03634              -0.20     7000.00
03635              -0.40     6800.00
03636              -0.60     6200.00
03637              -0.40     5800.00
03638              -0.60     5400.00
03639              -0.40     4800.00
03640              -0.40     4600.00
03641              -0.40     4000.00
03642              -0.40     3800.00
03643               0.00     3400.00
03644              -0.60     2800.00
03645              -0.40     2400.00
03646              -0.20     2000.00
03647               0.00     1600.00
03648              -0.60     1200.00
03649               0.00      800.00
03650              -0.20      400.00
03651               0.00        0.00
03652               0.40     -400.00
03653               2.00     -800.00
03654               2.60    -1200.00
03655              -2.20    -1600.00
03656              -1.20    -2000.00
03657               2.40    -2400.00
03658              -0.40    -2800.00
03659              -1.80    -3000.00
03660               9.20    -3400.00
03661              25.00    -4200.00
03662              -4.60    -4800.00
03663             -25.00    -5400.00
03664               7.40    -5800.00
03665              25.00    -6000.00
03666             -25.00    -6200.00
03667             -24.20    -6000.00
03668              25.00    -7000.00
03669             -25.00    -7400.00
03670             -25.00    -7400.00
03671              25.00    -8600.00
03672              11.80    -8400.00
03673             -25.00    -8800.00
03674              25.00    -9600.00
03675              15.80    -9600.00
03676             -25.00   -10000.00
03677              25.00   -10400.00
03678              21.00   -10800.00
03679              -0.40   -11400.00
03680             -25.00   -11400.00
03681              15.00   -12200.00
03682              25.00   -12400.00
03683             -25.00   -12600.00
03684               7.40   -13200.00
03685              24.40   -13200.00
03686              -7.60   -13800.00
03687             -20.40   -14400.00
03688               5.20   -14400.00
03689              24.60   -14600.00
03690             -25.00   -15000.00
03691               2.60   -15400.00
03692              25.00   -15600.00
03693             -18.80   -16000.00
03694              -5.20   -16400.00
03695              12.20   -16800.00
03696              -3.20   -16800.00
03697              -7.60   -17000.00
03698               8.60   -17200.00
03699               2.80   -17800.00
03700              -5.80   -18000.00
03701               3.40   -18400.00
03702              -0.60   -18400.00
03703              -1.40   -18800.00
03704               0.20   -18800.00
03705               1.00   -19200.00
03706               1.20   -19400.00
03707               1.20   -19600.00
03708              -1.20   -19800.00
03709               1.00   -20000.00
03710               0.60   -20200.00
03711              -4.40   -20400.00
03712               5.00   -20600.00
03713               1.20   -20800.00
03714              -3.40   -20800.00
03715               4.40   -21000.00
03716              -0.20   -21200.00
03717              -3.80   -21400.00
03718               2.00   -21200.00
03719               2.20   -21600.00
03720              -2.60   -21800.00
03721               1.60   -21800.00
03722               3.20   -22000.00
03723              -2.20   -21800.00
03724              -1.00   -22200.00
03725               1.80   -22000.00
03726              -0.20   -22200.00
03727              -0.60   -22400.00
03728               1.20   -22400.00
03729               1.20   -22400.00
03730              -0.40   -22400.00
03731              -0.40   -22400.00
03732               1.60   -22400.00
03733              -0.40   -22600.00
03734              -0.40   -22400.00
03735               1.20   -22400.00
03736               0.40   -22400.00
03737               0.40   -22400.00
03738              -0.20   -22400.00
03739               0.20   -22400.00
03740               1.20   -22200.00
03741              -0.40   -22200.00
03742               0.40   -22000.00
03743               1.00   -22000.00
03744               0.40   -22000.00
03745              -1.00   -21800.00
03746               0.20   -21800.00
03747               0.60   -21800.00
03748              -1.00   -21600.00
03749               0.00   -21400.00
03750               1.20   -21400.00
03751              -0.20   -21200.00
03752              -0.40   -21000.00
03753               0.60   -20800.00
03754               0.00   -20800.00
03755              -0.60   -20800.00
03756               0.60   -20200.00
03757              -0.20   -20200.00
03758              -0.20   -20000.00
03759               1.00   -19600.00
03760              -0.40   -19600.00
03761              -0.20   -19400.00
03762               0.40   -19200.00
03763              -0.40   -19000.00
03764               0.20   -18800.00
03765               0.40   -18400.00
03766              -0.20   -18200.00
03767               0.20   -18000.00
03768              -0.20   -17400.00
03769              -0.20   -17200.00
03770              -0.20   -17000.00
03771               1.00   -16800.00
03772               0.40   -16400.00
03773              -0.20   -16200.00
03774               0.40   -16000.00
03775              -0.40   -15600.00
03776              -0.60   -15400.00
03777               0.60   -15000.00
03778               0.20   -14800.00
03779              -0.40   -14600.00
03780              -0.20   -14000.00
03781               0.40   -13800.00
03782              -0.20   -13400.00
03783              -0.40   -13000.00
03784               0.40   -12600.00
03785               0.20   -12400.00
03786               0.00   -12000.00
03787              -0.20   -11600.00
03788               0.20   -11200.00
03789              -0.20   -10800.00
03790              -0.40   -10600.00
03791              -0.20   -10000.00
03792               0.40    -9800.00
03793              -0.60    -9200.00
03794               0.20    -9000.00
03795               0.20    -8800.00
03796              -0.60    -8200.00
03797              -0.40    -7600.00
03798               0.20    -7400.00
03799              -0.20    -7000.00
03800              -0.40    -6600.00
03801              -0.20    -6200.00
03802               0.80    -5800.00
03803              -0.20    -5600.00
03804              -1.00    -4800.00
03805               0.20    -4400.00
03806              -0.40    -4000.00
03807              -0.60    -3600.00
03808              -0.20    -3200.00
03809               0.20    -2800.00
03810              -0.40    -2600.00
03811              -0.60    -2000.00
03812               0.20    -1600.00
03813              -0.40    -1200.00
03814              -0.80     -800.00
03815              -0.40     -200.00
03816               0.40        0.00
03817               0.20      600.00
03818               2.40     1200.00
03819               1.60     1400.00
03820              -2.60     1800.00
03821               0.40     2000.00
03822               2.60     2600.00
03823              -0.60     2600.00
03824              -1.40     3200.00
03825               6.20     3600.00
03826              15.00     4200.00
03827              20.60     4600.00
03828             -25.00     5200.00
03829             -25.00     5400.00
03830              25.00     6000.00
03831              14.00     6400.00
03832             -25.00     6600.00
03833              -8.20     7000.00
03834              25.00     7600.00
03835             -10.20     7800.00
03836             -25.00     8200.00
03837              25.00     8600.00
03838              25.00     8800.00
03839             -25.00     9400.00
03840              25.00     9600.00
03841              25.00    10000.00
03842             -25.00    10600.00
03843               2.80    10800.00
03844              25.00    11200.00
03845             -15.00    11600.00
03846             -25.00    12000.00
03847              19.60    12400.00
03848              21.40    12800.00
03849             -25.00    13200.00
03850              -3.00    13600.00
03851              23.00    13800.00
03852              -3.60    14200.00
03853             -19.60    14400.00
03854               4.40    14800.00
03855              16.40    15200.00
03856             -15.40    15400.00
03857              -3.40    15800.00
03858              18.20    16000.00
03859             -10.00    16400.00
03860              -9.80    16600.00
03861              11.80    16800.00
03862              -1.80    17200.00
03863              -9.80    17400.00
03864               8.80    17600.00
03865               2.80    18000.00
03866              -7.00    18200.00
03867               1.40    18400.00
03868               1.20    18800.00
03869              -3.80    19000.00
03870               0.20    19200.00
03871               1.00    19400.00
03872              -1.00    19600.00
03873               1.40    19800.00
03874              -1.40    20000.00
03875              -1.20    20000.00
03876               0.20    20400.00
03877              -2.80    20400.00
03878               1.00    20600.00
03879               1.20    21000.00
03880              -3.00    21000.00
03881               0.40    21200.00
03882               1.20    21200.00
03883              -3.60    21600.00
03884              -1.00    21600.00
03885               1.80    21600.00
03886              -2.00    22000.00
03887              -1.20    21800.00
03888               1.20    22000.00
03889              -1.80    22000.00
03890              -2.20    22200.00
03891               0.40    22200.00
03892              -0.60    22200.00
03893              -1.20    22400.00
03894              -0.40    22400.00
03895               0.40    22200.00
03896              -1.00    22400.00
03897              -1.80    22400.00
03898              -0.40    22400.00
03899              -0.60    22400.00
03900              -1.00    22400.00
03901              -0.60    22400.00
03902              -0.20    22400.00
03903              -0.20    22200.00
03904              -0.60    22200.00
03905              -0.60    22200.00
03906              -0.40    22200.00
03907              -0.80    22200.00
03908              -1.00    22200.00
03909              -0.60    22000.00
03910              -0.20    22000.00
03911              -1.00    21800.00
03912              -1.00    21800.00
03913               0.40    21600.00
03914              -0.80    21600.00
03915              -1.20    21200.00
03916               0.20    21200.00
03917              -0.40    21000.00
03918              -0.80    20800.00
03919              -0.60    20600.00
03920              -0.60    20600.00
03921              -1.20    20400.00
03922              -0.20    20200.00
03923              -0.40    20000.00
03924              -0.40    19800.00
03925              -0.60    19600.00
03926              -0.40    19400.00
03927              -0.80    19200.00
03928              -0.60    18800.00
03929              -0.40    18800.00
03930              -0.60    18400.00
03931              -0.40    18200.00
03932              -0.20    17800.00
03933              -0.60    17600.00
03934              -0.80    17200.00
03935               0.20    17000.00
03936              -0.60    16800.00
03937              -0.60    16600.00
03938               0.00    16400.00
03939              -0.60    16000.00
03940              -0.60    15600.00
03941              -0.40    15400.00
03942              -0.60    15000.00
03943              -0.60    14800.00
03944              -0.40    14600.00
03945              -0.40    14000.00
03946              -0.60    13600.00
03947              -0.60    13200.00
03948              -0.40    13000.00
03949              -0.60    12600.00
03950              -0.40    12400.00
03951              -0.40    11800.00
03952              -0.80    11600.00
03953              -0.20    11200.00
03954              -0.40    10800.00
03955              -0.60    10400.00
03956              -0.40    10200.00
03957              -0.60     9600.00
03958              -0.40     9200.00
03959              -0.60     8800.00
03960              -0.60     8600.00
03961              -0.40     8200.00
03962              -0.20     7800.00
03963              -0.40     7200.00
03964              -0.40     7000.00
03965              -0.40     6400.00
03966              -0.60     6200.00
03967              -0.60     5800.00
03968              -0.20     5400.00
03969              -0.20     4800.00
03970              -0.60     4400.00
03971              -0.20     4200.00
03972              -0.20     3600.00
03973              -0.40     3200.00
03974              -0.20     2800.00
03975              -0.40     2400.00
03976              -0.20     2000.00
03977              -0.20     1600.00
03978              -0.40     1200.00
03979              -0.40      600.00
03980              -0.20      400.00
03981              -0.20        0.00
03982               0.40     -400.00
03983               2.60    -1000.00
03984               2.00    -1400.00
03985              -2.60    -1600.00
03986               0.20    -2000.00
03987               2.60    -2400.00
03988              -1.20    -2800.00
03989              -0.60    -3200.00
03990              12.40    -3600.00
03991              25.00    -4400.00
03992             -21.00    -4800.00
03993             -25.00    -5200.00
03994              21.40    -5800.00
03995              25.00    -6000.00
03996             -25.00    -6000.00
03997               7.40    -6400.00
03998              25.00    -7200.00
03999             -25.00    -7200.00
04000             -25.00    -7800.00
04001              25.00    -8400.00
04002             -25.00    -8400.00
04003             -25.00    -9200.00
04004              25.00    -9600.00
04005             -21.20    -9400.00
04006             -25.00   -10200.00
04007              25.00   -10400.00
04008              17.00   -10800.00
04009              -6.80   -11400.00
04010             -25.00   -11400.00
04011              25.00   -12000.00
04012              19.00   -12400.00
04013             -25.00   -12800.00
04014              19.20   -13200.00
04015              20.20   -13200.00
04016             -13.40   -14000.00
04017             -19.00   -14200.00
04018              15.00   -14600.00
04019              15.20   -14800.00
04020             -25.00   -15200.00
04021              15.40   -15600.00
04022              17.40   -15600.00
04023             -22.20   -16000.00
04024               2.60   -16400.00
04025              10.00   -16800.00
04026              -7.00   -17000.00
04027              -4.20   -17200.00
04028              10.20   -17400.00
04029              -1.20   -17600.00
04030              -3.80   -18000.00
04031               3.60   -18400.00
04032              -1.80   -18400.00
04033              -0.80   -18800.00
04034               0.00   -18800.00
04035               1.80   -19200.00
04036               1.80   -19400.00
04037               0.60   -19600.00
04038              -1.20   -20000.00
04039               2.00   -20200.00
04040              -1.80   -20400.00
04041              -3.80   -20400.00
04042               6.60   -20800.00
04043              -1.20   -20800.00
04044              -2.00   -20800.00
04045               5.80   -21000.00
04046              -1.40   -21200.00
04047              -3.20   -21200.00
04048               2.80   -21600.00
04049               1.40   -21600.00
04050              -2.80   -21600.00
04051               2.00   -21800.00
04052               2.80   -22000.00
04053              -2.80   -22000.00
04054               0.20   -22000.00
04055               2.20   -22200.00
04056              -1.00   -22000.00
04057              -0.20   -22400.00
04058               1.80   -22400.00
04059               0.40   -22400.00
04060              -1.20   -22400.00
04061               1.20   -22400.00
04062               1.00   -22400.00
04063              -1.20   -22400.00
04064               1.00   -22400.00
04065               1.60   -22600.00
04066              -0.40   -22400.00
04067               0.60   -22400.00
04068               0.40   -22400.00
04069              -0.20   -22400.00
04070              -0.20   -22000.00
04071               0.20   -22400.00
04072               0.60   -22000.00
04073              -0.20   -22000.00
04074               0.40   -22000.00
04075              -0.40   -22000.00
04076               0.80   -21800.00
04077               0.40   -21600.00
04078              -0.60   -21600.00
04079               1.20   -21400.00
04080               0.40   -21200.00
04081              -1.20   -21200.00
04082               0.20   -21000.00
04083               0.60   -20800.00
04084              -0.80   -20600.00
04085              -0.20   -20600.00
04086               1.40   -20200.00
04087               0.20   -20000.00
04088              -0.40   -20000.00
04089               1.20   -19600.00
04090              -0.80   -19600.00
04091              -1.20   -19400.00
04092               1.40   -19200.00
04093              -0.60   -18800.00
04094               1.00   -18600.00
04095               0.80   -18400.00
04096              -1.00   -18400.00
04097               0.40   -18000.00
04098               0.20   -17600.00
04099              -1.20   -17200.00
04100               0.40   -17000.00
04101               0.80   -16800.00
04102              -0.60   -16400.00
04103               0.20   -16200.00
04104               0.40   -16000.00
04105              -0.60   -15600.00
04106               0.40   -15200.00
04107               0.20   -14800.00
04108              -0.20   -14600.00
04109               0.40   -14400.00
04110               0.40   -14000.00
04111              -0.20   -13800.00
04112               0.40   -13200.00
04113              -0.40   -13000.00
04114              -0.60   -12600.00
04115               0.20   -12200.00
04116               0.20   -12000.00
04117              -0.40   -11400.00
04118               0.20   -11000.00
04119               0.20   -10800.00
04120              -0.60   -10400.00
04121               0.20   -10000.00
04122               0.20    -9600.00
04123              -0.60    -9200.00
04124               0.40    -8800.00
04125               0.20    -8600.00
04126              -1.00    -8200.00
04127               0.00    -7800.00
04128               0.40    -7200.00
04129              -0.60    -6800.00
04130               0.00    -6600.00
04131              -0.40    -6000.00
04132               0.20    -5600.00
04133              -0.20    -5200.00
04134              -0.20    -5000.00
04135               0.00    -4400.00
04136              -0.20    -4000.00
04137              -0.60    -3600.00
04138              -0.20    -3200.00
04139              -0.20    -2800.00
04140              -0.40    -2400.00
04141              -0.60    -2000.00
04142               0.20    -1600.00
04143              -0.40    -1200.00
04144              -0.60     -800.00
04145              -0.20     -400.00
04146               0.40        0.00
04147               0.40      600.00
04148               3.40      800.00
04149               0.20     1400.00
04150              -2.40     1800.00
04151               1.20     2000.00
04152               2.00     2600.00
04153              -1.20     2800.00
04154              -1.00     3200.00
04155               7.40     3800.00
04156              18.80     4400.00
04157              14.00     4800.00
04158             -25.00     5400.00
04159             -24.60     5600.00
04160              25.00     6000.00
04161               3.00     6200.00
04162             -25.00     6400.00
04163               9.80     7200.00
04164              25.00     7600.00
04165             -25.00     7800.00
04166             -25.00     8400.00
04167              25.00     8600.00
04168              -3.00     8800.00
04169             -25.00     9400.00
04170              25.00     9600.00
04171              25.00    10200.00
04172             -25.00    10800.00
04173              18.20    11000.00
04174              25.00    11200.00
04175             -24.00    11600.00
04176             -25.00    12000.00
04177              25.00    12400.00
04178              12.60    12800.00
04179             -25.00    13200.00
04180               5.00    13400.00
04181              21.20    14000.00
04182             -10.40    14400.00
04183             -17.00    14400.00
04184              11.20    14800.00
04185              11.00    15200.00
04186             -17.80    15600.00
04187               4.20    15800.00
04188              15.00    16000.00
04189             -14.80    16400.00
04190              -4.00    16400.00
04191              11.40    16800.00
04192              -6.20    17200.00
04193              -6.60    17400.00
04194              10.00    17600.00
04195              -0.60    18000.00
04196              -5.40    18200.00
04197               3.00    18400.00
04198              -0.60    18800.00
04199              -3.40    19000.00
04200               1.00    19200.00
04201               0.20    19400.00
04202              -0.20    19800.00
04203               1.00    19600.00
04204              -2.60    20200.00
04205              -0.40    20000.00
04206              -0.40    20200.00
04207              -3.00    20600.00
04208               2.00    21000.00
04209               0.20    21000.00
04210              -3.00    21200.00
04211               1.60    21200.00
04212               0.00    21400.00
04213              -4.00    21400.00
04214               0.20    21600.00
04215               1.40    21800.00
04216              -2.60    22000.00
04217              -0.40    22000.00
04218               1.20    22000.00
04219              -2.20    22000.00
04220              -1.80    22200.00
04221               0.40    22000.00
04222              -1.20    22400.00
04223              -1.40    22200.00
04224              -0.20    22200.00
04225               0.20    22400.00
04226              -1.20    22400.00
04227              -1.20    22400.00
04228               0.20    22400.00
04229              -0.40    22400.00
04230              -0.80    22400.00
04231              -0.40    22400.00
04232              -0.60    22400.00
04233              -0.60    22200.00
04234              -0.60    22200.00
04235              -0.80    22200.00
04236              -0.60    22200.00
04237              -0.20    22200.00
04238              -0.60    22200.00
04239              -1.00    22000.00
04240               0.20    21800.00
04241              -1.20    21800.00
04242              -1.00    21600.00
04243               0.60    21600.00
04244              -0.80    21400.00
04245              -1.40    21200.00
04246               0.40    21200.00
04247              -0.40    21200.00
04248              -1.20    20600.00
04249               0.60    20600.00
04250              -1.20    20600.00
04251              -1.20    20200.00
04252               0.40    20000.00
04253              -0.60    20000.00
04254              -1.60    19600.00
04255               0.60    19400.00
04256              -0.60    19200.00
04257              -1.40    19000.00
04258               0.40    18800.00
04259              -0.40    18800.00
04260              -1.40    18400.00
04261               0.00    18200.00
04262               0.20    18000.00
04263              -1.20    17600.00
04264              -1.20    17400.00
04265               0.60    17200.00
04266              -1.00    16800.00
04267              -0.60    16400.00
04268               0.60    16400.00
04269              -1.40    16000.00
04270              -1.00    15600.00
04271              -0.20    15200.00
04272              -1.60    15000.00
04273              -0.60    14600.00
04274              -0.20    14400.00
04275              -0.60    14000.00
04276              -0.20    13600.00
04277              -0.20    13200.00
04278              -1.00    13200.00
04279              -0.60    12600.00
04280              -0.20    12200.00
04281              -0.60    11800.00
04282              -1.00    11600.00
04283              -0.60    11200.00
04284              -0.40    10800.00
04285              -1.20    10400.00
04286              -0.40    10000.00
04287               0.00     9600.00
04288              -1.20     9400.00
04289              -0.20     8800.00
04290              -0.20     8600.00
04291              -0.80     8200.00
04292              -0.40     7800.00
04293              -0.20     7400.00
04294              -0.40     6800.00
04295              -0.60     6600.00
04296              -0.20     6200.00
04297               0.20     5800.00
04298              -1.00     5200.00
04299               0.20     4800.00
04300              -0.40     4400.00
04301              -0.80     4000.00
04302              -0.40     3600.00
04303              -0.40     3200.00
04304               0.00     2800.00
04305              -0.40     2400.00
04306              -0.40     2000.00
04307               0.60     1400.00
04308              -0.40     1200.00
04309              -0.60      600.00
04310               0.20      200.00
04311               0.40     -200.00
04312               0.60     -600.00
04313               2.60    -1000.00
04314               0.80    -1400.00
04315              -2.20    -2000.00
04316               0.40    -2000.00
04317               2.00    -2400.00
04318              -0.80    -3000.00
04319               0.60    -3200.00
04320              15.80    -3600.00
04321              25.00    -4400.00
04322             -25.00    -5000.00
04323             -25.00    -5600.00
04324              25.00    -5800.00
04325              14.80    -6000.00
04326             -25.00    -6000.00
04327              25.00    -6400.00
04328              25.00    -7200.00
04329             -25.00    -7000.00
04330               5.40    -8000.00
04331              25.00    -8600.00
04332             -25.00    -8600.00
04333             -25.00    -9200.00
04334              25.00    -9600.00
04335             -25.00    -9800.00
04336             -20.60   -10400.00
04337              25.00   -10400.00
04338              12.20   -10800.00
04339             -14.60   -11600.00
04340             -25.00   -11600.00
04341              25.00   -12400.00
04342               1.80   -12400.00
04343             -25.00   -12800.00
04344              25.00   -13200.00
04345              13.00   -13600.00
04346             -15.80   -14000.00
04347             -16.20   -14200.00
04348              22.20   -14600.00
04349               5.00   -14800.00
04350             -25.00   -15200.00
04351              24.40   -15600.00
04352               7.80   -15600.00
04353             -21.80   -16200.00
04354               7.60   -16400.00
04355               7.00   -16800.00
04356              -9.00   -17000.00
04357              -0.40   -17000.00
04358              10.20   -17600.00
04359              -3.80   -17800.00
04360              -1.20   -18000.00
04361               2.80   -18400.00
04362              -2.80   -18600.00
04363               0.20   -19000.00
04364              -0.40   -19200.00
04365               1.20   -19200.00
04366               2.20   -19600.00
04367               0.40   -19600.00
04368              -1.40   -20000.00
04369               3.40   -20200.00
04370              -2.80   -20400.00
04371              -2.20   -20400.00
04372               6.20   -20600.00
04373              -2.60   -20800.00
04374               0.20   -21000.00
04375               3.60   -21200.00
04376              -2.80   -21200.00
04377              -0.60   -21400.00
04378               2.60   -21600.00
04379              -0.80   -21600.00
04380              -1.20   -21800.00
04381               3.80   -22000.00
04382               1.00   -22000.00
04383              -2.60   -22000.00
04384               1.20   -22200.00
04385               0.60   -22200.00
04386              -1.20   -22000.00
04387               1.60   -22400.00
04388               1.20   -22400.00
04389               0.20   -22400.00
04390               0.00   -22400.00
04391               1.00   -22400.00
04392              -0.60   -22400.00
04393              -1.00   -22400.00
04394               1.40   -22400.00
04395               0.20   -22400.00
04396               0.40   -22400.00
04397               0.60   -22400.00
04398              -1.20   -22200.00
04399               1.40   -22400.00
04400               1.60   -22200.00
04401              -1.40   -22200.00
04402              -0.40   -22000.00
04403               1.40   -22000.00
04404              -0.20   -22000.00
04405              -0.60   -21800.00
04406               1.00   -21800.00
04407               0.40   -21600.00
04408              -1.40   -21600.00
04409               0.80   -21200.00
04410               0.40   -21200.00
04411              -0.40   -21200.00
04412               0.20   -21000.00
04413               1.40   -20800.00
04414               0.20   -20600.00
04415              -1.00   -20600.00
04416               0.20   -20200.00
04417               0.40   -20200.00
04418               0.20   -20000.00
04419               0.00   -19600.00
04420               0.20   -19400.00
04421               0.20   -19200.00
04422              -0.60   -19200.00
04423               0.20   -18800.00
04424               0.40   -18600.00
04425              -0.40   -18400.00
04426               0.40   -18000.00
04427               0.60   -17800.00
04428               0.20   -17400.00
04429              -0.40   -17200.00
04430              -0.40   -17000.00
04431               0.40   -16800.00
04432               0.20   -16400.00
04433               0.00   -16200.00
04434              -0.20   -15800.00
04435               0.20   -15600.00
04436               0.00   -15200.00
04437              -0.60   -14800.00
04438               0.20   -14600.00
04439               0.40   -14400.00
04440              -0.60   -14000.00
04441               0.60   -13600.00
04442               0.40   -13200.00
04443              -1.00   -12800.00
04444              -0.40   -12600.00
04445               0.40   -12200.00
04446               0.20   -11800.00
04447              -0.20   -11600.00
04448               0.80   -11000.00
04449               0.20   -10800.00
04450              -0.60   -10400.00
04451               0.00   -10000.00
04452               0.20    -9600.00
04453              -0.60    -9200.00
04454               0.20    -8800.00
04455              -0.20    -8400.00
04456               0.20    -8000.00
04457              -0.20    -7600.00
04458              -0.20    -7200.00
04459              -0.40    -6800.00
04460               0.20    -6400.00
04461              -0.60    -6000.00
04462               0.20    -5800.00
04463              -0.40    -5000.00
04464              -0.20    -4600.00
04465              -0.60    -4400.00
04466              -0.60    -4000.00
04467              -0.60    -3600.00
04468               0.00    -3200.00
04469               0.00    -2800.00
04470               0.40    -2400.00
04471              -0.60    -1800.00
04472              -0.20    -1600.00
04473              -1.00    -1000.00
04474              -1.00     -400.00
04475              -0.40     -200.00
04476               0.40      200.00
04477               1.00      600.00
04478               4.00     1000.00
04479              -0.60     1400.00
04480              -2.00     1800.00
04481               2.00     2200.00
04482               1.20     2800.00
04483              -2.60     2800.00
04484               1.00     3200.00
04485               8.20     3600.00
04486              21.00     4400.00
04487               6.80     4800.00
04488             -25.00     5600.00
04489             -13.40     5600.00
04490              25.00     6000.00
04491             -11.60     6200.00
04492             -25.00     6400.00
04493              25.00     7000.00
04494              25.00     7600.00
04495             -25.00     7600.00
04496             -25.00     8400.00
04497              25.00     8600.00
04498             -25.00     9200.00
04499             -25.00     9600.00
04500              25.00     9600.00
04501              -2.20    10200.00
04502             -25.00    10800.00
04503              25.00    10800.00
04504              24.40    11200.00
04505             -25.00    11800.00
04506             -17.00    12000.00
04507              25.00    12600.00
04508               2.00    12800.00
04509             -25.00    13200.00
04510              11.40    13600.00
04511              17.00    13800.00
04512             -14.40    14400.00
04513             -14.80    14600.00
04514              15.40    15000.00
04515               6.00    15400.00
04516             -18.20    15600.00
04517               9.80    15800.00
04518              11.40    16000.00
04519             -17.40    16400.00
04520               0.80    16600.00
04521              11.20    16800.00
04522              -9.40    17200.00
04523              -3.00    17400.00
04524              10.60    17600.00
04525              -3.80    18000.00
04526              -5.40    18400.00
04527               4.60    18400.00
04528              -2.20    18800.00
04529              -3.60    19000.00
04530               2.60    19200.00
04531              -0.20    19600.00
04532              -1.20    19800.00
04533               1.80    19800.00
04534              -2.40    20000.00
04535              -1.20    20400.00
04536              -0.40    20600.00
04537              -2.00    20600.00
04538               1.40    20800.00
04539              -0.60    21000.00
04540              -1.20    21000.00
04541               1.20    21200.00
04542              -1.20    21400.00
04543              -3.00    21400.00
04544               0.40    21600.00
04545               0.60    21600.00
04546              -2.40    22000.00
04547               0.20    22000.00
04548               0.40    22000.00
04549              -2.20    22200.00
04550              -0.60    22200.00
04551               0.40    22200.00
04552              -1.00    22200.00
04553              -1.40    22400.00
04554               0.20    22400.00
04555               0.20    22400.00
04556              -1.80    22200.00
04557              -1.00    22400.00
04558               0.60    22400.00
04559              -1.00    22400.00
04560              -1.00    22200.00
04561               0.20    22200.00
04562              -0.60    22400.00
04563              -1.20    22200.00
04564              -0.60    22400.00
04565              -0.40    22200.00
04566              -1.00    22200.00
04567              -0.20    22000.00
04568              -0.20    22000.00
04569              -0.60    22000.00
04570              -0.40    22000.00
04571              -1.20    21600.00
04572              -0.40    21600.00
04573               0.40    21600.00
04574              -0.60    21400.00
04575              -0.60    21200.00
04576              -0.40    21200.00
04577              -0.80    21000.00
04578              -1.20    20800.00
04579              -0.20    20800.00
04580              -0.60    20400.00
04581              -0.20    20200.00
04582              -0.20    20000.00
04583              -0.60    19800.00
04584              -1.20    19600.00
04585              -0.20    19400.00
04586              -1.00    19200.00
04587              -1.00    19000.00
04588              -0.20    18800.00
04589               0.00    18600.00
04590              -1.00    18400.00
04591              -0.20    18200.00
04592              -0.20    17800.00
04593              -1.00    17600.00
04594              -1.40    17200.00
04595              -0.40    17000.00
04596              -0.60    16600.00
04597              -0.60    16400.00
04598              -0.20    16000.00
04599              -0.20    16000.00
04600              -0.40    15600.00
04601              -1.00    15200.00
04602              -1.20    14800.00
04603              -0.20    14600.00
04604              -0.20    14400.00
04605              -1.00    14000.00
04606              -0.60    13600.00
04607              -0.40    13200.00
04608              -1.80    13000.00
04609              -1.00    12400.00
04610               0.40    12200.00
04611              -1.00    11800.00
04612              -1.00    11200.00
04613               0.60    11200.00
04614              -0.60    10800.00
04615              -1.20    10200.00
04616              -0.40    10000.00
04617              -0.40     9600.00
04618              -0.60     9200.00
04619              -0.40     8800.00
04620              -1.00     8600.00
04621              -0.20     8000.00
04622               0.40     7800.00
04623              -0.60     7200.00
04624              -1.40     6800.00
04625               0.40     6400.00
04626              -0.60     6000.00
04627              -1.20     5600.00
04628               1.00     5200.00
04629              -0.20     4800.00
04630              -2.20     4400.00
04631               1.80     4000.00
04632               0.20     3600.00
04633              -2.00     3200.00
04634               1.20     2800.00
04635               0.00     2200.00
04636              -2.20     1800.00
04637               0.40     1400.00
04638               0.40     1000.00
04639              -2.00      600.00
04640               1.80        0.00
04641               0.80     -200.00
04642              -0.20     -800.00
04643               3.40    -1000.00
04644              -0.20    -1400.00
04645              -1.80    -2000.00
04646               1.20    -2000.00
04647               1.40    -2600.00
04648              -1.20    -3000.00
04649               2.00    -3200.00
04650              20.60    -3600.00
04651              25.00    -4400.00
04652             -25.00    -5000.00
04653             -25.00    -5600.00
04654              25.00    -5800.00
04655              -2.40    -6000.00
04656             -25.00    -6000.00
04657              25.00    -6600.00
04658              25.00    -7400.00
04659             -25.00    -7200.00
04660              25.00    -8200.00
04661              25.00    -8400.00
04662             -25.00    -8600.00
04663              14.80    -9600.00
04664              25.00    -9400.00
04665             -25.00    -9800.00
04666              -3.00   -10400.00
04667              25.00   -10600.00
04668              10.60   -11000.00
04669             -24.20   -11600.00
04670             -21.80   -11600.00
04671              25.00   -12400.00
04672             -15.00   -12200.00
04673             -25.00   -13000.00
04674              25.00   -13200.00
04675               6.80   -13600.00
04676             -19.80   -14000.00
04677             -11.80   -14400.00
04678              25.00   -14800.00
04679              -7.00   -14800.00
04680             -23.40   -15200.00
04681              25.00   -15600.00
04682              -2.00   -15800.00
04683             -19.60   -16200.00
04684              12.00   -16400.00
04685               4.40   -16800.00
04686             -10.60   -17000.00
04687               3.00   -17200.00
04688               9.40   -17600.00
04689              -6.00   -17800.00
04690              -0.20   -18200.00
04691               3.60   -18400.00
04692              -2.60   -18600.00
04693              -0.20   -18800.00
04694               1.20   -19200.00
04695               1.80   -19400.00
04696               0.60   -19600.00
04697               0.40   -19600.00
04698               0.00   -20000.00
04699               2.00   -20200.00
04700              -4.20   -20400.00
04701               0.60   -20600.00
04702               5.20   -20800.00
04703              -4.20   -20800.00
04704               2.80   -21000.00
04705               3.40   -21200.00
04706              -3.80   -21200.00
04707               0.20   -21600.00
04708               2.80   -21600.00
04709              -1.20   -21600.00
04710              -0.60   -21800.00
04711               4.20   -22000.00
04712               0.40   -22000.00
04713              -2.60   -22000.00
04714               0.60   -22200.00
04715               1.00   -22000.00
04716              -1.00   -22400.00
04717               0.80   -22400.00
04718               1.80   -22200.00
04719              -0.20   -22400.00
04720              -0.40   -22400.00
04721               1.40   -22400.00
04722               0.20   -22400.00
04723              -1.00   -22600.00
04724               1.00   -22400.00
04725               0.40   -22400.00
04726               0.20   -22400.00
04727               0.00   -22400.00
04728              -0.20   -22400.00
04729               0.60   -22400.00
04730              -0.60   -22200.00
04731               0.20   -22200.00
04732               1.00   -22000.00
04733               0.20   -22000.00
04734               0.20   -22000.00
04735               0.20   -21800.00
04736               0.40   -21800.00
04737              -0.60   -21600.00
04738              -0.20   -21600.00
04739               1.00   -21200.00
04740               0.20   -21200.00
04741              -0.20   -21000.00
04742               0.80   -20800.00
04743               0.40   -20800.00
04744              -0.60   -20800.00
04745              -0.40   -20400.00
04746               0.60   -20200.00
04747              -0.20   -20000.00
04748               0.20   -20000.00
04749               0.40   -19600.00
04750              -0.20   -19400.00
04751               0.20   -19200.00
04752              -0.20   -19200.00
04753               0.40   -18800.00
04754               0.20   -18600.00
04755              -0.40   -18400.00
04756               0.60   -18200.00
04757              -0.20   -17800.00
04758              -0.40   -17400.00
04759              -0.20   -17200.00
04760               0.40   -16800.00
04761               0.40   -16600.00
04762               0.20   -16400.00
04763               0.40   -16200.00
04764               0.00   -15800.00
04765              -0.60   -15400.00
04766               0.20   -15200.00
04767               0.20   -14800.00
04768              -0.20   -14600.00
04769               0.20   -14200.00
04770               0.20   -13800.00
04771               0.20   -13600.00
04772               0.00   -13000.00
04773               0.20   -13000.00
04774               0.20   -12400.00
04775              -0.40   -12000.00
04776               0.20   -12000.00
04777              -0.40   -11400.00
04778              -0.20   -11000.00
04779               0.20   -10600.00
04780              -0.20   -10400.00
04781               0.20    -9800.00
04782               0.00    -9600.00
04783              -0.20    -9200.00
04784               0.20    -8800.00
04785               0.00    -8400.00
04786              -0.40    -8000.00
04787              -0.60    -7400.00
04788               0.20    -7200.00
04789              -0.20    -6800.00
04790              -0.80    -6400.00
04791              -0.20    -5800.00
04792               0.60    -5600.00
04793              -1.40    -5000.00
04794               0.00    -4600.00
04795               0.20    -4200.00
04796              -1.00    -4000.00
04797              -1.00    -3600.00
04798               0.80    -3000.00
04799              -0.60    -2600.00
04800              -0.60    -2400.00
04801               0.20    -1800.00
04802              -0.20    -1400.00
04803              -1.20     -800.00
04804              -0.40     -600.00
04805               0.20     -200.00
04806              -0.20      400.00
04807               0.60      600.00
04808               3.40     1200.00
04809              -1.80     1400.00
04810              -2.00     2000.00
04811               2.60     2200.00
04812               1.40     2600.00
04813              -2.80     3000.00
04814               2.80     3400.00
04815              10.20     4000.00
04816              22.80     4600.00
04817              -4.40     5000.00
04818             -25.00     5400.00
04819              -1.00     5800.00
04820              25.00     6200.00
04821             -24.40     6400.00
04822             -25.00     6600.00
04823              25.00     7200.00
04824              25.00     7800.00
04825             -25.00     8000.00
04826               8.20     8400.00
04827              25.00     8600.00
04828             -25.00     9200.00
04829             -25.00     9600.00
04830              25.00    10000.00
04831             -25.00    10400.00
04832             -25.00    10800.00
04833              25.00    11000.00
04834              14.60    11400.00
04835             -25.00    11800.00
04836              -7.80    12000.00
04837              25.00    12600.00
04838              -7.60    13000.00
04839             -23.00    13400.00
04840              17.20    13600.00
04841              13.00    14000.00
04842             -18.60    14400.00
04843             -10.20    14600.00
04844              19.80    15000.00
04845              -2.00    15200.00
04846             -16.60    15600.00
04847              15.60    15800.00
04848               5.00    16000.00
04849             -18.00    16400.00
04850               6.60    16600.00
04851               7.60    17000.00
04852             -11.80    17400.00
04853               2.00    17400.00
04854               8.40    17600.00
04855              -6.40    18200.00
04856              -2.00    18400.00
04857               3.40    18600.00
04858              -4.20    18800.00
04859              -1.00    19000.00
04860               1.60    19600.00
04861              -2.00    19400.00
04862               1.00    19800.00
04863               0.60    20000.00
04864              -3.00    20200.00
04865               0.20    20000.00
04866              -1.00    20400.00
04867              -2.20    20800.00
04868               2.00    20800.00
04869              -1.00    21000.00
04870              -1.40    21200.00
04871               0.80    21200.00
04872              -0.60    21400.00
04873              -2.20    21400.00
04874               0.40    21600.00
04875               0.40    21600.00
04876              -1.40    21800.00
04877               0.20    22000.00
04878              -0.20    22200.00
04879              -1.40    22200.00
04880              -0.80    22200.00
04881              -0.20    22200.00
04882              -0.20    22200.00
04883              -1.20    22200.00
04884              -0.40    22400.00
04885               0.40    22400.00
04886              -1.40    22400.00
04887              -1.40    22200.00
04888               0.20    22400.00
04889              -0.60    22400.00
04890              -1.20    22400.00
04891              -0.20    22200.00
04892               0.20    22400.00
04893              -0.60    22200.00
04894              -0.60    22200.00
04895              -0.40    22200.00
04896              -0.60    22200.00
04897              -0.60    22000.00
04898              -0.60    22000.00
04899              -0.40    22000.00
04900              -0.60    21800.00
04901              -1.20    21600.00
04902               0.20    21600.00
04903              -0.40    21400.00
04904              -1.20    21200.00
04905               0.00    21200.00
04906               0.20    21000.00
04907              -1.20    20800.00
04908              -0.40    20800.00
04909              -0.20    20600.00
04910              -2.00    20400.00
04911               0.40    20400.00
04912              -0.40    20200.00
04913              -1.80    20000.00
04914               0.40    19600.00
04915               0.40    19400.00
04916              -2.60    19200.00
04917               0.40    19000.00
04918              -0.20    18800.00
04919              -2.80    18600.00
04920               0.20    18200.00
04921               1.20    18000.00
04922              -2.60    17600.00
04923               0.20    17400.00
04924               1.00    17200.00
04925              -2.60    16800.00
04926              -0.60    16800.00
04927               1.00    16400.00
04928              -2.20    16000.00
04929              -0.40    15800.00
04930               1.00    15600.00
04931              -2.60    15200.00
04932              -1.00    14800.00
04933               1.20    14600.00
04934              -1.80    14200.00
04935              -0.20    14000.00
04936               1.00    13600.00
04937              -2.20    13200.00
04938              -1.00    12800.00
04939               1.20    12400.00
04940              -2.20    12400.00
04941              -1.20    11800.00
04942               1.60    11200.00
04943              -1.40    11000.00
04944              -1.20    10800.00
04945               1.20    10400.00
04946              -1.20    10000.00
04947              -1.80     9400.00
04948               1.00     9200.00
04949              -0.60     8800.00
04950              -1.40     8400.00
04951               0.60     8000.00
04952              -0.20     7600.00
04953              -1.40     7200.00
04954               0.20     6800.00
04955               0.20     6400.00
04956              -1.00     6000.00
04957               0.00     5600.00
04958              -0.60     5200.00
04959              -0.40     4600.00
04960               0.20     4200.00
04961              -1.00     4000.00
04962              -1.20     3400.00
04963               0.80     3000.00
04964               0.20     2400.00
04965              -0.60     2200.00
04966               0.20     1800.00
04967               0.20     1400.00
04968              -0.60     1000.00
04969              -0.40      400.00
04970               0.20        0.00
04971               0.20     -400.00
04972               1.20     -800.00
04973               4.20    -1000.00
04974              -1.80    -1600.00
04975              -1.80    -1800.00
04976               2.60    -2200.00
04977               0.40    -2800.00
04978              -2.80    -3000.00
04979               5.60    -3200.00
04980              25.00    -3800.00
04981              16.20    -4800.00
04982             -25.00    -5200.00
04983             -14.80    -5600.00
04984              25.00    -5800.00
04985             -19.80    -6000.00
04986             -25.00    -6000.00
04987              25.00    -6800.00
04988              25.00    -7200.00
04989             -25.00    -7200.00
04990              25.00    -8200.00
04991              25.00    -8600.00
04992             -25.00    -8800.00
04993              25.00    -9600.00
04994              25.00    -9400.00
04995             -25.00    -9800.00
04996              13.00   -10400.00
04997              25.00   -10600.00
04998               6.00   -11200.00
04999             -25.00   -11400.00
05000              -5.40   -12000.00
