Unit:(mV)
                     CH1         CH2
Frequency              ? 303.195 kHz
00001              -1.00     9200.00
00002              -0.80     8800.00
00003              -0.60     8600.00
00004              -1.20     8200.00
00005               0.20     7600.00
00006              -0.60     7200.00
00007              -1.00     7000.00
00008               0.20     6400.00
00009              -0.60     6200.00
00010              -1.40     5600.00
00011              -0.40     5200.00
00012               0.00     4600.00
00013              -1.20     4400.00
00014              -0.40     4000.00
00015               0.40     3600.00
00016              -1.20     3200.00
00017              -0.60     2800.00
00018               0.60     2400.00
00019              -1.00     2000.00
00020              -0.60     1400.00
00021               0.20     1200.00
00022              -1.00      600.00
00023              -0.60      200.00
00024               0.60        0.00
00025               0.20     -400.00
00026               2.00    -1000.00
00027               2.60    -1200.00
00028              -2.60    -1600.00
00029              -0.40    -2000.00
00030               2.60    -2400.00
00031              -1.00    -2800.00
00032              -1.40    -3200.00
00033              11.00    -3400.00
00034              25.00    -4200.00
00035             -17.00    -4800.00
00036             -25.00    -5200.00
00037              18.20    -5600.00
00038              25.00    -5800.00
00039             -25.00    -6000.00
00040               3.80    -6200.00
00041              25.00    -7200.00
00042             -25.00    -7200.00
00043             -25.00    -7600.00
00044              25.00    -8400.00
00045             -25.00    -8200.00
00046             -25.00    -9000.00
00047              25.00    -9400.00
00048             -25.00    -9400.00
00049             -25.00   -10000.00
00050              25.00   -10400.00
00051               3.00   -10600.00
00052              -9.20   -11400.00
00053             -25.00   -11200.00
00054              23.60   -12000.00
00055              15.60   -12200.00
00056             -25.00   -12400.00
00057              20.60   -13200.00
00058              11.80   -13200.00
00059             -10.20   -13800.00
00060             -13.40   -14000.00
00061               6.60   -14400.00
00062              18.60   -14600.00
00063             -25.00   -14800.00
00064              10.80   -15400.00
00065              21.00   -15600.00
00066             -23.60   -16000.00
00067               0.60   -16200.00
00068              13.40   -16400.00
00069              -7.80   -16800.00
00070              -6.00   -17000.00
00071              15.00   -17200.00
00072              -0.40   -17400.00
00073              -9.80   -17800.00
00074               8.60   -18000.00
00075              -0.40   -18400.00
00076              -7.60   -18600.00
00077               4.80   -18800.00
00078               6.60   -19000.00
00079              -4.60   -19200.00
00080               2.20   -19600.00
00081               3.00   -19600.00
00082              -3.80   -20000.00
00083              -0.80   -20000.00
00084               1.40   -20200.00
00085               5.00   -20200.00
00086              -2.00   -20400.00
00087               1.00   -20600.00
00088               4.60   -20800.00
00089              -3.80   -21000.00
00090              -0.60   -21200.00
00091               3.40   -21200.00
00092               1.60   -21200.00
00093              -1.40   -21600.00
00094               2.20   -21600.00
00095               4.00   -21800.00
00096              -3.60   -21800.00
00097              -0.60   -21800.00
00098               4.20   -21800.00
00099              -0.60   -22000.00
00100              -0.60   -22000.00
00101               3.60   -22200.00
00102               1.40   -22200.00
00103              -2.40   -22200.00
00104               1.00   -22000.00
00105               3.00   -22400.00
00106              -1.60   -22000.00
00107               1.00   -22000.00
00108               3.40   -22200.00
00109              -0.40   -22000.00
00110              -0.60   -22000.00
00111               0.40   -22000.00
00112               1.00   -22000.00
00113               0.20   -22000.00
00114               0.40   -22000.00
00115               1.80   -21800.00
00116               0.20   -21800.00
00117               0.40   -21600.00
00118               0.20   -21600.00
00119               1.00   -21600.00
00120               0.60   -21200.00
00121              -0.40   -21400.00
00122               1.60   -21200.00
00123               1.20   -21000.00
00124              -0.60   -20800.00
00125               0.40   -20800.00
00126               1.20   -20600.00
00127              -0.20   -20400.00
00128               0.20   -20200.00
00129               1.20   -20000.00
00130               0.20   -20000.00
00131               0.00   -19600.00
00132               0.60   -19600.00
00133               0.20   -19400.00
00134              -0.20   -19200.00
00135               0.40   -18800.00
00136               1.00   -18800.00
00137               1.00   -18400.00
00138               0.20   -18000.00
00139               0.60   -18000.00
00140               0.40   -17600.00
00141              -0.20   -17400.00
00142               0.20   -17200.00
00143               0.00   -16800.00
00144               0.60   -16600.00
00145               0.40   -16400.00
00146               0.40   -16000.00
00147               0.40   -15800.00
00148               0.40   -15400.00
00149              -0.40   -15200.00
00150               1.00   -14800.00
00151               0.60   -14400.00
00152              -0.40   -14000.00
00153               0.80   -13800.00
00154               0.20   -13600.00
00155              -0.80   -13200.00
00156               0.40   -12800.00
00157               0.20   -12400.00
00158               0.20   -12200.00
00159               0.60   -11800.00
00160               0.40   -11400.00
00161              -0.60   -11200.00
00162               0.40   -10600.00
00163               0.20   -10400.00
00164              -0.20   -10000.00
00165               0.40    -9600.00
00166              -0.20    -9200.00
00167               0.20    -8800.00
00168               0.20    -8400.00
00169              -0.20    -8000.00
00170              -0.40    -7800.00
00171               0.40    -7200.00
00172              -0.20    -6800.00
00173              -0.20    -6400.00
00174              -0.40    -6000.00
00175               0.20    -5800.00
00176              -0.60    -5200.00
00177              -0.60    -4800.00
00178              -0.20    -4400.00
00179              -0.60    -4000.00
00180              -0.60    -3600.00
00181              -0.20    -3200.00
00182              -0.20    -2600.00
00183              -0.40    -2400.00
00184              -0.80    -2000.00
00185              -0.20    -1600.00
00186              -0.60    -1200.00
00187              -1.20     -800.00
00188              -0.20     -200.00
00189               0.40        0.00
00190              -0.60      600.00
00191               3.60      800.00
00192               0.00     1400.00
00193              -3.80     1800.00
00194               2.40     2000.00
00195               1.40     2600.00
00196              -2.80     2800.00
00197               0.60     3200.00
00198               6.60     3600.00
00199              15.40     4000.00
00200              16.40     4800.00
00201             -25.00     5200.00
00202             -25.00     5400.00
00203              25.00     6000.00
00204               7.00     6200.00
00205             -25.00     6400.00
00206               7.60     7000.00
00207              25.00     7600.00
00208             -25.00     7800.00
00209             -25.00     8200.00
00210              25.00     8400.00
00211              -7.60     8800.00
00212             -25.00     9200.00
00213              25.00     9600.00
00214              23.60    10000.00
00215             -25.00    10400.00
00216              22.60    10800.00
00217              25.00    11000.00
00218             -25.00    11400.00
00219             -24.40    11800.00
00220              25.00    12200.00
00221              10.20    12400.00
00222             -25.00    13200.00
00223               8.00    13200.00
00224              19.80    13600.00
00225             -14.60    14000.00
00226             -15.80    14200.00
00227              12.40    14600.00
00228               9.80    15000.00
00229             -19.80    15200.00
00230               5.40    15600.00
00231              16.60    15800.00
00232             -19.00    16000.00
00233              -6.00    16400.00
00234              16.00    16600.00
00235              -7.60    17000.00
00236             -12.40    17400.00
00237              14.60    17400.00
00238               2.00    17600.00
00239             -15.20    18000.00
00240               5.00    18400.00
00241               5.80    18400.00
00242             -12.20    18800.00
00243              -0.20    19000.00
00244               8.40    19200.00
00245              -6.00    19200.00
00246              -3.60    19600.00
00247               2.80    19800.00
00248              -2.20    20000.00
00249              -5.60    20200.00
00250               1.00    20200.00
00251               3.40    20400.00
00252              -4.60    20600.00
00253              -2.60    20600.00
00254               2.20    21000.00
00255              -2.80    21200.00
00256              -4.40    21200.00
00257               1.00    21200.00
00258               0.80    21400.00
00259              -3.00    21600.00
00260              -0.60    21600.00
00261               0.40    21800.00
00262              -3.60    21800.00
00263              -2.80    22000.00
00264               0.40    22000.00
00265              -1.20    22000.00
00266              -2.20    22000.00
00267              -0.40    22200.00
00268               1.00    22000.00
00269              -3.00    22200.00
00270              -3.00    22000.00
00271               1.20    22200.00
00272              -1.20    22000.00
00273              -3.00    22200.00
00274               0.40    22000.00
00275               0.40    22000.00
00276              -3.40    22000.00
00277              -1.40    22000.00
00278               0.60    22000.00
00279              -2.20    22000.00
00280              -1.20    22000.00
00281               0.40    21800.00
00282              -1.20    21600.00
00283              -2.20    21600.00
00284              -1.00    21600.00
00285              -0.40    21400.00
00286              -2.00    21200.00
00287              -1.40    21200.00
00288               0.20    21200.00
00289              -0.40    20800.00
00290              -2.20    21000.00
00291              -0.60    20600.00
00292              -1.20    20400.00
00293              -1.80    20200.00
00294              -1.00    20000.00
00295               0.00    19800.00
00296              -1.00    19600.00
00297              -1.40    19600.00
00298              -1.00    19200.00
00299              -1.20    19200.00
00300              -1.40    18800.00
00301              -1.00    18800.00
00302              -0.60    18400.00
00303              -0.60    18200.00
00304              -1.00    17800.00
00305              -0.60    17600.00
00306              -1.20    17400.00
00307              -1.80    17000.00
00308              -0.60    16800.00
00309              -0.60    16400.00
00310              -1.20    16400.00
00311              -1.00    16000.00
00312              -1.20    15600.00
00313              -1.20    15200.00
00314              -1.40    15200.00
00315              -1.00    14800.00
00316              -1.20    14600.00
00317              -1.00    14200.00
00318              -0.60    14000.00
00319              -0.60    13600.00
00320              -1.20    13200.00
00321              -1.00    12800.00
00322              -0.60    12600.00
00323              -0.60    12200.00
00324              -1.00    11800.00
00325              -0.40    11400.00
00326              -1.00    11000.00
00327              -1.00    10800.00
00328              -1.00    10200.00
00329              -0.80    10000.00
00330              -1.00     9600.00
00331              -0.60     9200.00
00332              -0.60     8800.00
00333              -0.60     8400.00
00334              -1.00     8000.00
00335              -0.40     7800.00
00336              -0.60     7200.00
00337              -0.60     7000.00
00338              -0.60     6400.00
00339              -0.60     6000.00
00340              -0.20     5600.00
00341              -0.60     5200.00
00342              -1.00     4800.00
00343              -0.60     4400.00
00344              -0.60     4000.00
00345              -0.60     3600.00
00346              -0.40     3200.00
00347               0.20     2800.00
00348              -0.40     2200.00
00349              -0.40     2000.00
00350              -0.20     1400.00
00351              -0.20     1000.00
00352              -0.60      600.00
00353              -0.20      200.00
00354               0.40     -200.00
00355               0.40     -400.00
00356               2.60    -1000.00
00357               1.20    -1200.00
00358              -2.60    -1800.00
00359               0.20    -2000.00
00360               2.20    -2400.00
00361              -1.20    -2800.00
00362               0.00    -3200.00
00363              14.80    -3400.00
00364              25.00    -4400.00
00365             -25.00    -5000.00
00366             -25.00    -5200.00
00367              25.00    -5800.00
00368              16.80    -5800.00
00369             -25.00    -6200.00
00370              25.00    -6200.00
00371              25.00    -7200.00
00372             -25.00    -7000.00
00373               1.20    -7800.00
00374              25.00    -8400.00
00375             -25.00    -8400.00
00376             -25.00    -9200.00
00377              25.00    -9200.00
00378             -25.00    -9600.00
00379             -15.80   -10400.00
00380              25.00   -10400.00
00381              -3.40   -10800.00
00382             -12.20   -11400.00
00383             -22.60   -11400.00
00384              25.00   -12000.00
00385               1.20   -12200.00
00386             -25.00   -12600.00
00387              25.00   -13200.00
00388               5.20   -13400.00
00389             -10.60   -13800.00
00390             -13.40   -14000.00
00391              14.20   -14400.00
00392              11.00   -14800.00
00393             -25.00   -14800.00
00394              21.40   -15400.00
00395              11.60   -15600.00
00396             -25.00   -15800.00
00397               7.60   -16400.00
00398              10.60   -16400.00
00399             -10.80   -16800.00
00400              -0.80   -17000.00
00401              15.60   -17400.00
00402              -6.00   -17400.00
00403              -6.00   -18000.00
00404              10.00   -18200.00
00405              -4.40   -18400.00
00406              -6.40   -18600.00
00407               7.40   -18800.00
00408               3.60   -19000.00
00409              -4.60   -19200.00
00410               5.00   -19600.00
00411               1.40   -19600.00
00412              -3.80   -20000.00
00413              -0.40   -20200.00
00414               2.60   -20200.00
00415               3.80   -20400.00
00416              -3.00   -20400.00
00417               3.40   -20800.00
00418               3.20   -20800.00
00419              -5.00   -21000.00
00420               1.00   -21200.00
00421               3.40   -21200.00
00422               0.20   -21200.00
00423              -1.00   -21400.00
00424               4.20   -21600.00
00425               1.60   -21600.00
00426              -4.20   -21800.00
00427               1.00   -22000.00
00428               3.40   -21800.00
00429              -1.20   -22000.00
00430               1.20   -22000.00
00431               3.60   -22200.00
00432               0.60   -22000.00
00433              -2.00   -22000.00
00434               1.20   -22200.00
00435               2.00   -22200.00
00436              -0.40   -22000.00
00437              -2.00   -22000.00
00438               2.20   -22200.00
00439               3.00   -22200.00
00440              -7.40   -22000.00
00441               3.40   -22000.00
00442               3.40   -22200.00
00443               3.60   -22000.00
00444               0.60   -22000.00
00445               1.80   -22000.00
00446              -2.60   -21800.00
00447              -3.00   -22000.00
00448               0.80   -21600.00
00449              -3.40   -21400.00
00450               2.20   -21400.00
00451               6.20   -21200.00
00452               3.00   -21200.00
00453               1.20   -21000.00
00454              -2.80   -21000.00
00455              -2.20   -20800.00
00456               1.40   -20400.00
00457              -6.00   -20400.00
00458               2.00   -20200.00
00459               6.80   -20000.00
00460               2.60   -20000.00
00461              -0.80   -19800.00
00462               1.80   -19600.00
00463              -1.40   -19400.00
00464              -4.40   -19200.00
00465               2.60   -18800.00
00466              -1.00   -18600.00
00467               1.00   -18400.00
00468               3.00   -18200.00
00469               1.20   -18000.00
00470               1.00   -17600.00
00471              -1.00   -17400.00
00472              -0.60   -17200.00
00473               0.40   -16800.00
00474              -0.60   -16400.00
00475               0.60   -16400.00
00476               0.80   -16000.00
00477               1.20   -15600.00
00478               0.20   -15600.00
00479               0.60   -15000.00
00480               0.60   -14800.00
00481              -0.60   -14400.00
00482               0.40   -14200.00
00483              -1.00   -13800.00
00484               0.40   -13400.00
00485               0.40   -13200.00
00486              -0.60   -12800.00
00487               1.40   -12400.00
00488               0.60   -12000.00
00489               0.40   -11800.00
00490              -0.20   -11400.00
00491              -0.60   -10800.00
00492              -0.40   -10600.00
00493               0.40   -10200.00
00494               0.80   -10000.00
00495               0.20    -9600.00
00496              -0.20    -9200.00
00497               0.60    -8800.00
00498              -0.20    -8400.00
00499              -1.00    -8200.00
00500              -0.80    -7600.00
00501               0.00    -7200.00
00502               0.00    -6800.00
00503               0.20    -6400.00
00504              -0.40    -6000.00
00505               0.40    -5600.00
00506              -0.40    -5200.00
00507              -0.60    -4600.00
00508              -0.40    -4400.00
00509              -0.60    -4000.00
00510              -1.20    -3600.00
00511               0.20    -3200.00
00512               0.20    -2800.00
00513              -0.60    -2400.00
00514              -1.00    -2000.00
00515               0.40    -1400.00
00516              -0.60    -1000.00
00517              -1.40     -800.00
00518              -0.60     -200.00
00519               0.40        0.00
00520               0.40      600.00
00521               3.60     1200.00
00522              -0.60     1400.00
00523              -2.20     1800.00
00524               1.80     2000.00
00525               1.40     2600.00
00526              -2.40     2800.00
00527              -0.20     3200.00
00528               7.40     3600.00
00529              20.20     4400.00
00530               9.00     4800.00
00531             -25.00     5200.00
00532             -17.20     5600.00
00533              25.00     6000.00
00534              -8.40     6400.00
00535             -25.00     6600.00
00536              25.00     7000.00
00537              25.00     7600.00
00538             -25.00     7800.00
00539             -25.00     8400.00
00540              25.00     8400.00
00541             -25.00     8800.00
00542             -25.00     9400.00
00543              25.00     9600.00
00544              -5.00    10200.00
00545             -25.00    10400.00
00546              25.00    10800.00
00547              22.60    11200.00
00548             -25.00    11600.00
00549             -15.60    11800.00
00550              25.00    12400.00
00551              -0.40    12800.00
00552             -25.00    13000.00
00553              15.00    13400.00
00554              14.60    13600.00
00555             -18.00    14000.00
00556             -12.00    14400.00
00557              16.60    14800.00
00558               3.60    15200.00
00559             -19.00    15200.00
00560              11.60    15600.00
00561              11.00    15800.00
00562             -21.00    16200.00
00563               1.00    16600.00
00564              13.40    16800.00
00565             -11.80    17000.00
00566              -5.60    17400.00
00567              14.60    17400.00
00568              -4.40    17800.00
00569             -11.40    18000.00
00570               7.20    18400.00
00571               0.20    18400.00
00572              -9.80    18800.00
00573               3.80    19200.00
00574               4.20    19400.00
00575              -6.60    19600.00
00576              -0.60    19400.00
00577               1.20    19800.00
00578              -4.20    20000.00
00579              -3.60    20400.00
00580               1.60    20400.00
00581               1.40    20400.00
00582              -3.60    20600.00
00583              -0.40    21000.00
00584               1.20    21000.00
00585              -4.00    21000.00
00586              -2.80    21200.00
00587               1.00    21400.00
00588              -0.60    21400.00
00589              -2.20    21600.00
00590              -0.20    21600.00
00591              -0.60    21600.00
00592              -3.00    21600.00
00593              -2.00    22000.00
00594              -0.20    22000.00
00595              -0.80    22200.00
00596              -2.20    22000.00
00597              -0.60    22200.00
00598               0.40    22200.00
00599              -3.00    22000.00
00600              -2.20    22200.00
00601               1.20    22200.00
00602              -1.80    22000.00
00603              -2.20    22200.00
00604               0.40    22200.00
00605              -0.80    22000.00
00606              -3.40    22000.00
00607              -1.00    22000.00
00608               0.40    22000.00
00609              -2.80    22000.00
00610              -1.20    21800.00
00611               1.20    21800.00
00612              -2.00    21600.00
00613              -2.60    21600.00
00614               0.40    21600.00
00615              -1.20    21400.00
00616              -2.60    21200.00
00617              -0.40    21200.00
00618              -0.20    20800.00
00619              -2.20    21000.00
00620              -1.40    20800.00
00621               0.40    20400.00
00622              -2.20    20400.00
00623              -2.20    20200.00
00624               0.40    20000.00
00625              -0.60    20000.00
00626              -2.20    19800.00
00627              -0.40    19400.00
00628              -0.40    19200.00
00629              -2.60    19000.00
00630              -1.20    18800.00
00631              -0.40    18600.00
00632              -1.20    18400.00
00633              -1.60    18000.00
00634              -0.40    17800.00
00635              -1.00    17600.00
00636              -1.20    17400.00
00637              -1.20    17000.00
00638              -1.40    16800.00
00639              -1.00    16600.00
00640              -1.00    16200.00
00641              -0.60    16000.00
00642              -1.20    15600.00
00643              -1.20    15600.00
00644              -1.00    15000.00
00645              -1.40    14800.00
00646              -1.00    14400.00
00647              -0.60    14200.00
00648              -1.60    13800.00
00649              -1.00    13400.00
00650              -0.60    13200.00
00651              -1.40    12800.00
00652              -1.00    12400.00
00653              -0.60    12000.00
00654              -1.20    11800.00
00655              -0.40    11200.00
00656              -0.60    11000.00
00657              -1.20    10800.00
00658              -0.20    10200.00
00659              -0.60     9800.00
00660              -1.20     9400.00
00661              -0.20     9200.00
00662              -0.20     8800.00
00663              -1.80     8400.00
00664              -0.20     8000.00
00665              -0.20     7600.00
00666              -1.80     7200.00
00667              -0.60     6800.00
00668               0.20     6400.00
00669              -1.20     6000.00
00670              -1.00     5600.00
00671               0.20     5200.00
00672              -0.60     4600.00
00673              -1.20     4400.00
00674               0.40     3800.00
00675              -0.20     3400.00
00676              -1.20     3000.00
00677               0.20     2800.00
00678               0.20     2200.00
00679              -1.40     1800.00
00680               0.20     1600.00
00681               0.80     1000.00
00682              -1.40      600.00
00683              -0.60      200.00
00684               1.40     -200.00
00685              -0.20     -600.00
00686               2.00    -1000.00
00687               0.60    -1600.00
00688              -2.00    -1800.00
00689               0.20    -2000.00
00690               2.60    -2600.00
00691              -1.40    -2800.00
00692               1.20    -3200.00
00693              18.60    -3600.00
00694              25.00    -4400.00
00695             -25.00    -5000.00
00696             -25.00    -5400.00
00697              25.00    -5800.00
00698               1.40    -6000.00
00699             -25.00    -6000.00
00700              25.00    -6400.00
00701              25.00    -7200.00
00702             -25.00    -7000.00
00703              25.00    -8000.00
00704              25.00    -8400.00
00705             -25.00    -8400.00
00706               9.80    -9200.00
00707              25.00    -9200.00
00708             -25.00    -9600.00
00709               9.00   -10200.00
00710              25.00   -10400.00
00711              -8.60   -11000.00
00712             -14.80   -11400.00
00713             -15.40   -11600.00
00714              25.00   -12200.00
00715             -12.00   -12200.00
00716             -16.60   -12800.00
00717              25.00   -13200.00
00718              -0.20   -13200.00
00719              -9.80   -14000.00
00720             -13.80   -14000.00
00721              21.00   -14400.00
00722               2.80   -14600.00
00723             -24.60   -15200.00
00724              25.00   -15400.00
00725               2.40   -15600.00
00726             -23.40   -16000.00
00727              12.20   -16200.00
00728               7.40   -16400.00
00729             -13.80   -16800.00
00730               3.40   -17000.00
00731              15.40   -17400.00
00732             -10.20   -17600.00
00733              -2.20   -17800.00
00734              10.00   -18200.00
00735              -7.00   -18400.00
00736              -3.60   -18600.00
00737               9.40   -19000.00
00738               0.40   -19200.00
00739              -4.20   -19200.00
00740               6.00   -19600.00
00741              -1.40   -19600.00
00742              -2.60   -20000.00
00743               0.80   -20000.00
00744               2.20   -20200.00
00745               3.00   -20400.00
00746              -2.00   -20400.00
00747               3.60   -20800.00
00748               0.60   -20800.00
00749              -3.40   -21000.00
00750               1.40   -21200.00
00751               2.80   -21200.00
00752               0.40   -21400.00
00753              -1.00   -21600.00
00754               4.20   -21600.00
00755               1.00   -21800.00
00756              -3.60   -21800.00
00757               2.20   -21800.00
00758               2.20   -22000.00
00759              -1.80   -22000.00
00760               1.40   -22000.00
00761               3.00   -22000.00
00762              -1.00   -22000.00
00763              -1.40   -22000.00
00764               2.20   -22200.00
00765               1.00   -22000.00
00766              -2.00   -22000.00
00767               2.60   -22200.00
00768               1.80   -22000.00
00769              -1.20   -22000.00
00770               0.20   -22000.00
00771               1.00   -22200.00
00772               0.60   -22000.00
00773               0.00   -21800.00
00774               1.20   -22000.00
00775               0.60   -22000.00
00776               0.20   -22000.00
00777               0.40   -21600.00
00778               0.00   -21600.00
00779               0.60   -21600.00
00780               0.20   -21200.00
00781               0.20   -21200.00
00782               1.80   -21200.00
00783               0.80   -21000.00
00784              -0.40   -21000.00
00785               1.00   -20800.00
00786               0.60   -20800.00
00787              -0.60   -20400.00
00788               0.40   -20000.00
00789               1.60   -20200.00
00790              -0.40   -20000.00
00791               0.40   -19600.00
00792               1.20   -19600.00
00793              -0.40   -19200.00
00794               0.20   -19200.00
00795               1.20   -18800.00
00796               0.40   -18600.00
00797               0.60   -18400.00
00798               0.40   -18200.00
00799               0.60   -17800.00
00800               0.20   -17600.00
00801               0.20   -17400.00
00802               0.00   -17000.00
00803               0.60   -16800.00
00804               0.60   -16600.00
00805               0.20   -16200.00
00806               1.20   -16000.00
00807               0.20   -15600.00
00808              -1.20   -15400.00
00809               1.20   -15200.00
00810               1.00   -14800.00
00811              -0.60   -14400.00
00812               1.00   -14000.00
00813               0.60   -13800.00
00814              -0.40   -13400.00
00815               0.40   -13200.00
00816               0.40   -12800.00
00817              -0.20   -12400.00
00818               0.40   -12000.00
00819               0.60   -11600.00
00820              -0.60   -11400.00
00821              -0.20   -11000.00
00822               0.40   -10400.00
00823               0.20   -10000.00
00824              -0.40    -9800.00
00825               0.20    -9200.00
00826               0.20    -9000.00
00827              -0.20    -8800.00
00828              -0.60    -8400.00
00829               0.20    -8000.00
00830              -0.60    -7600.00
00831              -0.40    -7200.00
00832               0.20    -6600.00
00833              -0.20    -6400.00
00834              -0.40    -5800.00
00835               0.40    -5600.00
00836              -0.80    -4800.00
00837              -0.60    -4600.00
00838              -0.20    -4200.00
00839              -0.20    -4000.00
00840              -0.60    -3400.00
00841              -1.00    -3000.00
00842               0.20    -2600.00
00843               0.20    -2200.00
00844              -1.20    -1800.00
00845              -0.20    -1400.00
00846               0.20    -1000.00
00847              -1.40     -400.00
00848              -0.40     -200.00
00849               0.60      400.00
00850               0.20      800.00
00851               3.00     1000.00
00852              -1.20     1400.00
00853              -2.00     1800.00
00854               2.00     2200.00
00855               1.40     2600.00
00856              -2.80     2800.00
00857               2.00     3200.00
00858               9.00     3800.00
00859              21.40     4600.00
00860              -0.60     4800.00
00861             -25.00     5400.00
00862              -5.40     5600.00
00863              25.00     6200.00
00864             -21.40     6400.00
00865             -25.00     6600.00
00866              25.00     7200.00
00867              25.00     7600.00
00868             -25.00     7800.00
00869               9.40     8400.00
00870              25.00     8400.00
00871             -25.00     8800.00
00872             -25.00     9400.00
00873              25.00     9800.00
00874             -25.00    10200.00
00875             -25.00    10400.00
00876              25.00    10800.00
00877              10.00    11200.00
00878             -25.00    11600.00
00879              -3.80    12000.00
00880              25.00    12400.00
00881             -11.40    12600.00
00882             -21.00    13000.00
00883              19.40    13400.00
00884               8.40    13600.00
00885             -20.40    14200.00
00886              -8.00    14400.00
00887              19.40    14800.00
00888              -3.40    15200.00
00889             -17.20    15400.00
00890              16.60    15600.00
00891               4.60    15800.00
00892             -22.20    16000.00
00893               6.60    16400.00
00894              10.60    16800.00
00895             -15.40    17000.00
00896              -0.40    17400.00
00897              14.00    17600.00
00898              -8.40    18000.00
00899              -9.40    18200.00
00900               8.40    18400.00
00901              -3.00    18800.00
00902              -8.60    19000.00
00903               5.80    19000.00
00904               2.20    19400.00
00905              -6.00    19600.00
00906               0.60    19600.00
00907               0.60    19800.00
00908              -4.40    20000.00
00909              -2.80    20200.00
00910               2.20    20400.00
00911               0.40    20400.00
00912              -4.40    20800.00
00913               0.20    21000.00
00914               0.60    21200.00
00915              -4.20    21200.00
00916              -2.20    21200.00
00917               1.80    21400.00
00918              -0.60    21400.00
00919              -3.40    21600.00
00920               0.60    21600.00
00921              -0.60    21800.00
00922              -4.20    21600.00
00923              -1.20    22000.00
00924               1.00    22000.00
00925              -2.00    22000.00
00926              -1.80    22200.00
00927               0.60    22000.00
00928              -1.00    22200.00
00929              -3.60    22000.00
00930              -1.00    22200.00
00931               0.20    22200.00
00932              -2.20    22000.00
00933              -0.60    22000.00
00934               0.20    22200.00
00935              -1.40    22000.00
00936              -2.00    22000.00
00937              -1.00    22000.00
00938              -1.00    22000.00
00939              -1.20    22000.00
00940              -0.40    21800.00
00941              -1.40    21800.00
00942              -1.20    21600.00
00943              -0.80    21600.00
00944              -2.20    21400.00
00945              -1.00    21200.00
00946              -0.60    21200.00
00947              -1.80    21200.00
00948              -1.00    21200.00
00949              -0.20    20800.00
00950              -2.20    20800.00
00951              -1.00    20400.00
00952              -0.40    20400.00
00953              -2.00    20000.00
00954              -1.20    20000.00
00955               0.20    19800.00
00956              -1.00    19600.00
00957              -1.80    19200.00
00958              -0.80    19200.00
00959              -0.80    19000.00
00960              -2.00    18800.00
00961              -1.40    18600.00
00962              -0.60    18400.00
00963              -1.20    18000.00
00964              -1.40    17600.00
00965              -0.80    17400.00
00966              -0.80    17200.00
00967              -2.00    17000.00
00968              -1.20    16800.00
00969               0.00    16400.00
00970              -1.20    16200.00
00971              -1.80    15800.00
00972              -0.20    15600.00
00973              -0.60    15200.00
00974              -2.80    15000.00
00975              -0.60    14800.00
00976               0.40    14200.00
00977              -2.00    14000.00
00978              -1.20    13600.00
00979              -0.40    13200.00
00980              -1.80    13000.00
00981              -1.80    12800.00
00982               0.40    12400.00
00983              -1.20    12000.00
00984              -1.40    11600.00
00985               0.20    11200.00
00986              -0.60    10800.00
00987              -1.20    10600.00
00988              -0.60    10200.00
00989              -0.80     9600.00
00990              -1.20     9400.00
00991              -0.60     9000.00
00992              -0.60     8600.00
00993              -1.20     8400.00
00994              -0.60     7800.00
00995              -0.20     7600.00
00996              -1.00     7000.00
00997              -0.20     6800.00
00998               0.20     6200.00
00999              -1.40     6000.00
01000              -0.40     5400.00
01001               0.40     5000.00
01002              -1.00     4600.00
01003              -1.00     4200.00
01004               0.40     3800.00
01005              -0.60     3600.00
01006              -0.60     3000.00
01007               0.60     2600.00
01008              -1.00     2000.00
01009              -0.60     1600.00
01010               0.20     1200.00
01011              -0.60      800.00
01012              -0.40      400.00
01013               0.20        0.00
01014               0.20     -400.00
01015               1.00     -600.00
01016               3.00    -1000.00
01017              -1.00    -1600.00
01018              -1.40    -2000.00
01019               1.60    -2200.00
01020               0.60    -2600.00
01021              -2.20    -3000.00
01022               4.20    -3400.00
01023              22.80    -3600.00
01024              21.00    -4800.00
01025             -25.00    -5200.00
01026             -20.60    -5600.00
01027              25.00    -5800.00
01028             -14.80    -6200.00
01029             -25.00    -6000.00
01030              25.00    -6600.00
01031              25.00    -7400.00
01032             -25.00    -7200.00
01033              25.00    -8200.00
01034              25.00    -8400.00
01035             -25.00    -8600.00
01036              25.00    -9600.00
01037              25.00    -9200.00
01038             -25.00    -9800.00
01039              25.00   -10400.00
01040              25.00   -10400.00
01041              -9.20   -11200.00
01042             -21.40   -11400.00
01043              -4.00   -11600.00
01044              25.00   -12200.00
01045             -25.00   -12400.00
01046              -4.20   -12800.00
01047              25.00   -13000.00
01048              -5.20   -13600.00
01049             -10.20   -14000.00
01050              -9.20   -14200.00
01051              23.80   -14600.00
01052              -7.60   -14800.00
01053             -17.00   -15200.00
01054              25.00   -15600.00
01055              -7.40   -15600.00
01056             -16.60   -16200.00
01057              14.20   -16400.00
01058               2.60   -16600.00
01059             -11.80   -17000.00
01060               7.60   -17000.00
01061              11.40   -17400.00
01062             -11.00   -17800.00
01063               0.60   -18000.00
01064               6.80   -18200.00
01065              -5.40   -18600.00
01066              -1.00   -18800.00
01067               6.60   -18800.00
01068               0.20   -19200.00
01069              -1.20   -19400.00
01070               3.40   -19600.00
01071              -2.00   -19800.00
01072              -0.40   -20000.00
01073              -1.20   -20000.00
01074               3.60   -20200.00
01075               3.40   -20400.00
01076              -3.00   -20800.00
01077               4.20   -20800.00
01078               0.20   -21000.00
01079              -2.80   -21200.00
01080               2.60   -21200.00
01081               2.60   -21200.00
01082              -2.00   -21200.00
01083               1.00   -21600.00
01084               5.20   -21800.00
01085              -2.60   -21800.00
01086              -3.00   -21800.00
01087               4.20   -21800.00
01088               0.40   -22000.00
01089              -1.00   -21800.00
01090               2.80   -22000.00
01091               1.00   -22200.00
01092              -1.20   -22200.00
01093              -0.20   -22200.00
01094               1.80   -22200.00
01095               0.20   -22200.00
01096              -0.60   -22200.00
01097               2.40   -22200.00
01098               1.20   -22200.00
01099              -0.60   -22000.00
01100              -0.20   -22000.00
01101               0.20   -22000.00
01102               1.00   -22000.00
01103               0.20   -22000.00
01104               1.20   -21800.00
01105               0.60   -22000.00
01106               0.40   -21800.00
01107               0.40   -21600.00
01108               0.20   -21600.00
01109               1.00   -21400.00
01110               0.00   -21600.00
01111               0.40   -21200.00
01112               1.60   -21200.00
01113              -0.40   -21000.00
01114              -0.40   -21000.00
01115               1.00   -20600.00
01116               0.60   -20400.00
01117              -0.20   -20200.00
01118               1.00   -20200.00
01119               1.20   -20000.00
01120               0.00   -19800.00
01121               0.40   -19600.00
01122               0.80   -19400.00
01123              -0.20   -19200.00
01124               0.40   -19000.00
01125               0.60   -18800.00
01126               0.40   -18600.00
01127               0.80   -18400.00
01128               0.40   -18000.00
01129               0.40   -17800.00
01130               0.20   -17600.00
01131               0.00   -17200.00
01132               0.20   -17000.00
01133               0.40   -16800.00
01134               0.40   -16400.00
01135               0.20   -16200.00
01136               1.00   -16000.00
01137               0.20   -15600.00
01138              -0.60   -15400.00
01139               0.60   -15200.00
01140               0.60   -14600.00
01141              -0.20   -14600.00
01142               0.20   -14000.00
01143               0.40   -13800.00
01144               0.40   -13200.00
01145              -0.20   -13000.00
01146              -0.20   -12800.00
01147               1.20   -12400.00
01148              -0.40   -12000.00
01149              -0.40   -11600.00
01150               0.80   -11200.00
01151              -0.60   -10800.00
01152              -1.00   -10400.00
01153               0.60   -10000.00
01154               0.80    -9800.00
01155              -1.40    -9200.00
01156               0.20    -9200.00
01157               1.40    -8600.00
01158              -1.60    -8200.00
01159              -0.60    -8000.00
01160               0.80    -7400.00
01161              -0.60    -7200.00
01162              -0.80    -6600.00
01163               0.20    -6200.00
01164              -0.40    -5800.00
01165              -0.40    -5400.00
01166              -0.60    -5000.00
01167              -0.40    -4600.00
01168              -0.40    -4200.00
01169              -0.40    -3800.00
01170              -0.40    -3400.00
01171               0.20    -2800.00
01172              -0.40    -2600.00
01173              -0.60    -2200.00
01174              -0.60    -1600.00
01175              -0.20    -1400.00
01176              -0.80     -800.00
01177              -0.40     -400.00
01178               0.00        0.00
01179               0.20      400.00
01180               1.20      800.00
01181               3.00     1200.00
01182              -2.00     1400.00
01183              -1.20     1800.00
01184               2.60     2200.00
01185               0.40     2600.00
01186              -2.60     3000.00
01187               3.40     3200.00
01188              10.60     3800.00
01189              23.60     4600.00
01190             -12.20     5000.00
01191             -25.00     5400.00
01192               7.00     5600.00
01193              25.00     6200.00
01194             -25.00     6400.00
01195             -25.00     6600.00
01196              25.00     7200.00
01197              25.00     7600.00
01198             -25.00     7800.00
01199              25.00     8400.00
01200              25.00     8600.00
01201             -25.00     9000.00
01202               6.60     9400.00
01203              25.00     9800.00
01204             -25.00    10400.00
01205             -19.80    10600.00
01206              25.00    10800.00
01207              -2.20    11200.00
01208             -25.00    11600.00
01209               7.40    12200.00
01210              25.00    12400.00
01211             -21.60    12800.00
01212             -13.20    13200.00
01213              23.80    13400.00
01214               0.40    13800.00
01215             -20.60    14200.00
01216              -1.20    14400.00
01217              18.00    14800.00
01218              -9.60    15000.00
01219             -11.20    15400.00
01220              19.00    15800.00
01221              -3.40    15800.00
01222             -18.80    16000.00
01223              10.20    16600.00
01224               5.40    16800.00
01225             -15.80    17000.00
01226               4.40    17200.00
01227              11.40    17600.00
01228             -11.20    18000.00
01229              -5.20    18000.00
01230               8.60    18400.00
01231              -6.20    18800.00
01232              -6.60    18800.00
01233               7.00    19000.00
01234              -0.40    19200.00
01235              -5.20    19600.00
01236               1.60    19600.00
01237              -0.60    19800.00
01238              -4.60    20000.00
01239              -1.80    20200.00
01240               2.20    20600.00
01241              -0.40    20600.00
01242              -4.20    20800.00
01243               1.00    21000.00
01244              -0.20    21200.00
01245              -4.60    21200.00
01246              -1.20    21200.00
01247               2.00    21400.00
01248              -1.80    21600.00
01249              -2.20    21600.00
01250               1.60    21600.00
01251              -2.00    21600.00
01252              -3.80    22000.00
01253              -0.20    22000.00
01254               0.20    22000.00
01255              -2.40    22000.00
01256              -1.60    22000.00
01257               1.20    22000.00
01258              -1.80    22000.00
01259              -3.80    22200.00
01260              -0.20    22200.00
01261               0.20    22000.00
01262              -2.60    22000.00
01263              -0.20    22200.00
01264               0.20    22000.00
01265              -2.20    22000.00
01266              -1.80    22000.00
01267              -0.40    22000.00
01268              -1.40    22000.00
01269              -1.80    22000.00
01270              -0.20    21800.00
01271              -1.00    21800.00
01272              -1.40    21600.00
01273              -1.20    21600.00
01274              -1.60    21600.00
01275              -1.20    21200.00
01276              -0.60    21200.00
01277              -1.20    21200.00
01278              -0.60    21000.00
01279              -0.60    20800.00
01280              -1.80    20600.00
01281              -1.00    20600.00
01282              -0.60    20400.00
01283              -2.60    20000.00
01284              -1.20    19800.00
01285               0.20    19600.00
01286              -2.00    19600.00
01287              -2.00    19200.00
01288               0.20    19200.00
01289              -1.80    19000.00
01290              -2.00    18800.00
01291              -0.40    18600.00
01292              -1.00    18400.00
01293              -2.00    18000.00
01294              -0.40    18000.00
01295              -1.40    17400.00
01296              -2.00    17200.00
01297              -0.60    17000.00
01298              -1.20    16600.00
01299              -1.40    16400.00
01300              -0.60    16000.00
01301              -1.40    15800.00
01302              -1.20    15600.00
01303              -0.80    15400.00
01304              -1.80    15000.00
01305              -1.40    14400.00
01306              -0.40    14400.00
01307              -1.00    14000.00
01308              -1.20    13600.00
01309              -0.20    13400.00
01310              -1.00    12800.00
01311              -1.40    12600.00
01312              -0.20    12400.00
01313              -1.00    11800.00
01314              -1.60    11600.00
01315              -0.40    11200.00
01316              -1.00    10800.00
01317              -1.40    10400.00
01318              -0.40    10200.00
01319              -0.60     9600.00
01320              -1.00     9200.00
01321              -0.40     9000.00
01322              -0.60     8400.00
01323              -0.60     8200.00
01324              -0.60     8000.00
01325              -0.60     7400.00
01326              -0.60     7000.00
01327              -0.60     6600.00
01328              -0.60     6200.00
01329              -0.60     6000.00
01330              -0.20     5400.00
01331              -0.40     4800.00
01332              -0.60     4600.00
01333              -0.40     4200.00
01334              -0.60     3800.00
01335              -0.60     3200.00
01336              -0.40     2800.00
01337              -0.40     2400.00
01338              -0.20     2000.00
01339              -0.20     1600.00
01340              -0.60     1200.00
01341              -0.40      800.00
01342               0.20      400.00
01343              -0.20        0.00
01344               0.20     -400.00
01345               1.20     -800.00
01346               2.80    -1200.00
01347              -2.20    -1600.00
01348              -1.20    -2000.00
01349               2.20    -2200.00
01350               0.20    -2800.00
01351              -2.00    -3000.00
01352               6.60    -3400.00
01353              25.00    -4000.00
01354               7.40    -4600.00
01355             -25.00    -5200.00
01356              -4.80    -5600.00
01357              25.00    -5800.00
01358             -25.00    -6000.00
01359             -25.00    -6000.00
01360              25.00    -7000.00
01361              -5.40    -7400.00
01362             -25.00    -7400.00
01363              25.00    -8400.00
01364              25.00    -8400.00
01365             -25.00    -8800.00
01366              25.00    -9400.00
01367              25.00    -9200.00
01368             -25.00   -10000.00
01369              25.00   -10400.00
01370              18.80   -10600.00
01371              -9.60   -11200.00
01372             -24.60   -11400.00
01373               8.20   -11800.00
01374              25.00   -12200.00
01375             -25.00   -12400.00
01376               8.20   -13000.00
01377              20.20   -13000.00
01378              -8.60   -13600.00
01379             -10.80   -14200.00
01380              -3.80   -14200.00
01381              24.00   -14400.00
01382             -16.60   -14800.00
01383              -5.80   -15400.00
01384              25.00   -15600.00
01385             -16.60   -15800.00
01386             -10.00   -16200.00
01387              16.20   -16400.00
01388              -2.60   -16600.00
01389             -11.00   -17000.00
01390              12.40   -17000.00
01391               7.00   -17400.00
01392             -12.60   -17800.00
01393               5.80   -18000.00
01394               4.20   -18400.00
01395              -9.20   -18400.00
01396               2.20   -18800.00
01397               8.40   -19000.00
01398              -3.40   -19200.00
01399               0.40   -19400.00
01400               5.00   -19600.00
01401              -3.40   -19800.00
01402              -0.60   -20000.00
01403               0.20   -20200.00
01404               4.20   -20200.00
01405               0.40   -20400.00
01406              -1.60   -20600.00
01407               5.20   -20800.00
01408              -2.40   -21000.00
01409              -2.80   -21000.00
01410               3.00   -21200.00
01411               2.40   -21200.00
01412              -1.80   -21200.00
01413               0.80   -21600.00
01414               4.60   -21800.00
01415              -2.60   -21800.00
01416              -2.80   -21800.00
01417               3.40   -22000.00
01418               0.40   -22000.00
01419              -1.00   -22000.00
01420               2.60   -22000.00
01421               1.80   -22200.00
01422              -1.80   -22000.00
01423              -0.60   -22000.00
01424               2.60   -22000.00
01425              -0.80   -22200.00
01426              -1.00   -22200.00
01427               3.40   -22000.00
01428               0.60   -22200.00
01429              -0.80   -22200.00
01430               0.20   -22200.00
01431               1.20   -22200.00
01432               0.60   -22000.00
01433              -0.60   -22000.00
01434               1.80   -22000.00
01435               1.00   -22000.00
01436              -0.60   -21600.00
01437               0.40   -21800.00
01438               0.60   -21600.00
01439               0.40   -21400.00
01440              -0.20   -21400.00
01441               2.00   -21200.00
01442               1.40   -21200.00
01443              -1.20   -20800.00
01444               0.60   -20800.00
01445               1.00   -20800.00
01446              -0.20   -20400.00
01447               0.40   -20400.00
01448               1.20   -20000.00
01449               0.60   -20000.00
01450               0.60   -19800.00
01451               0.60   -19600.00
01452               0.40   -19400.00
01453              -0.20   -19200.00
01454               0.40   -19200.00
01455               0.40   -18800.00
01456               1.00   -18600.00
01457               0.40   -18200.00
01458               0.20   -18000.00
01459               0.60   -17800.00
01460               0.40   -17400.00
01461              -0.20   -17200.00
01462               0.60   -17000.00
01463               1.20   -16800.00
01464               0.20   -16400.00
01465               0.20   -16200.00
01466               1.20   -15800.00
01467              -0.40   -15600.00
01468              -0.20   -15200.00
01469               1.00   -14800.00
01470              -0.60   -14600.00
01471               0.20   -14400.00
01472               1.00   -14000.00
01473               0.20   -13600.00
01474              -0.40   -13200.00
01475               0.40   -13000.00
01476               0.20   -12800.00
01477              -0.20   -12200.00
01478               0.20   -12000.00
01479               0.40   -11600.00
01480              -0.40   -11200.00
01481               0.40   -10800.00
01482               0.20   -10600.00
01483              -0.40   -10200.00
01484              -0.20    -9600.00
01485              -0.60    -9600.00
01486              -0.40    -9000.00
01487               0.20    -8400.00
01488              -0.60    -8200.00
01489              -0.20    -8000.00
01490               0.20    -7400.00
01491              -0.20    -7200.00
01492              -0.40    -6600.00
01493              -0.40    -6200.00
01494              -0.20    -5800.00
01495              -0.40    -5200.00
01496              -1.00    -5000.00
01497              -0.20    -4400.00
01498              -0.40    -4200.00
01499              -0.60    -3800.00
01500              -0.40    -3400.00
01501               0.00    -2800.00
01502              -0.40    -2400.00
01503              -0.20    -2000.00
01504              -0.40    -1600.00
01505              -1.00    -1200.00
01506               0.20     -800.00
01507              -0.60     -400.00
01508              -0.60        0.00
01509               1.00      400.00
01510               2.20      800.00
01511               1.60     1200.00
01512              -2.00     1600.00
01513              -0.20     1800.00
01514               2.00     2400.00
01515              -0.20     2800.00
01516              -2.00     3000.00
01517               4.40     3600.00
01518              13.00     4000.00
01519              22.80     4600.00
01520             -22.60     5200.00
01521             -25.00     5600.00
01522              18.00     5800.00
01523              21.00     6200.00
01524             -25.00     6400.00
01525             -18.60     6800.00
01526              25.00     7200.00
01527               5.60     7600.00
01528             -25.00     8200.00
01529              25.00     8400.00
01530              25.00     8600.00
01531             -25.00     9200.00
01532              25.00     9600.00
01533              25.00    10000.00
01534             -25.00    10400.00
01535              -2.00    10600.00
01536              25.00    10800.00
01537             -14.00    11200.00
01538             -25.00    11600.00
01539              18.00    12000.00
01540              24.00    12600.00
01541             -25.00    13000.00
01542              -4.20    13200.00
01543              23.40    13600.00
01544              -6.00    13800.00
01545             -19.60    14200.00
01546               3.00    14600.00
01547              17.00    15000.00
01548             -15.00    15200.00
01549              -6.40    15600.00
01550              20.20    15600.00
01551             -10.00    16000.00
01552             -15.20    16400.00
01553              14.00    16600.00
01554               1.20    16800.00
01555             -16.20    17200.00
01556               8.60    17400.00
01557               8.40    17600.00
01558             -13.40    18000.00
01559              -1.80    18200.00
01560               7.60    18400.00
01561              -8.00    18800.00
01562              -3.00    19000.00
01563               6.80    19200.00
01564              -3.00    19200.00
01565              -3.40    19600.00
01566               1.80    19800.00
01567              -2.20    20000.00
01568              -4.20    20000.00
01569               0.20    20400.00
01570               1.80    20400.00
01571              -1.60    20600.00
01572              -2.60    21000.00
01573               1.00    21000.00
01574              -1.80    21000.00
01575              -3.80    21200.00
01576              -0.60    21200.00
01577               0.40    21400.00
01578              -1.80    21400.00
01579              -2.00    21600.00
01580               1.20    21800.00
01581              -2.20    21600.00
01582              -3.80    21800.00
01583               0.80    22000.00
01584               0.20    22000.00
01585              -2.80    22200.00
01586              -0.60    22000.00
01587               1.40    22000.00
01588              -3.00    22000.00
01589              -2.80    22200.00
01590               1.20    22000.00
01591              -1.20    22000.00
01592              -2.60    22200.00
01593               0.60    22000.00
01594              -0.60    22000.00
01595              -2.20    22000.00
01596              -1.20    22000.00
01597              -1.00    22000.00
01598              -1.40    22000.00
01599              -1.20    21800.00
01600              -1.00    21800.00
01601              -1.00    21800.00
01602              -1.20    21600.00
01603              -1.80    21400.00
01604              -1.00    21400.00
01605              -0.60    21200.00
01606              -2.20    21200.00
01607              -0.60    21000.00
01608              -0.60    20800.00
01609              -2.20    20800.00
01610              -1.20    20600.00
01611              -0.60    20400.00
01612              -1.20    20200.00
01613              -2.00    20000.00
01614               0.40    19800.00
01615              -0.60    19800.00
01616              -2.60    19600.00
01617              -0.60    19200.00
01618              -1.00    19000.00
01619              -2.80    19000.00
01620              -0.60    18800.00
01621              -0.60    18400.00
01622              -1.80    18200.00
01623              -1.00    18000.00
01624              -0.40    17600.00
01625              -2.00    17400.00
01626              -2.00    17200.00
01627              -0.60    16800.00
01628              -1.40    16600.00
01629              -1.40    16400.00
01630              -0.40    16000.00
01631              -1.00    15800.00
01632              -1.80    15600.00
01633              -0.60    15200.00
01634              -1.00    14800.00
01635              -1.20    14600.00
01636              -0.60    14200.00
01637              -1.00    14000.00
01638              -1.20    13600.00
01639              -1.20    13400.00
01640              -0.60    12800.00
01641              -1.40    12400.00
01642              -1.20    12200.00
01643              -0.40    11800.00
01644              -1.00    11600.00
01645              -0.60    11200.00
01646              -0.60    10800.00
01647              -1.00    10400.00
01648              -0.60    10000.00
01649              -1.00     9600.00
01650              -0.60     9200.00
01651              -0.60     8800.00
01652              -0.40     8600.00
01653              -0.60     8200.00
01654              -0.80     7800.00
01655              -1.00     7400.00
01656              -0.60     6800.00
01657              -0.60     6600.00
01658              -0.60     6200.00
01659              -0.40     5800.00
01660              -0.40     5200.00
01661              -0.60     4800.00
01662              -0.40     4400.00
01663              -0.40     4200.00
01664              -0.40     3600.00
01665              -0.20     3200.00
01666              -0.60     2800.00
01667              -0.60     2200.00
01668               0.20     2000.00
01669              -0.60     1600.00
01670              -1.00     1200.00
01671              -0.40      600.00
01672              -0.20      200.00
01673              -0.40        0.00
01674               0.40     -600.00
01675               1.60    -1000.00
01676               2.00    -1200.00
01677              -2.20    -1800.00
01678              -0.60    -2000.00
01679               2.20    -2400.00
01680              -0.60    -2800.00
01681              -1.80    -3200.00
01682               9.40    -3400.00
01683              25.00    -4200.00
01684              -7.80    -5000.00
01685             -25.00    -5200.00
01686              10.20    -5600.00
01687              25.00    -6000.00
01688             -25.00    -6000.00
01689             -12.60    -6000.00
01690              25.00    -7200.00
01691             -25.00    -7200.00
01692             -25.00    -7600.00
01693              25.00    -8400.00
01694              -9.20    -8400.00
01695             -25.00    -9000.00
01696              25.00    -9400.00
01697              -4.20    -9200.00
01698             -25.00   -10000.00
01699              25.00   -10400.00
01700               8.00   -10600.00
01701              -9.00   -11400.00
01702             -25.00   -11400.00
01703              18.60   -12000.00
01704              21.40   -12200.00
01705             -25.00   -12400.00
01706              17.00   -13000.00
01707              14.80   -13200.00
01708             -10.00   -13800.00
01709             -12.60   -14200.00
01710               3.20   -14400.00
01711              21.80   -14600.00
01712             -23.60   -14800.00
01713               5.40   -15400.00
01714              25.00   -15600.00
01715             -22.20   -15800.00
01716              -2.80   -16200.00
01717              15.40   -16400.00
01718              -6.80   -16800.00
01719              -8.00   -17000.00
01720              15.00   -17200.00
01721               1.80   -17400.00
01722             -10.80   -17800.00
01723               9.00   -18200.00
01724               1.00   -18400.00
01725              -9.00   -18600.00
01726               5.20   -18600.00
01727               6.80   -19200.00
01728              -5.00   -19200.00
01729               2.40   -19400.00
01730               4.00   -19600.00
01731              -3.60   -19800.00
01732              -1.20   -20000.00
01733               1.20   -20200.00
01734               5.00   -20200.00
01735              -2.00   -20400.00
01736               0.60   -20600.00
01737               5.20   -20800.00
01738              -4.40   -21000.00
01739              -1.60   -21200.00
01740               4.40   -21200.00
01741               1.20   -21400.00
01742              -2.00   -21400.00
01743               2.60   -21600.00
01744               4.40   -21800.00
01745              -3.60   -21800.00
01746              -1.40   -21800.00
01747               4.00   -22000.00
01748              -0.60   -22000.00
01749              -1.00   -22000.00
01750               2.80   -22000.00
01751               2.00   -22000.00
01752              -2.60   -22400.00
01753              -0.20   -22200.00
01754               4.00   -22400.00
01755              -2.00   -22000.00
01756              -0.40   -22200.00
01757               4.20   -22000.00
01758              -0.60   -22200.00
01759              -1.20   -22000.00
01760               1.20   -22200.00
01761               0.60   -22000.00
01762              -0.60   -22000.00
01763               1.40   -22000.00
01764               1.80   -21800.00
01765              -0.60   -21800.00
01766               1.00   -21800.00
01767               0.40   -21600.00
01768               0.20   -21600.00
01769               0.60   -21400.00
01770               0.20   -21400.00
01771               1.20   -21200.00
01772               1.40   -21000.00
01773               0.20   -21000.00
01774               0.40   -20800.00
01775               0.40   -20800.00
01776               0.40   -20400.00
01777               0.20   -20200.00
01778               1.20   -20200.00
01779               1.00   -20000.00
01780              -0.20   -19600.00
01781               0.60   -19600.00
01782               1.00   -19400.00
01783              -0.40   -19200.00
01784               0.40   -19000.00
01785               2.00   -18800.00
01786               0.40   -18400.00
01787              -0.20   -18200.00
01788               1.00   -18000.00
01789               0.20   -17800.00
01790              -0.60   -17400.00
01791               0.40   -17200.00
01792               0.60   -17000.00
01793               0.40   -16800.00
01794               0.40   -16400.00
01795               0.60   -16200.00
01796               0.60   -15800.00
01797              -0.20   -15600.00
01798               0.20   -15200.00
01799               0.60   -14800.00
01800              -0.20   -14600.00
01801               0.20   -14400.00
01802               0.60   -14000.00
01803               0.00   -13600.00
01804              -0.40   -13200.00
01805              -0.20   -13000.00
01806               0.40   -12600.00
01807              -0.40   -12200.00
01808              -0.20   -12000.00
01809               0.60   -11400.00
01810              -0.60   -11200.00
01811              -0.40   -10800.00
01812               0.20   -10400.00
01813               0.20   -10000.00
01814              -0.20    -9600.00
01815              -0.60    -9200.00
01816               0.20    -8800.00
01817               0.00    -8600.00
01818              -1.00    -8000.00
01819              -0.40    -7800.00
01820               0.60    -7400.00
01821              -0.80    -7000.00
01822              -0.60    -6600.00
01823               0.40    -6000.00
01824               0.20    -5600.00
01825              -1.40    -5200.00
01826              -0.40    -4800.00
01827               0.40    -4400.00
01828              -1.60    -4200.00
01829              -0.40    -3600.00
01830               1.00    -3200.00
01831              -1.00    -2800.00
01832              -1.00    -2400.00
01833               0.40    -2000.00
01834              -0.20    -1600.00
01835              -0.60    -1200.00
01836              -0.60     -600.00
01837              -0.60     -400.00
01838               0.20        0.00
01839               0.60      400.00
01840               2.40      800.00
01841               0.40     1400.00
01842              -2.00     1600.00
01843               0.60     2000.00
01844               2.20     2400.00
01845              -1.00     2800.00
01846              -1.80     3000.00
01847               6.40     3600.00
01848              15.80     4000.00
01849              18.80     4600.00
01850             -25.00     5000.00
01851             -25.00     5600.00
01852              25.00     5800.00
01853              10.40     6200.00
01854             -25.00     6400.00
01855              -1.20     6800.00
01856              25.00     7600.00
01857             -25.00     7600.00
01858             -25.00     8200.00
01859              25.00     8400.00
01860              12.20     8600.00
01861             -25.00     9200.00
01862              25.00     9600.00
01863              25.00    10000.00
01864             -25.00    10400.00
01865              14.80    10800.00
01866              25.00    11000.00
01867             -23.00    11400.00
01868             -25.00    11600.00
01869              25.00    12400.00
01870              15.00    12600.00
01871             -25.00    13000.00
01872               3.80    13200.00
01873              21.80    13600.00
01874             -11.80    14000.00
01875             -17.80    14400.00
01876               9.80    14600.00
01877              12.20    15000.00
01878             -18.20    15200.00
01879               1.20    15600.00
01880              17.00    15800.00
01881             -15.40    16000.00
01882              -8.60    16400.00
01883              14.20    16600.00
01884              -5.00    17000.00
01885             -12.00    17200.00
01886              11.60    17400.00
01887               2.80    17600.00
01888             -13.00    18000.00
01889               2.20    18200.00
01890               4.40    18400.00
01891              -9.40    18800.00
01892              -0.20    19000.00
01893               6.80    19200.00
01894              -5.00    19600.00
01895              -2.60    19600.00
01896               2.20    19600.00
01897              -2.80    20000.00
01898              -4.20    20000.00
01899               0.40    20400.00
01900               2.20    20400.00
01901              -3.00    20600.00
01902              -1.80    20600.00
01903               1.80    21000.00
01904              -3.00    21200.00
01905              -3.80    21200.00
01906               1.20    21200.00
01907               1.20    21400.00
01908              -3.00    21400.00
01909              -1.20    21600.00
01910               1.00    21800.00
01911              -3.40    21800.00
01912              -2.80    21800.00
01913               1.20    22000.00
01914              -0.60    22000.00
01915              -2.00    22000.00
01916              -0.40    22000.00
01917               0.40    22000.00
01918              -3.00    22200.00
01919              -2.80    22000.00
01920               1.00    22000.00
01921              -1.60    22000.00
01922              -2.20    22200.00
01923               0.40    22200.00
01924              -0.60    22000.00
01925              -2.60    22000.00
01926              -0.80    22000.00
01927              -0.40    22000.00
01928              -1.80    22000.00
01929              -1.20    22000.00
01930              -0.40    21800.00
01931              -1.00    21600.00
01932              -2.20    21600.00
01933              -1.40    21400.00
01934              -1.40    21400.00
01935              -0.60    21200.00
01936              -1.80    21200.00
01937              -1.40    21000.00
01938               0.20    20800.00
01939              -2.20    20600.00
01940              -1.20    20600.00
01941              -0.60    20400.00
01942              -2.20    20200.00
01943              -1.40    20000.00
01944               1.00    19800.00
01945              -1.80    19600.00
01946              -2.20    19600.00
01947               0.00    19200.00
01948              -1.40    19200.00
01949              -3.00    18800.00
01950              -0.20    18800.00
01951              -1.20    18400.00
01952              -2.00    18200.00
01953              -0.20    18000.00
01954              -0.60    17600.00
01955              -2.00    17400.00
01956              -1.00    17200.00
01957              -1.00    16800.00
01958              -1.40    16600.00
01959              -0.40    16200.00
01960              -0.60    16000.00
01961              -1.80    15600.00
01962              -0.60    15600.00
01963              -0.60    15200.00
01964              -1.80    14800.00
01965              -0.60    14400.00
01966              -0.60    14200.00
01967              -1.20    13800.00
01968              -1.00    13600.00
01969              -1.00    13200.00
01970              -1.00    12800.00
01971              -1.40    12600.00
01972              -0.60    12200.00
01973              -0.40    11800.00
01974              -1.00    11400.00
01975              -0.60    11200.00
01976              -0.40    10800.00
01977              -1.00    10200.00
01978              -1.20    10000.00
01979              -0.60     9600.00
01980              -0.60     9400.00
01981              -1.00     8800.00
01982              -0.60     8400.00
01983              -0.60     8000.00
01984              -0.60     7800.00
01985              -0.60     7200.00
01986              -0.60     6800.00
01987              -0.40     6400.00
01988              -0.40     6000.00
01989              -1.00     5600.00
01990              -0.60     5200.00
01991              -0.20     4800.00
01992              -0.60     4400.00
01993              -0.60     4000.00
01994              -0.20     3600.00
01995              -0.40     3000.00
01996              -0.60     2800.00
01997              -0.40     2200.00
01998              -0.20     2000.00
01999              -0.80     1600.00
02000              -0.60     1000.00
02001              -0.60      600.00
02002              -0.60      200.00
02003              -0.20     -200.00
02004               0.40     -600.00
02005               2.60    -1000.00
02006               1.40    -1400.00
02007              -2.80    -1800.00
02008              -0.60    -2000.00
02009               2.20    -2600.00
02010              -1.20    -2800.00
02011              -1.20    -3200.00
02012              12.60    -3400.00
02013              25.00    -4400.00
02014             -23.80    -5000.00
02015             -25.00    -5200.00
02016              24.20    -5800.00
02017              23.40    -6000.00
02018             -25.00    -6000.00
02019              19.40    -6200.00
02020              25.00    -7200.00
02021             -25.00    -7200.00
02022             -25.00    -7800.00
02023              25.00    -8400.00
02024             -25.00    -8400.00
02025             -25.00    -9200.00
02026              25.00    -9200.00
02027             -25.00    -9200.00
02028             -25.00   -10200.00
02029              25.00   -10400.00
02030              -0.80   -10800.00
02031             -11.00   -11400.00
02032             -23.80   -11400.00
02033              25.00   -12000.00
02034               8.20   -12000.00
02035             -25.00   -12800.00
02036              23.80   -13000.00
02037               8.40   -13200.00
02038             -10.20   -13800.00
02039             -13.40   -14000.00
02040              10.60   -14400.00
02041              15.40   -14600.00
02042             -25.00   -14800.00
02043              16.60   -15200.00
02044              17.00   -15600.00
02045             -25.00   -16000.00
02046               4.20   -16200.00
02047              13.20   -16400.00
02048             -10.00   -16800.00
02049              -3.80   -17000.00
02050              16.40   -17400.00
02051              -3.60   -17600.00
02052              -8.40   -17800.00
02053              10.40   -18200.00
02054              -2.20   -18400.00
02055              -7.40   -18600.00
02056               7.00   -18800.00
02057               5.20   -19200.00
02058              -5.20   -19200.00
02059               4.20   -19600.00
02060               1.80   -19600.00
02061              -3.80   -20000.00
02062              -0.40   -20000.00
02063               1.20   -20200.00
02064               4.60   -20200.00
02065              -2.20   -20400.00
02066               1.80   -20800.00
02067               3.40   -21000.00
02068              -3.80   -21000.00
02069              -0.40   -21200.00
02070               3.00   -21200.00
02071               0.40   -21400.00
02072              -1.40   -21600.00
02073               3.60   -21600.00
02074               1.60   -21600.00
02075              -3.40   -21800.00
02076               1.00   -22000.00
02077               1.80   -22000.00
02078              -0.40   -21800.00
02079               1.80   -22000.00
02080               1.40   -22000.00
02081              -0.60   -22200.00
02082              -0.20   -22000.00
02083               0.80   -22200.00
02084              -0.20   -22200.00
02085               1.20   -22200.00
02086               1.80   -22000.00
02087               0.00   -22400.00
02088               1.80   -22400.00
02089               0.40   -22200.00
02090              -1.60   -22200.00
02091               1.80   -22000.00
02092               0.80   -21800.00
02093               0.20   -22000.00
02094               0.40   -21800.00
02095               1.40   -21800.00
02096               0.40   -21800.00
02097              -0.40   -21600.00
02098               0.60   -21600.00
02099               0.40   -21400.00
02100              -0.20   -21200.00
02101               1.20   -21200.00
02102               1.80   -21000.00
02103               0.20   -20800.00
02104              -0.60   -20800.00
02105               1.80   -20600.00
02106               0.40   -20400.00
02107               0.00   -20200.00
02108               0.60   -20000.00
02109               1.40   -19800.00
02110               0.20   -19800.00
02111               0.20   -19400.00
02112               0.40   -19400.00
02113               0.20   -19200.00
02114               0.20   -18800.00
02115               0.80   -18600.00
02116               1.20   -18400.00
02117               0.20   -18200.00
02118              -0.40   -18000.00
02119               1.20   -17600.00
02120               0.40   -17400.00
02121              -1.20   -17200.00
02122               0.60   -16800.00
02123               1.40   -16600.00
02124              -0.40   -16400.00
02125               0.20   -16000.00
02126               1.20   -15600.00
02127              -0.20   -15400.00
02128              -0.40   -15200.00
02129               0.80   -14800.00
02130               1.00   -14600.00
02131              -0.40   -14000.00
02132              -0.60   -14000.00
02133               0.80   -13600.00
02134              -0.40   -13200.00
02135              -1.00   -12800.00
02136               1.00   -12600.00
02137               0.40   -12000.00
02138              -0.60   -11800.00
02139               0.40   -11600.00
02140               0.40   -11000.00
02141              -0.80   -10800.00
02142              -0.60   -10400.00
02143               0.40   -10000.00
02144               0.40    -9600.00
02145              -0.60    -9200.00
02146               0.40    -8800.00
02147              -0.20    -8600.00
02148              -0.60    -8200.00
02149              -0.40    -7600.00
02150              -0.40    -7200.00
02151              -0.40    -6800.00
02152               0.20    -6400.00
02153              -0.60    -6000.00
02154              -0.20    -5800.00
02155               0.20    -5200.00
02156              -0.40    -4800.00
02157              -1.60    -4400.00
02158               0.60    -4000.00
02159               0.20    -3600.00
02160              -1.80    -3200.00
02161               0.20    -2800.00
02162               1.00    -2400.00
02163              -2.20    -1800.00
02164              -0.60    -1600.00
02165               1.00    -1000.00
02166              -1.40     -600.00
02167              -0.60     -200.00
02168               1.20      200.00
02169               0.20      400.00
02170               2.40     1200.00
02171               0.20     1400.00
02172              -1.80     1600.00
02173               1.00     2000.00
02174               1.00     2400.00
02175              -1.00     2800.00
02176               0.20     3200.00
02177               6.20     3600.00
02178              19.40     4400.00
02179              13.00     4800.00
02180             -25.00     5200.00
02181             -21.80     5400.00
02182              25.00     6000.00
02183              -3.00     6200.00
02184             -25.00     6400.00
02185              19.60     7000.00
02186              25.00     7600.00
02187             -25.00     7600.00
02188             -25.00     8400.00
02189              25.00     8400.00
02190             -25.00     8800.00
02191             -25.00     9200.00
02192              25.00     9600.00
02193               8.60    10000.00
02194             -25.00    10400.00
02195              25.00    10800.00
02196              25.00    11200.00
02197             -25.00    11400.00
02198             -21.20    11800.00
02199              25.00    12200.00
02200               5.00    12600.00
02201             -25.00    13000.00
02202              11.80    13200.00
02203              17.40    13600.00
02204             -17.00    13800.00
02205             -14.20    14400.00
02206              14.80    14600.00
02207               6.20    15000.00
02208             -19.80    15200.00
02209               8.40    15600.00
02210              13.80    15800.00
02211             -20.20    16000.00
02212              -3.20    16400.00
02213              14.00    16600.00
02214              -9.80    17000.00
02215              -8.20    17400.00
02216              13.80    17400.00
02217              -1.20    18000.00
02218             -12.40    18200.00
02219               5.40    18200.00
02220               2.00    18400.00
02221             -10.00    18800.00
02222               2.00    19000.00
02223               5.80    19200.00
02224              -5.80    19400.00
02225              -1.20    19600.00
02226               1.80    19800.00
02227              -3.80    20000.00
02228              -3.80    20000.00
02229               1.00    20400.00
02230               2.00    20600.00
02231              -3.40    20600.00
02232              -0.80    20800.00
02233               1.00    21000.00
02234              -3.00    21200.00
02235              -2.80    21200.00
02236               1.00    21400.00
02237               0.40    21400.00
02238              -2.80    21600.00
02239              -0.20    21600.00
02240               0.60    21600.00
02241              -3.80    21800.00
02242              -2.20    21800.00
02243               1.20    22000.00
02244              -1.40    22000.00
02245              -2.60    22000.00
02246               0.40    22000.00
02247               0.40    22000.00
02248              -3.40    22000.00
02249              -1.80    22200.00
02250               1.00    22200.00
02251              -2.20    22000.00
02252              -1.40    22200.00
02253               0.60    22000.00
02254              -1.40    22000.00
02255              -2.20    22000.00
02256              -0.20    22000.00
02257              -1.00    22000.00
02258              -2.60    22000.00
02259              -0.40    22000.00
02260              -0.40    21800.00
02261              -2.00    21600.00
02262              -1.20    21600.00
02263              -1.20    21400.00
02264              -1.80    21200.00
02265              -0.60    21200.00
02266              -1.20    21200.00
02267              -1.00    21000.00
02268              -0.60    20800.00
02269              -1.40    20600.00
02270              -1.20    20600.00
02271              -1.20    20400.00
02272              -1.80    20000.00
02273              -1.40    20000.00
02274              -0.40    19800.00
02275              -1.40    19600.00
02276              -1.20    19400.00
02277              -1.00    19200.00
02278              -1.20    19000.00
02279              -1.40    18800.00
02280              -1.00    18600.00
02281              -1.00    18400.00
02282              -1.20    18200.00
02283              -1.40    17800.00
02284              -0.60    17600.00
02285              -1.80    17200.00
02286              -1.40    17000.00
02287              -0.20    16800.00
02288              -1.20    16400.00
02289              -1.20    16400.00
02290              -0.20    16000.00
02291              -1.40    15600.00
02292              -1.60    15600.00
02293              -0.60    15200.00
02294              -1.20    14800.00
02295              -1.60    14400.00
02296              -0.20    14200.00
02297              -0.60    13800.00
02298              -1.20    13400.00
02299              -0.40    13000.00
02300              -1.00    12600.00
02301              -1.40    12400.00
02302              -0.60    12200.00
02303              -0.40    11800.00
02304              -1.20    11400.00
02305              -1.20    11000.00
02306              -0.40    10800.00
02307              -0.60    10200.00
02308              -1.00    10000.00
02309              -0.60     9400.00
02310              -0.20     9200.00
02311              -0.60     8800.00
02312              -1.20     8400.00
02313              -0.20     7800.00
02314               0.00     7600.00
02315              -1.80     7200.00
02316              -1.00     6800.00
02317               0.40     6400.00
02318              -0.80     6000.00
02319              -1.20     5600.00
02320               0.60     5200.00
02321              -1.20     4600.00
02322              -1.20     4200.00
02323               0.20     4000.00
02324              -1.20     3400.00
02325              -1.20     3200.00
02326               0.20     2600.00
02327              -0.60     2400.00
02328              -0.60     1800.00
02329               0.00     1600.00
02330              -0.60     1000.00
02331              -0.60      600.00
02332              -0.20      200.00
02333              -0.60     -200.00
02334               0.00     -800.00
02335               3.40     -800.00
02336              -0.20    -1400.00
02337              -3.00    -1800.00
02338               1.20    -2000.00
02339               1.80    -2600.00
02340              -2.40    -2800.00
02341               1.20    -3200.00
02342              16.20    -3600.00
02343              25.00    -4400.00
02344             -25.00    -5000.00
02345             -25.00    -5400.00
02346              25.00    -5800.00
02347              10.00    -6000.00
02348             -25.00    -6000.00
02349              25.00    -6400.00
02350              25.00    -7200.00
02351             -25.00    -7200.00
02352              25.00    -8000.00
02353              25.00    -8400.00
02354             -25.00    -8400.00
02355             -19.60    -9200.00
02356              25.00    -9200.00
02357             -25.00    -9400.00
02358              -3.40   -10400.00
02359              25.00   -10400.00
02360              -6.40   -10800.00
02361             -14.00   -11400.00
02362             -18.20   -11400.00
02363              25.00   -12000.00
02364              -6.20   -12200.00
02365             -21.80   -12800.00
02366              25.00   -13200.00
02367               1.80   -13200.00
02368              -9.80   -13800.00
02369             -13.00   -14000.00
02370              17.80   -14400.00
02371               7.00   -14600.00
02372             -25.00   -14800.00
02373              25.00   -15400.00
02374               6.80   -15600.00
02375             -24.20   -16000.00
02376              10.60   -16400.00
02377               9.00   -16400.00
02378             -12.40   -16800.00
02379               1.80   -17000.00
02380              15.60   -17200.00
02381              -8.20   -17400.00
02382              -3.80   -18000.00
02383              10.00   -18200.00
02384              -6.00   -18400.00
02385              -4.60   -18600.00
02386               8.60   -18800.00
02387               2.00   -19200.00
02388              -3.80   -19200.00
02389               5.80   -19400.00
02390              -0.60   -19600.00
02391              -3.00   -20000.00
02392               0.40   -20200.00
02393               1.40   -20200.00
02394               3.60   -20200.00
02395              -2.20   -20400.00
02396               2.80   -20800.00
02397               1.80   -20800.00
02398              -3.40   -21000.00
02399               0.40   -21200.00
02400               2.60   -21200.00
02401               0.60   -21400.00
02402              -1.60   -21600.00
02403               3.60   -21600.00
02404               1.80   -21800.00
02405              -3.80   -21800.00
02406               1.00   -22000.00
02407               2.60   -21800.00
02408              -1.00   -22000.00
02409               0.40   -22000.00
02410               3.20   -22000.00
02411               0.40   -22200.00
02412              -2.60   -22000.00
02413               1.40   -22200.00
02414               2.00   -22200.00
02415              -2.60   -22000.00
02416               1.80   -22200.00
02417               3.00   -22200.00
02418              -0.60   -22200.00
02419              -0.20   -22000.00
02420               0.60   -22000.00
02421               1.00   -22000.00
02422               0.20   -22000.00
02423               1.00   -22000.00
02424               1.00   -21800.00
02425               0.20   -21800.00
02426               0.40   -21800.00
02427               0.20   -21600.00
02428               1.20   -21400.00
02429              -0.20   -21400.00
02430               0.20   -21200.00
02431               2.60   -21200.00
02432               0.20   -21000.00
02433              -0.40   -20800.00
02434               1.20   -20800.00
02435               0.40   -20600.00
02436               0.20   -20200.00
02437               0.40   -20200.00
02438               1.40   -20200.00
02439               0.60   -19800.00
02440               0.40   -19600.00
02441               0.40   -19600.00
02442              -0.20   -19200.00
02443               0.20   -19000.00
02444               0.60   -19000.00
02445               0.60   -18600.00
02446               0.60   -18400.00
02447               0.40   -18000.00
02448               0.60   -17800.00
02449               0.40   -17400.00
02450               0.40   -17200.00
02451               0.20   -17200.00
02452               0.60   -16800.00
02453               1.00   -16600.00
02454              -0.40   -16400.00
02455               0.20   -16000.00
02456               0.40   -15600.00
02457              -0.60   -15400.00
02458               0.20   -15200.00
02459               0.60   -14800.00
02460               0.20   -14400.00
02461               0.00   -14000.00
02462               0.20   -13800.00
02463               0.20   -13400.00
02464              -0.40   -13000.00
02465              -0.40   -12800.00
02466               0.20   -12400.00
02467              -0.20   -12000.00
02468               0.20   -11600.00
02469               0.20   -11400.00
02470              -0.20   -11000.00
02471              -0.20   -10600.00
02472              -0.20   -10000.00
02473              -0.20   -10000.00
02474              -0.40    -9600.00
02475              -0.60    -9200.00
02476              -0.20    -8800.00
02477              -0.20    -8400.00
02478              -0.40    -8000.00
02479              -0.60    -7600.00
02480               0.20    -7200.00
02481               0.20    -6800.00
02482              -0.60    -6400.00
02483              -0.20    -6000.00
02484               0.40    -5600.00
02485              -1.00    -5000.00
02486              -0.40    -4600.00
02487              -0.20    -4400.00
02488              -0.60    -4000.00
02489              -0.60    -3400.00
02490               0.20    -3000.00
02491              -0.60    -2600.00
02492              -0.40    -2200.00
02493              -0.60    -1800.00
02494              -0.20    -1600.00
02495              -0.60    -1000.00
02496              -0.60     -400.00
02497              -0.20     -200.00
02498               0.40      400.00
02499               1.00      800.00
02500               3.60     1000.00
02501              -1.20     1400.00
02502              -1.80     1800.00
02503               2.20     2200.00
02504               0.60     2600.00
02505              -2.00     2800.00
02506               1.80     3200.00
02507               7.00     3600.00
02508              21.20     4400.00
02509               5.20     4800.00
02510             -25.00     5400.00
02511             -11.40     5600.00
02512              25.00     6000.00
02513             -15.80     6200.00
02514             -25.00     6400.00
02515              25.00     7200.00
02516              25.00     7600.00
02517             -25.00     7800.00
02518              -6.80     8400.00
02519              25.00     8400.00
02520             -25.00     8800.00
02521             -25.00     9400.00
02522              25.00     9600.00
02523             -20.60    10200.00
02524             -25.00    10400.00
02525              25.00    10800.00
02526              14.80    11200.00
02527             -25.00    11600.00
02528              -8.60    12000.00
02529              25.00    12400.00
02530              -7.00    12800.00
02531             -24.40    13200.00
02532              17.80    13400.00
02533              10.60    13600.00
02534             -19.20    14200.00
02535             -10.00    14200.00
02536              17.40    14800.00
02537              -0.60    15200.00
02538             -18.40    15600.00
02539              14.60    15600.00
02540               7.60    15800.00
02541             -22.00    16200.00
02542               3.60    16400.00
02543              11.80    16600.00
02544             -14.00    17200.00
02545              -3.00    17200.00
02546              14.20    17600.00
02547              -6.20    17800.00
02548             -10.00    18200.00
02549               8.40    18400.00
02550              -1.80    18800.00
02551              -9.20    18800.00
02552               5.00    19000.00
02553               3.40    19200.00
02554              -6.80    19600.00
02555               0.40    19600.00
02556               1.80    19800.00
02557              -5.00    20000.00
02558              -3.20    20200.00
02559               2.80    20400.00
02560               0.40    20400.00
02561              -3.80    20600.00
02562               0.40    21000.00
02563               0.40    21000.00
02564              -3.80    21200.00
02565              -2.80    21200.00
02566               1.40    21400.00
02567              -0.40    21400.00
02568              -3.40    21600.00
02569               1.20    21600.00
02570               0.20    21600.00
02571              -4.60    22000.00
02572              -0.40    22000.00
02573               1.20    22000.00
02574              -3.00    22000.00
02575              -1.80    22200.00
02576               1.40    22200.00
02577              -1.20    22000.00
02578              -3.60    22200.00
02579              -0.40    22200.00
02580               0.60    22200.00
02581              -2.80    22000.00
02582               0.20    22000.00
02583              -0.20    22000.00
02584              -3.40    22000.00
02585              -1.20    22000.00
02586              -0.20    22000.00
02587              -2.80    22000.00
02588              -1.00    21800.00
02589               0.20    21800.00
02590              -1.80    21800.00
02591              -1.80    21600.00
02592              -0.40    21600.00
02593              -2.00    21400.00
02594              -1.40    21400.00
02595               0.00    21200.00
02596              -2.00    21200.00
02597              -1.20    21000.00
02598              -0.60    20600.00
02599              -2.20    20600.00
02600              -1.20    20400.00
02601              -0.60    20400.00
02602              -2.20    20000.00
02603              -1.20    20000.00
02604               0.20    19800.00
02605              -2.00    19600.00
02606              -1.20    19600.00
02607              -0.60    19200.00
02608              -2.00    19000.00
02609              -1.40    19000.00
02610              -0.40    18800.00
02611              -1.20    18400.00
02612              -1.00    18200.00
02613              -0.60    18000.00
02614              -1.20    17600.00
02615              -1.40    17200.00
02616              -1.20    17200.00
02617              -1.20    16800.00
02618              -1.20    16600.00
02619              -0.40    16400.00
02620              -1.00    16000.00
02621              -1.80    15600.00
02622              -0.20    15200.00
02623              -1.00    15000.00
02624              -1.40    14800.00
02625              -1.00    14400.00
02626              -0.20    14000.00
02627              -1.20    13600.00
02628              -1.40    13600.00
02629              -0.20    13000.00
02630              -1.20    12800.00
02631              -1.60    12400.00
02632              -0.20    12000.00
02633              -0.40    11800.00
02634              -1.20    11400.00
02635              -0.60    10800.00
02636              -0.40    10400.00
02637              -1.20    10200.00
02638              -1.00     9800.00
02639              -0.40     9400.00
02640              -0.40     9200.00
02641              -0.60     8600.00
02642              -0.40     8400.00
02643              -0.60     7800.00
02644              -1.00     7400.00
02645              -1.00     7000.00
02646              -0.60     6800.00
02647              -0.60     6200.00
02648              -0.40     6000.00
02649              -0.60     5400.00
02650              -0.80     5000.00
02651              -0.40     4600.00
02652              -0.40     4400.00
02653              -1.20     3800.00
02654              -0.60     3600.00
02655              -0.40     3000.00
02656              -0.60     2400.00
02657              -0.60     2200.00
02658              -0.20     1800.00
02659              -0.60     1400.00
02660              -0.60      800.00
02661              -0.20      400.00
02662              -0.20        0.00
02663              -0.20     -400.00
02664               0.40     -800.00
02665               3.20    -1000.00
02666              -1.00    -1600.00
02667              -2.40    -1800.00
02668               1.20    -2200.00
02669               1.40    -2600.00
02670              -2.60    -2800.00
02671               2.80    -3200.00
02672              21.40    -3800.00
02673              25.00    -4800.00
02674             -25.00    -5200.00
02675             -25.00    -5400.00
02676              25.00    -5800.00
02677              -7.60    -6000.00
02678             -25.00    -6000.00
02679              25.00    -6400.00
02680              25.00    -7200.00
02681             -25.00    -7000.00
02682              25.00    -8200.00
02683              25.00    -8400.00
02684             -25.00    -8400.00
02685              25.00    -9200.00
02686              25.00    -9200.00
02687             -25.00    -9600.00
02688              18.80   -10400.00
02689              25.00   -10400.00
02690              -9.00   -11000.00
02691             -18.00   -11400.00
02692              -9.20   -11600.00
02693              25.00   -12200.00
02694             -19.80   -12200.00
02695             -10.00   -12800.00
02696              25.00   -13000.00
02697              -3.60   -13400.00
02698             -10.00   -14000.00
02699             -10.80   -14000.00
02700              22.60   -14600.00
02701              -2.80   -14800.00
02702             -20.40   -15200.00
02703              25.00   -15600.00
02704              -3.60   -15600.00
02705             -19.80   -16000.00
02706              14.20   -16200.00
02707               4.40   -16400.00
02708             -13.20   -16800.00
02709               6.20   -17000.00
02710              13.20   -17200.00
02711             -11.40   -17600.00
02712               0.40   -18000.00
02713               9.00   -18200.00
02714              -8.00   -18600.00
02715              -2.20   -18600.00
02716               9.00   -18800.00
02717              -1.00   -19200.00
02718              -3.00   -19400.00
02719               5.80   -19600.00
02720              -2.20   -19800.00
02721              -2.20   -20000.00
02722               0.40   -20000.00
02723               2.60   -20200.00
02724               2.60   -20400.00
02725              -2.60   -20400.00
02726               3.80   -20800.00
02727              -0.40   -21000.00
02728              -3.00   -21200.00
02729               1.80   -21200.00
02730               2.20   -21200.00
02731               0.20   -21400.00
02732              -0.60   -21400.00
02733               3.80   -21800.00
02734               0.20   -21600.00
02735              -3.80   -21800.00
02736               2.00   -22000.00
02737               1.80   -22000.00
02738              -1.60   -22000.00
02739               1.80   -22000.00
02740               2.60   -22000.00
02741              -1.00   -22200.00
02742              -1.20   -22000.00
02743               2.60   -22000.00
02744               1.00   -22200.00
02745              -1.40   -22200.00
02746               2.80   -22000.00
02747               1.40   -22200.00
02748              -1.00   -22200.00
02749               0.40   -22000.00
02750               0.40   -22000.00
02751               1.00   -22000.00
02752               0.60   -22000.00
02753               1.20   -22000.00
02754               1.00   -22000.00
02755               0.60   -21800.00
02756               0.40   -21600.00
02757              -0.20   -21600.00
02758               1.20   -21400.00
02759               0.20   -21400.00
02760               0.40   -21200.00
02761               2.20   -21200.00
02762               0.40   -21000.00
02763              -0.20   -21000.00
02764               1.20   -20800.00
02765               0.60   -20400.00
02766              -0.20   -20400.00
02767               1.00   -20200.00
02768               1.20   -20000.00
02769              -0.20   -20000.00
02770               0.60   -19600.00
02771               1.00   -19600.00
02772              -0.40   -19200.00
02773               0.40   -19000.00
02774               0.60   -18800.00
02775               0.80   -18600.00
02776               0.60   -18200.00
02777               0.40   -18000.00
02778               0.40   -17800.00
02779               0.20   -17400.00
02780               0.40   -17400.00
02781               0.20   -17000.00
02782               0.40   -16800.00
02783               1.00   -16400.00
02784               0.20   -16200.00
02785               0.20   -16000.00
02786               0.20   -15800.00
02787              -0.60   -15400.00
02788               0.20   -15000.00
02789               0.40   -14800.00
02790               0.00   -14400.00
02791              -0.20   -14000.00
02792               0.40   -13800.00
02793               0.40   -13400.00
02794              -0.40   -13200.00
02795              -0.20   -12600.00
02796               0.40   -12400.00
02797               0.00   -12000.00
02798              -0.20   -11600.00
02799              -0.40   -11400.00
02800               0.00   -11000.00
02801               0.00   -10600.00
02802              -0.40   -10000.00
02803               0.20    -9800.00
02804               0.20    -9400.00
02805              -0.60    -9000.00
02806               0.20    -8800.00
02807              -0.20    -8400.00
02808              -0.40    -8000.00
02809              -0.40    -7400.00
02810               0.20    -7200.00
02811              -0.20    -6800.00
02812              -0.40    -6400.00
02813               0.20    -5800.00
02814               0.60    -5600.00
02815              -1.40    -5000.00
02816              -0.40    -4600.00
02817              -0.20    -4200.00
02818              -0.60    -3800.00
02819              -0.60    -3400.00
02820               0.20    -2800.00
02821               0.20    -2600.00
02822              -0.40    -2000.00
02823              -0.20    -1800.00
02824              -0.40    -1200.00
02825              -1.00     -800.00
02826              -0.40     -400.00
02827              -0.20        0.00
02828               0.20      400.00
02829               1.20      600.00
02830               3.20     1000.00
02831              -2.00     1600.00
02832              -1.40     1800.00
02833               2.40     2200.00
02834               1.40     2600.00
02835              -2.80     2800.00
02836               2.80     3200.00
02837              10.20     3800.00
02838              22.20     4600.00
02839              -6.20     4800.00
02840             -25.00     5200.00
02841               0.60     5800.00
02842              25.00     6000.00
02843             -25.00     6200.00
02844             -25.00     6600.00
02845              25.00     7200.00
02846              25.00     7600.00
02847             -25.00     7800.00
02848              25.00     8400.00
02849              25.00     8400.00
02850             -25.00     8800.00
02851              -7.60     9400.00
02852              25.00     9600.00
02853             -25.00    10200.00
02854             -25.00    10600.00
02855              25.00    10800.00
02856               2.00    11200.00
02857             -25.00    11600.00
02858               1.80    11800.00
02859              25.00    12400.00
02860             -16.60    12800.00
02861             -17.00    13200.00
02862              21.40    13400.00
02863               3.60    13600.00
02864             -19.80    14200.00
02865              -5.20    14400.00
02866              18.00    14800.00
02867              -5.20    15200.00
02868             -15.40    15400.00
02869              17.00    15800.00
02870               2.00    16000.00
02871             -20.40    16200.00
02872               7.80    16400.00
02873               9.00    16800.00
02874             -15.40    17200.00
02875               1.40    17400.00
02876              12.60    17600.00
02877              -9.40    17800.00
02878              -7.60    18200.00
02879               8.40    18400.00
02880              -4.40    18600.00
02881              -7.60    18800.00
02882               6.60    19200.00
02883               1.00    19400.00
02884              -5.40    19600.00
02885               1.40    19600.00
02886              -0.20    20000.00
02887              -4.60    20000.00
02888              -1.40    20200.00
02889               2.20    20400.00
02890              -0.60    20600.00
02891              -3.40    20800.00
02892               1.00    20800.00
02893              -0.60    21000.00
02894              -3.80    21200.00
02895              -1.20    21200.00
02896               1.20    21400.00
02897              -1.00    21400.00
02898              -2.60    21600.00
02899               1.20    21600.00
02900              -1.00    22000.00
02901              -3.80    21800.00
02902              -0.40    22000.00
02903               0.60    22000.00
02904              -2.20    22000.00
02905              -1.20    22000.00
02906               1.00    22000.00
02907              -1.40    22000.00
02908              -3.60    22200.00
02909              -0.60    22000.00
02910               0.20    22000.00
02911              -2.80    22000.00
02912              -0.60    22000.00
02913               0.40    22000.00
02914              -1.80    22000.00
02915              -2.00    22000.00
02916              -0.40    22000.00
02917              -1.20    22000.00
02918              -2.20    22000.00
02919              -0.20    21800.00
02920              -1.20    21600.00
02921              -2.00    21600.00
02922              -0.80    21400.00
02923              -1.40    21400.00
02924              -1.20    21400.00
02925              -1.00    21200.00
02926              -1.20    21000.00
02927              -1.20    20800.00
02928              -0.60    21000.00
02929              -1.80    20600.00
02930              -1.00    20400.00
02931              -1.20    20400.00
02932              -2.20    20000.00
02933              -1.00    20000.00
02934               0.20    19600.00
02935              -2.00    19600.00
02936              -1.20    19400.00
02937              -0.20    19000.00
02938              -2.20    19000.00
02939              -1.40    18800.00
02940              -0.40    18600.00
02941              -1.40    18200.00
02942              -1.20    18200.00
02943              -0.40    17800.00
02944              -1.00    17400.00
02945              -1.40    17200.00
02946              -0.80    16800.00
02947              -1.00    16600.00
02948              -1.40    16400.00
02949              -0.40    16200.00
02950              -1.00    15800.00
02951              -1.00    15600.00
02952              -0.60    15200.00
02953              -1.20    15000.00
02954              -1.20    14600.00
02955              -0.40    14400.00
02956              -0.80    14000.00
02957              -1.20    13600.00
02958              -0.40    13200.00
02959              -1.00    13000.00
02960              -2.00    12600.00
02961              -0.20    12400.00
02962              -0.60    11800.00
02963              -1.20    11600.00
02964               0.20    11200.00
02965              -0.60    10800.00
02966              -1.20    10400.00
02967              -0.80    10200.00
02968              -0.60     9800.00
02969              -1.20     9400.00
02970              -1.00     9200.00
02971               0.00     8600.00
02972              -0.60     8400.00
02973              -1.00     7800.00
02974              -0.60     7400.00
02975              -0.40     7000.00
02976              -1.20     6600.00
02977              -0.60     6200.00
02978              -0.40     5800.00
02979              -0.60     5600.00
02980              -0.20     5200.00
02981              -0.80     4600.00
02982              -1.20     4200.00
02983              -0.60     3600.00
02984              -0.40     3200.00
02985              -1.00     3000.00
02986              -0.40     2400.00
02987              -0.20     2000.00
02988              -1.00     1800.00
02989              -0.60     1400.00
02990              -0.60      800.00
02991              -0.60      400.00
02992              -0.40        0.00
02993               0.20     -400.00
02994               1.20     -800.00
02995               3.00    -1200.00
02996              -2.00    -1600.00
02997              -1.40    -1800.00
02998               1.80    -2400.00
02999              -0.20    -2600.00
03000              -2.60    -3000.00
03001               5.40    -3400.00
03002              25.00    -4000.00
03003              14.20    -4800.00
03004             -25.00    -5200.00
03005             -12.20    -5600.00
03006              25.00    -5800.00
03007             -24.20    -6000.00
03008             -25.00    -6000.00
03009              25.00    -6800.00
03010              14.60    -7200.00
03011             -25.00    -7200.00
03012              25.00    -8400.00
03013              25.00    -8400.00
03014             -25.00    -8600.00
03015              25.00    -9400.00
03016              25.00    -9200.00
03017             -25.00    -9800.00
03018              25.00   -10200.00
03019              23.40   -10600.00
03020              -9.40   -11400.00
03021             -23.00   -11400.00
03022               2.60   -11800.00
03023              25.00   -12200.00
03024             -25.00   -12400.00
03025               2.80   -13000.00
03026              22.80   -13200.00
03027              -7.60   -13600.00
03028             -10.60   -14000.00
03029              -6.80   -14200.00
03030              24.60   -14600.00
03031             -12.60   -14800.00
03032             -11.40   -15200.00
03033              25.00   -15400.00
03034             -12.80   -15800.00
03035             -14.00   -16200.00
03036              16.20   -16400.00
03037               0.40   -16400.00
03038             -12.60   -17000.00
03039              10.60   -17000.00
03040              10.00   -17400.00
03041             -13.40   -17600.00
03042               4.00   -18000.00
03043               6.80   -18400.00
03044              -9.60   -18600.00
03045               0.40   -18800.00
03046               9.80   -18800.00
03047              -3.20   -19200.00
03048              -1.60   -19400.00
03049               5.80   -19600.00
03050              -3.60   -19800.00
03051              -1.80   -20000.00
03052               0.60   -20200.00
03053               3.60   -20200.00
03054               1.20   -20400.00
03055              -1.20   -20400.00
03056               4.60   -20800.00
03057              -1.80   -21000.00
03058              -2.60   -21200.00
03059               2.20   -21200.00
03060               2.20   -21200.00
03061              -1.20   -21600.00
03062               0.20   -21600.00
03063               4.80   -21800.00
03064              -1.20   -21800.00
03065              -3.40   -21800.00
03066               3.40   -22000.00
03067               1.20   -22000.00
03068              -1.20   -22000.00
03069               2.20   -22000.00
03070               2.60   -22000.00
03071              -1.20   -22000.00
03072              -1.00   -22200.00
03073               2.80   -22200.00
03074              -0.20   -22000.00
03075              -1.00   -22000.00
03076               3.40   -22200.00
03077               1.20   -22200.00
03078              -0.60   -22000.00
03079               0.20   -22000.00
03080               1.00   -22000.00
03081               0.40   -22000.00
03082               0.20   -22000.00
03083               1.80   -21800.00
03084               0.60   -21800.00
03085               0.60   -21600.00
03086               0.60   -21600.00
03087               0.40   -21600.00
03088               1.00   -21600.00
03089              -0.20   -21200.00
03090               0.60   -21200.00
03091               1.80   -21000.00
03092              -0.20   -21000.00
03093               0.00   -20800.00
03094               1.20   -20800.00
03095               0.40   -20600.00
03096              -0.20   -20200.00
03097               1.20   -20200.00
03098               1.20   -20000.00
03099              -0.20   -19600.00
03100               1.20   -19600.00
03101               0.40   -19400.00
03102              -0.40   -19200.00
03103               0.80   -18800.00
03104               0.60   -18800.00
03105               0.40   -18600.00
03106               0.60   -18400.00
03107               0.20   -18000.00
03108               0.20   -17800.00
03109               0.20   -17400.00
03110               0.20   -17200.00
03111              -0.20   -17000.00
03112               0.40   -16800.00
03113               0.60   -16400.00
03114              -0.20   -16200.00
03115               0.60   -16000.00
03116               0.40   -15600.00
03117              -0.60   -15200.00
03118               0.40   -14800.00
03119               0.20   -14600.00
03120              -0.60   -14400.00
03121               0.20   -14000.00
03122               0.40   -13600.00
03123              -0.40   -13400.00
03124              -0.20   -12800.00
03125               0.20   -12800.00
03126              -0.40   -12200.00
03127               0.20   -12000.00
03128               0.20   -11600.00
03129              -0.60   -11400.00
03130               0.40   -10800.00
03131              -0.20   -10400.00
03132              -0.60   -10000.00
03133               0.40    -9800.00
03134               0.00    -9400.00
03135              -0.40    -9000.00
03136               0.80    -8400.00
03137              -0.20    -8400.00
03138              -0.60    -8000.00
03139              -0.20    -7400.00
03140              -0.20    -7000.00
03141              -0.60    -6600.00
03142              -0.40    -6200.00
03143               0.40    -5800.00
03144               0.20    -5600.00
03145              -1.00    -5000.00
03146               0.20    -4600.00
03147               0.20    -4200.00
03148              -0.60    -3600.00
03149              -0.60    -3400.00
03150               0.20    -2800.00
03151               0.20    -2400.00
03152              -1.00    -2000.00
03153               0.20    -1600.00
03154              -0.20    -1200.00
03155              -0.80     -800.00
03156              -0.20     -400.00
03157               0.40        0.00
03158               0.20      400.00
03159               1.80      800.00
03160               2.60     1200.00
03161              -2.60     1600.00
03162              -0.60     2000.00
03163               2.80     2400.00
03164               0.00     2600.00
03165              -2.60     3000.00
03166               4.40     3600.00
03167              11.60     4000.00
03168              22.80     4600.00
03169             -17.40     5000.00
03170             -25.00     5400.00
03171              12.60     5600.00
03172              24.60     6000.00
03173             -25.00     6200.00
03174             -25.00     6800.00
03175              25.00     7200.00
03176              19.80     7600.00
03177             -25.00     8200.00
03178              25.00     8400.00
03179              25.00     8600.00
03180             -25.00     9000.00
03181              23.60     9400.00
03182              25.00    10000.00
03183             -25.00    10200.00
03184              -9.40    10800.00
03185              25.00    10800.00
03186              -9.80    11200.00
03187             -25.00    11600.00
03188              13.20    12000.00
03189              25.00    12400.00
03190             -24.60    12800.00
03191              -8.40    13200.00
03192              22.60    13600.00
03193              -2.80    14000.00
03194             -19.80    14200.00
03195               0.00    14400.00
03196              17.60    14800.00
03197             -11.40    15200.00
03198              -9.80    15400.00
03199              19.40    15800.00
03200              -5.80    15800.00
03201             -17.40    16200.00
03202              11.80    16400.00
03203               3.80    16800.00
03204             -15.80    17200.00
03205               6.60    17400.00
03206              10.00    17600.00
03207             -12.00    18000.00
03208              -3.40    18000.00
03209               8.40    18400.00
03210              -7.00    18800.00
03211              -5.20    19000.00
03212               7.00    19200.00
03213              -1.20    19200.00
03214              -4.60    19600.00
03215               1.20    19800.00
03216              -0.40    20000.00
03217              -4.60    20000.00
03218              -1.80    20400.00
03219               2.80    20400.00
03220              -1.20    20600.00
03221              -4.00    20800.00
03222               2.00    21000.00
03223              -0.60    21200.00
03224              -5.20    21200.00
03225               0.20    21200.00
03226               1.80    21400.00
03227              -2.60    21600.00
03228              -1.40    21600.00
03229               1.40    21600.00
03230              -2.40    21800.00
03231              -3.40    21800.00
03232               0.20    21800.00
03233              -0.60    22000.00
03234              -1.80    22000.00
03235              -1.00    22000.00
03236               0.00    22200.00
03237              -1.40    22200.00
03238              -3.00    22000.00
03239              -0.80    22000.00
03240              -0.40    22000.00
03241              -2.20    22000.00
03242              -1.20    22200.00
03243               0.20    22000.00
03244              -2.00    22000.00
03245              -2.60    22000.00
03246              -0.40    22000.00
03247              -1.00    22000.00
03248              -2.40    22000.00
03249              -0.20    21800.00
03250              -0.60    21600.00
03251              -2.20    21600.00
03252              -1.40    21400.00
03253              -1.20    21400.00
03254              -1.20    21200.00
03255              -1.20    21200.00
03256              -0.60    21000.00
03257              -1.00    21000.00
03258              -1.20    20800.00
03259              -1.20    20600.00
03260              -1.20    20400.00
03261              -1.20    20400.00
03262              -2.00    20200.00
03263              -0.60    20000.00
03264              -0.20    19800.00
03265              -1.80    19600.00
03266              -1.20    19400.00
03267               0.20    19000.00
03268              -1.80    19000.00
03269              -1.40    18800.00
03270              -0.40    18400.00
03271              -1.20    18200.00
03272              -1.40    18000.00
03273              -0.20    17600.00
03274              -1.20    17400.00
03275              -1.80    17200.00
03276              -0.40    16800.00
03277              -0.80    16600.00
03278              -1.20    16400.00
03279              -0.60    16000.00
03280              -0.80    15800.00
03281              -1.20    15600.00
03282              -1.00    15200.00
03283              -1.00    15000.00
03284              -1.00    14800.00
03285              -0.40    14200.00
03286              -0.60    13800.00
03287              -0.80    13600.00
03288              -0.60    13200.00
03289              -0.60    12800.00
03290              -1.20    12600.00
03291              -0.80    12200.00
03292              -0.40    12000.00
03293              -1.00    11600.00
03294              -1.20    11200.00
03295              -0.20    10800.00
03296              -0.60    10400.00
03297              -1.20    10000.00
03298              -0.40     9600.00
03299              -0.20     9200.00
03300              -1.40     9000.00
03301              -0.60     8600.00
03302              -0.20     8200.00
03303              -1.80     7800.00
03304              -0.60     7200.00
03305              -0.20     7000.00
03306              -1.40     6400.00
03307              -0.60     6200.00
03308              -0.20     5800.00
03309              -0.60     5400.00
03310              -1.00     4800.00
03311              -0.60     4400.00
03312              -0.80     4000.00
03313              -0.40     3600.00
03314              -0.60     3200.00
03315              -1.00     2800.00
03316              -0.20     2400.00
03317              -0.20     2000.00
03318              -1.20     1600.00
03319              -0.40     1400.00
03320               0.40      800.00
03321              -1.40      400.00
03322              -0.40        0.00
03323               0.60     -400.00
03324               1.20     -800.00
03325               2.40    -1200.00
03326              -2.60    -1800.00
03327              -0.60    -2000.00
03328               2.00    -2400.00
03329              -0.40    -2800.00
03330              -2.00    -3200.00
03331               8.40    -3400.00
03332              25.00    -4000.00
03333              -1.20    -5000.00
03334             -25.00    -5000.00
03335               4.20    -5600.00
03336              25.00    -5800.00
03337             -25.00    -6000.00
03338             -24.80    -6000.00
03339              25.00    -7000.00
03340             -25.00    -7200.00
03341             -25.00    -7400.00
03342              25.00    -8400.00
03343              13.40    -8400.00
03344             -25.00    -8800.00
03345              25.00    -9200.00
03346              14.20    -9200.00
03347             -25.00    -9800.00
03348              25.00   -10400.00
03349              12.40   -10600.00
03350              -8.80   -11400.00
03351             -25.00   -11400.00
03352              13.40   -12000.00
03353              25.00   -12200.00
03354             -25.00   -12400.00
03355              13.20   -13000.00
03356              18.20   -13200.00
03357              -9.40   -13600.00
03358             -12.40   -13800.00
03359               0.20   -14400.00
03360              23.80   -14600.00
03361             -21.80   -14800.00
03362               0.20   -15200.00
03363              25.00   -15400.00
03364             -20.80   -15800.00
03365              -6.80   -16200.00
03366              16.80   -16400.00
03367              -5.20   -16600.00
03368             -10.00   -17000.00
03369              14.00   -17200.00
03370               4.40   -17400.00
03371             -12.20   -17800.00
03372               6.80   -18000.00
03373               2.60   -18400.00
03374              -9.60   -18600.00
03375               3.40   -18600.00
03376               8.40   -19000.00
03377              -4.60   -19200.00
03378               1.40   -19400.00
03379               4.60   -19600.00
03380              -3.80   -20000.00
03381              -1.00   -20000.00
03382               0.40   -20200.00
03383               4.00   -20200.00
03384              -0.60   -20400.00
03385              -1.00   -20800.00
03386               5.00   -20800.00
03387              -3.00   -20800.00
03388              -2.00   -21200.00
03389               2.80   -21200.00
03390               1.80   -21400.00
03391              -1.20   -21400.00
03392               1.40   -21600.00
03393               4.40   -21600.00
03394              -2.60   -21800.00
03395              -1.80   -21800.00
03396               3.60   -21800.00
03397              -0.40   -22000.00
03398              -1.00   -22000.00
03399               2.40   -22000.00
03400               1.40   -22200.00
03401              -1.40   -22000.00
03402               0.20   -22000.00
03403               2.40   -22200.00
03404              -0.60   -22000.00
03405               0.20   -22000.00
03406               3.00   -22000.00
03407               0.20   -22200.00
03408               0.40   -22000.00
03409               0.40   -22000.00
03410               0.40   -22000.00
03411               1.00   -22000.00
03412               0.40   -22000.00
03413               1.80   -22000.00
03414               0.60   -21800.00
03415              -0.20   -21600.00
03416               0.60   -21600.00
03417               0.60   -21600.00
03418               0.40   -21200.00
03419               0.40   -21200.00
03420               1.40   -21200.00
03421               1.00   -21000.00
03422               0.20   -20800.00
03423               0.20   -20800.00
03424               0.40   -20800.00
03425               0.40   -20400.00
03426               0.40   -20400.00
03427               1.40   -20200.00
03428               0.60   -20000.00
03429               0.40   -19800.00
03430               1.20   -19600.00
03431              -0.40   -19200.00
03432               0.20   -19200.00
03433               0.40   -19000.00
03434              -0.40   -18600.00
03435               1.20   -18400.00
03436               0.20   -18400.00
03437               0.40   -18000.00
03438               0.80   -17400.00
03439              -0.40   -17400.00
03440               0.40   -17200.00
03441               0.60   -17000.00
03442              -0.20   -16400.00
03443               0.40   -16200.00
03444               0.60   -16000.00
03445               0.00   -15800.00
03446              -0.60   -15600.00
03447               0.40   -15200.00
03448               0.20   -14800.00
03449              -1.00   -14800.00
03450               1.20   -14400.00
03451              -0.20   -14000.00
03452              -0.40   -13600.00
03453               0.40   -13200.00
03454              -0.60   -13000.00
03455               0.40   -12600.00
03456               0.40   -12200.00
03457              -0.40   -12000.00
03458               0.20   -11400.00
03459               0.20   -11200.00
03460              -0.60   -10800.00
03461              -0.20   -10400.00
03462               0.40   -10000.00
03463               0.40    -9600.00
03464               0.40    -9200.00
03465               0.60    -9000.00
03466              -1.00    -8400.00
03467               0.40    -8200.00
03468              -2.00    -8000.00
03469              -1.60    -7400.00
03470               0.60    -6800.00
03471               0.20    -6400.00
03472               0.40    -6200.00
03473               1.40    -5600.00
03474               1.40    -5200.00
03475              -1.20    -4800.00
03476              -1.00    -4400.00
03477              -0.60    -4000.00
03478              -2.80    -3600.00
03479              -0.60    -3200.00
03480               1.00    -2800.00
03481               1.00    -2400.00
03482               0.20    -2000.00
03483               0.40    -1600.00
03484               0.00    -1200.00
03485              -1.00     -800.00
03486              -1.00     -400.00
03487              -0.20        0.00
03488              -0.60      600.00
03489               2.60      800.00
03490               2.20     1200.00
03491              -2.00     1600.00
03492               1.20     2000.00
03493               2.40     2400.00
03494              -2.00     2600.00
03495              -2.20     3000.00
03496               5.00     3400.00
03497              13.20     4000.00
03498              21.00     4600.00
03499             -25.00     5200.00
03500             -25.00     5400.00
03501              23.40     5800.00
03502              15.60     6200.00
03503             -25.00     6400.00
03504             -10.00     6800.00
03505              25.00     7600.00
03506             -13.80     7400.00
03507             -25.00     8000.00
03508              25.00     8400.00
03509              25.00     8800.00
03510             -25.00     9200.00
03511              25.00     9600.00
03512              25.00     9800.00
03513             -25.00    10400.00
03514               7.80    10600.00
03515              25.00    11000.00
03516             -19.80    11200.00
03517             -25.00    11800.00
03518              22.80    12000.00
03519              18.80    12400.00
03520             -25.00    13000.00
03521               0.60    13200.00
03522              22.00    13600.00
03523              -9.40    14000.00
03524             -18.20    14200.00
03525               6.00    14600.00
03526              14.60    15000.00
03527             -16.00    15200.00
03528              -2.60    15600.00
03529              19.40    15800.00
03530             -12.40    16000.00
03531             -12.40    16400.00
03532              14.20    16400.00
03533              -2.00    17000.00
03534             -14.40    17200.00
03535              10.60    17400.00
03536               6.00    17600.00
03537             -12.60    18000.00
03538               1.20    18200.00
03539               6.60    18400.00
03540              -9.20    18800.00
03541              -2.80    19000.00
03542               6.60    19000.00
03543              -3.60    19400.00
03544              -4.00    19600.00
03545               2.20    19800.00
03546              -1.00    20000.00
03547              -4.40    20000.00
03548              -0.20    20200.00
03549               3.40    20400.00
03550              -3.00    20600.00
03551              -3.20    20800.00
03552               2.40    21000.00
03553              -2.00    21200.00
03554              -4.60    21200.00
03555               1.20    21400.00
03556               1.60    21400.00
03557              -3.60    21600.00
03558              -1.40    21600.00
03559               2.00    21600.00
03560              -3.80    21800.00
03561              -3.60    21600.00
03562               2.00    22000.00
03563              -0.60    22000.00
03564              -3.00    22000.00
03565              -0.20    22000.00
03566               0.80    22000.00
03567              -3.60    22200.00
03568              -3.00    22000.00
03569               1.20    22000.00
03570              -1.80    22000.00
03571              -2.20    22000.00
03572               0.60    22200.00
03573              -0.80    22000.00
03574              -2.80    22000.00
03575              -1.20    22000.00
03576              -1.00    22000.00
03577              -2.20    21800.00
03578              -1.40    21800.00
03579              -0.20    21800.00
03580              -0.60    21600.00
03581              -1.20    21600.00
03582              -2.00    21400.00
03583              -1.20    21400.00
03584              -1.00    21400.00
03585              -2.20    21000.00
03586              -1.20    21000.00
03587              -0.40    20800.00
03588              -2.00    20600.00
03589              -1.20    20600.00
03590              -0.20    20400.00
03591              -1.60    20200.00
03592              -1.60    20000.00
03593               0.20    19800.00
03594              -1.40    19600.00
03595              -1.60    19600.00
03596              -0.60    19200.00
03597              -1.20    19200.00
03598              -1.80    18800.00
03599              -1.00    18800.00
03600              -0.80    18400.00
03601              -0.80    18200.00
03602              -1.00    18000.00
03603              -1.20    17600.00
03604              -1.20    17400.00
03605              -1.20    17000.00
03606              -1.20    17000.00
03607              -1.00    16600.00
03608              -0.60    16400.00
03609              -0.60    16200.00
03610              -0.80    15800.00
03611              -0.60    15600.00
03612              -0.80    15200.00
03613              -1.20    15000.00
03614              -1.20    14400.00
03615              -0.60    14400.00
03616              -1.00    13800.00
03617              -1.40    13600.00
03618              -0.60    13200.00
03619              -0.60    12800.00
03620              -1.20    12600.00
03621              -0.40    12400.00
03622              -0.60    11800.00
03623              -1.00    11400.00
03624              -1.00    11000.00
03625              -0.60    10800.00
03626              -0.60    10400.00
03627              -1.00    10000.00
03628              -1.00     9400.00
03629              -0.60     9200.00
03630              -0.60     8800.00
03631              -1.00     8400.00
03632              -1.00     8000.00
03633              -0.40     7600.00
03634              -0.60     7200.00
03635              -1.60     6800.00
03636              -0.40     6600.00
03637              -0.20     6000.00
03638              -2.00     5600.00
03639              -0.20     5200.00
03640               0.40     4800.00
03641              -2.20     4400.00
03642               0.20     4000.00
03643               0.20     3600.00
03644              -1.00     3200.00
03645              -1.00     2800.00
03646               0.20     2400.00
03647              -0.60     2000.00
03648              -1.00     1600.00
03649              -0.40     1200.00
03650              -0.40      600.00
03651              -0.40      400.00
03652              -0.40     -200.00
03653               0.40     -400.00
03654               3.20    -1000.00
03655               1.20    -1200.00
03656              -3.00    -1600.00
03657               0.40    -2000.00
03658               2.00    -2400.00
03659              -1.20    -2800.00
03660              -0.40    -3000.00
03661              10.80    -3600.00
03662              25.00    -4000.00
03663             -15.40    -4800.00
03664             -25.00    -5200.00
03665              17.20    -5600.00
03666              25.00    -6000.00
03667             -25.00    -6000.00
03668               4.20    -6000.00
03669              25.00    -7200.00
03670             -25.00    -7000.00
03671             -25.00    -7600.00
03672              25.00    -8400.00
03673             -25.00    -8200.00
03674             -25.00    -9000.00
03675              25.00    -9400.00
03676             -25.00    -9400.00
03677             -25.00   -10000.00
03678              25.00   -10200.00
03679               3.00   -10800.00
03680             -10.00   -11400.00
03681             -25.00   -11400.00
03682              24.20   -12000.00
03683              14.20   -12200.00
03684             -25.00   -12400.00
03685              21.20   -13200.00
03686              11.00   -13200.00
03687             -10.20   -13800.00
03688             -12.60   -14000.00
03689               6.60   -14400.00
03690              18.80   -14600.00
03691             -25.00   -14800.00
03692              11.40   -15400.00
03693              20.60   -15600.00
03694             -24.60   -16000.00
03695               1.40   -16200.00
03696              13.80   -16400.00
03697              -9.00   -16800.00
03698              -5.40   -17000.00
03699              15.40   -17200.00
03700              -1.20   -17600.00
03701              -9.60   -17600.00
03702               9.80   -18000.00
03703              -1.40   -18400.00
03704              -8.60   -18600.00
03705               6.20   -18800.00
03706               5.80   -19000.00
03707              -6.00   -19200.00
03708               3.20   -19400.00
03709               3.40   -19600.00
03710              -4.40   -19600.00
03711              -1.20   -20000.00
03712               2.00   -20200.00
03713               4.60   -20200.00
03714              -2.80   -20400.00
03715               1.20   -20600.00
03716               4.40   -20800.00
03717              -5.00   -20800.00
03718              -0.40   -21000.00
03719               4.20   -21200.00
03720               0.80   -21400.00
03721              -2.20   -21600.00
03722               3.40   -21600.00
03723               3.60   -21600.00
03724              -4.40   -21800.00
03725              -0.40   -21800.00
03726               3.60   -22000.00
03727              -1.20   -22000.00
03728              -0.20   -22000.00
03729               3.40   -22000.00
03730               0.60   -22000.00
03731              -2.20   -22200.00
03732               1.60   -22000.00
03733               2.60   -22200.00
03734              -2.00   -22000.00
03735               1.20   -22000.00
03736               3.60   -22200.00
03737              -0.40   -22200.00
03738              -0.40   -22000.00
03739               0.60   -22000.00
03740               1.20   -22000.00
03741               0.20   -22000.00
03742               0.60   -21800.00
03743               1.80   -22000.00
03744               0.20   -21800.00
03745               0.20   -21600.00
03746               0.40   -21600.00
03747               0.60   -21600.00
03748               0.40   -21400.00
03749              -0.20   -21200.00
03750               1.80   -21000.00
03751               1.20   -21000.00
03752              -0.20   -20800.00
03753               1.00   -20800.00
03754               0.80   -20800.00
03755              -0.60   -20400.00
03756               0.20   -20200.00
03757               1.40   -20000.00
03758               0.20   -20000.00
03759              -0.20   -19600.00
03760               1.40   -19600.00
03761               0.20   -19400.00
03762              -0.20   -19200.00
03763               1.00   -18800.00
03764               0.40   -18800.00
03765               0.60   -18400.00
03766               0.60   -18200.00
03767               0.20   -18000.00
03768               0.00   -17400.00
03769               0.20   -17400.00
03770               0.20   -17000.00
03771              -0.20   -16800.00
03772               1.00   -16600.00
03773               0.20   -16400.00
03774              -0.20   -16000.00
03775               0.40   -15800.00
03776              -0.40   -15600.00
03777              -0.40   -15200.00
03778               0.40   -14800.00
03779               0.20   -14600.00
03780               0.20   -14200.00
03781               0.40   -13800.00
03782               0.20   -13600.00
03783               0.20   -13200.00
03784              -0.20   -12800.00
03785               0.20   -12400.00
03786              -0.20   -12200.00
03787               0.40   -11600.00
03788               0.40   -11400.00
03789              -0.60   -11000.00
03790               0.40   -10800.00
03791               0.20   -10400.00
03792              -0.40   -10000.00
03793               0.60    -9600.00
03794              -0.40    -9200.00
03795               0.20    -9000.00
03796               0.40    -8400.00
03797              -0.40    -8200.00
03798              -0.40    -7600.00
03799              -0.20    -7200.00
03800               0.40    -6800.00
03801              -0.20    -6400.00
03802              -0.40    -6000.00
03803               0.60    -5600.00
03804              -0.40    -5200.00
03805              -0.60    -4800.00
03806              -0.40    -4200.00
03807              -0.20    -4000.00
03808              -0.40    -3600.00
03809              -0.60    -3200.00
03810               0.40    -2800.00
03811               0.40    -2400.00
03812              -1.40    -1800.00
03813               0.40    -1600.00
03814               0.40    -1200.00
03815              -1.40     -800.00
03816              -0.40     -400.00
03817               1.20      200.00
03818              -0.40      400.00
03819               2.20      800.00
03820               1.20     1400.00
03821              -2.20     1800.00
03822               0.40     2000.00
03823               2.60     2600.00
03824              -1.20     2800.00
03825              -1.40     3200.00
03826               6.60     3600.00
03827              17.00     4000.00
03828              15.80     4800.00
03829             -25.00     5200.00
03830             -25.00     5600.00
03831              25.00     5800.00
03832               3.60     6200.00
03833             -25.00     6400.00
03834               9.60     7000.00
03835              25.00     7400.00
03836             -25.00     7600.00
03837             -25.00     8200.00
03838              25.00     8400.00
03839             -10.20     8800.00
03840             -25.00     9400.00
03841              25.00     9600.00
03842              20.60    10000.00
03843             -25.00    10400.00
03844              23.00    10600.00
03845              25.00    11200.00
03846             -25.00    11200.00
03847             -23.80    11800.00
03848              25.00    12200.00
03849               9.00    12600.00
03850             -25.00    13200.00
03851               8.20    13200.00
03852              18.80    13600.00
03853             -13.80    14000.00
03854             -15.40    14200.00
03855              11.40    14600.00
03856               9.40    15000.00
03857             -18.60    15400.00
03858               4.20    15600.00
03859              15.80    15800.00
03860             -17.40    16000.00
03861              -6.60    16200.00
03862              14.40    16600.00
03863              -6.20    16800.00
03864             -10.40    17200.00
03865              12.20    17400.00
03866               1.20    17600.00
03867             -12.60    18000.00
03868               3.60    18400.00
03869               3.60    18400.00
03870              -9.20    18800.00
03871               0.60    19000.00
03872               6.40    19200.00
03873              -5.00    19400.00
03874              -1.80    19600.00
03875               2.00    19800.00
03876              -3.00    20000.00
03877              -4.00    20000.00
03878               1.00    20200.00
03879               2.00    20600.00
03880              -3.60    20600.00
03881              -1.40    20600.00
03882               1.80    21000.00
03883              -3.00    21000.00
03884              -3.40    21200.00
03885               0.80    21400.00
03886               0.60    21400.00
03887              -3.00    21400.00
03888              -1.00    21600.00
03889               0.40    21600.00
03890              -3.60    21600.00
03891              -2.80    22000.00
03892               0.60    21800.00
03893              -1.20    22000.00
03894              -2.60    22000.00
03895              -0.20    22000.00
03896               0.00    22000.00
03897              -3.20    22200.00
03898              -2.40    22000.00
03899               1.00    22000.00
03900              -1.80    22200.00
03901              -2.20    22000.00
03902               0.00    22200.00
03903              -1.00    22000.00
03904              -2.20    22000.00
03905              -1.20    22000.00
03906              -1.00    22000.00
03907              -1.80    22000.00
03908              -1.20    21800.00
03909              -1.00    21800.00
03910              -1.40    21600.00
03911              -1.20    21600.00
03912              -1.60    21400.00
03913              -1.20    21400.00
03914              -1.20    21200.00
03915              -1.80    21200.00
03916              -1.40    21000.00
03917              -0.40    20800.00
03918              -1.20    20600.00
03919              -2.00    20400.00
03920              -0.80    20400.00
03921              -0.80    20200.00
03922              -2.00    20000.00
03923              -0.20    20000.00
03924              -0.60    19600.00
03925              -2.00    19400.00
03926              -1.00    19200.00
03927              -0.40    19000.00
03928              -2.20    18800.00
03929              -1.60    18800.00
03930              -0.20    18400.00
03931              -1.20    18200.00
03932              -1.40    18000.00
03933               0.40    17600.00
03934              -1.20    17400.00
03935              -1.80    17200.00
03936              -0.40    16800.00
03937              -1.40    16600.00
03938              -0.60    16400.00
03939              -0.60    16000.00
03940              -1.80    15800.00
03941              -0.40    15600.00
03942              -0.60    15200.00
03943              -1.80    14800.00
03944              -0.80    14600.00
03945               0.20    14200.00
03946              -1.20    14000.00
03947              -1.00    13400.00
03948              -0.60    13200.00
03949              -0.60    12800.00
03950              -1.00    12600.00
03951              -0.60    12000.00
03952              -0.60    11800.00
03953              -0.60    11200.00
03954              -1.00    11000.00
03955              -0.80    10800.00
03956              -1.20    10200.00
03957              -1.20    10000.00
03958              -1.00     9600.00
03959              -0.40     9200.00
03960              -0.60     8600.00
03961              -1.20     8400.00
03962              -0.80     8000.00
03963              -0.20     7600.00
03964              -1.00     7200.00
03965              -1.00     6800.00
03966              -0.20     6400.00
03967              -0.80     6000.00
03968              -2.00     5600.00
03969               0.40     5200.00
03970              -0.40     4600.00
03971              -2.60     4400.00
03972               1.00     4000.00
03973              -0.20     3400.00
03974              -2.80     3200.00
03975               1.40     2800.00
03976               0.20     2400.00
03977              -2.20     2000.00
03978              -0.40     1400.00
03979               0.60     1000.00
03980              -1.20      800.00
03981              -1.40      200.00
03982               2.60        0.00
03983              -0.20     -800.00
03984               1.00    -1000.00
03985               2.80    -1200.00
03986              -3.00    -1800.00
03987              -1.20    -2200.00
03988               3.00    -2400.00
03989              -1.80    -2800.00
03990              -0.40    -3200.00
03991              14.60    -3400.00
03992              25.00    -4400.00
03993             -25.00    -5000.00
03994             -25.00    -5400.00
03995              25.00    -5600.00
03996              15.80    -6000.00
03997             -25.00    -6000.00
03998              25.00    -6400.00
03999              25.00    -7200.00
04000             -25.00    -7000.00
04001               2.80    -8000.00
04002              25.00    -8400.00
04003             -25.00    -8400.00
04004             -25.00    -9000.00
04005              25.00    -9200.00
04006             -25.00    -9400.00
04007             -14.00   -10200.00
04008              25.00   -10200.00
04009              -3.80   -10800.00
04010             -12.40   -11400.00
04011             -22.00   -11400.00
04012              25.00   -12000.00
04013               1.00   -12200.00
04014             -25.00   -12600.00
04015              25.00   -13000.00
04016               5.40   -13200.00
04017             -10.20   -13800.00
04018             -14.20   -14000.00
04019              14.40   -14400.00
04020              11.60   -14600.00
04021             -25.00   -15000.00
04022              21.20   -15400.00
04023              12.40   -15600.00
04024             -25.00   -16000.00
04025               7.40   -16200.00
04026              11.40   -16400.00
04027             -11.40   -16800.00
04028              -1.60   -17000.00
04029              15.40   -17200.00
04030              -5.60   -17600.00
04031              -6.40   -17800.00
04032               9.80   -18000.00
04033              -4.20   -18400.00
04034              -6.00   -18600.00
04035               7.00   -18800.00
04036               3.20   -19000.00
04037              -4.40   -19200.00
04038               4.40   -19600.00
04039               0.20   -19600.00
04040              -2.80   -20000.00
04041               0.00   -20000.00
04042               1.20   -20200.00
04043               4.60   -20200.00
04044              -2.20   -20600.00
04045               1.80   -20800.00
04046               3.00   -20800.00
04047              -3.60   -21000.00
04048              -0.60   -21000.00
04049               3.20   -21200.00
04050               1.40   -21200.00
04051              -2.80   -21600.00
04052               3.00   -21600.00
04053               3.60   -21600.00
04054              -4.40   -22000.00
04055               0.60   -21800.00
04056               3.80   -22000.00
04057              -0.40   -22000.00
04058              -0.80   -22000.00
04059               3.40   -22000.00
04060               1.60   -22000.00
04061              -3.00   -22000.00
04062               1.20   -22000.00
04063               3.20   -22000.00
04064              -2.20   -22000.00
04065               0.60   -22000.00
04066               4.20   -22000.00
04067              -0.20   -22000.00
04068              -1.80   -22000.00
04069               1.00   -22000.00
04070               1.40   -22000.00
04071              -0.60   -22000.00
04072               1.20   -21800.00
04073               2.00   -21800.00
04074              -0.40   -21800.00
04075               0.40   -21600.00
04076               1.00   -21600.00
04077               0.40   -21600.00
04078              -0.20   -21400.00
04079               0.40   -21200.00
04080               1.80   -21200.00
04081               0.20   -21000.00
04082               0.20   -21000.00
04083               1.20   -20800.00
04084               0.20   -20600.00
04085              -0.40   -20400.00
04086               0.60   -20200.00
04087               1.40   -20200.00
04088              -0.20   -19800.00
04089               0.40   -19600.00
04090               0.60   -19600.00
04091              -0.60   -19200.00
04092               0.40   -19200.00
04093               0.40   -18800.00
04094              -0.20   -18600.00
04095               1.20   -18400.00
04096               0.40   -18400.00
04097              -0.40   -17800.00
04098               0.20   -17600.00
04099               0.20   -17400.00
04100              -0.40   -17200.00
04101               0.40   -16800.00
04102               0.60   -16400.00
04103              -0.20   -16200.00
04104               0.80   -16000.00
04105               0.60   -15600.00
04106              -0.80   -15400.00
04107               0.20   -15200.00
04108               0.40   -14800.00
04109              -0.40   -14400.00
04110               0.60   -14000.00
04111               0.40   -13800.00
04112              -0.20   -13400.00
04113               0.20   -13200.00
04114               0.00   -12800.00
04115              -0.20   -12400.00
04116               0.40   -12000.00
04117               0.60   -11800.00
04118              -0.20   -11400.00
04119               0.00   -11000.00
04120               0.40   -10600.00
04121              -0.60   -10200.00
04122               0.40    -9800.00
04123               0.20    -9600.00
04124              -0.40    -9000.00
04125               0.60    -8800.00
04126               0.20    -8400.00
04127              -0.40    -8000.00
04128              -0.40    -7600.00
04129              -0.20    -7200.00
04130              -0.40    -6800.00
04131               0.20    -6400.00
04132              -0.20    -6000.00
04133               0.40    -5600.00
04134              -0.40    -5200.00
04135              -0.20    -4600.00
04136              -0.40    -4200.00
04137               0.00    -3800.00
04138              -0.60    -3600.00
04139               0.00    -3200.00
04140               0.40    -2800.00
04141              -0.40    -2400.00
04142              -1.00    -1800.00
04143               0.20    -1600.00
04144              -0.60    -1000.00
04145              -1.20     -600.00
04146               0.40     -200.00
04147               0.40      200.00
04148               0.00      600.00
04149               3.60     1000.00
04150              -0.60     1400.00
04151              -2.80     1800.00
04152               1.80     2000.00
04153               2.00     2400.00
04154              -2.20     2800.00
04155               0.20     3200.00
04156               7.60     3600.00
04157              20.00     4400.00
04158               8.20     4800.00
04159             -25.00     5200.00
04160             -17.00     5600.00
04161              25.00     6000.00
04162              -8.60     6200.00
04163             -25.00     6400.00
04164              25.00     7000.00
04165              25.00     7600.00
04166             -25.00     7800.00
04167             -24.20     8400.00
04168              25.00     8400.00
04169             -25.00     8800.00
04170             -25.00     9200.00
04171              25.00     9600.00
04172              -7.40    10000.00
04173             -25.00    10600.00
04174              25.00    10800.00
04175              21.20    11200.00
04176             -25.00    11400.00
04177             -13.60    12000.00
04178              25.00    12400.00
04179              -1.80    12800.00
04180             -25.00    13000.00
04181              14.40    13200.00
04182              13.00    13600.00
04183             -17.00    14000.00
04184             -12.00    14400.00
04185              15.60    14800.00
04186               4.20    15000.00
04187             -19.00    15400.00
04188              10.80    15600.00
04189              11.00    15800.00
04190             -20.40    16400.00
04191              -0.40    16400.00
04192              13.00    16800.00
04193             -11.00    16800.00
04194              -5.80    17400.00
04195              14.00    17600.00
04196              -3.60    18000.00
04197             -11.60    18000.00
04198               7.00    18200.00
04199               0.60    18600.00
04200              -9.80    18800.00
04201               3.60    19000.00
04202               4.20    19200.00
04203              -6.60    19400.00
04204               0.20    19600.00
04205               1.80    19800.00
04206              -4.40    20000.00
04207              -2.80    20200.00
04208               1.60    20400.00
04209               0.80    20400.00
04210              -3.60    20600.00
04211              -0.20    20800.00
04212               0.40    21000.00
04213              -3.60    21200.00
04214              -2.60    21200.00
04215               0.60    21400.00
04216              -0.20    21600.00
04217              -2.60    21400.00
04218              -0.60    21600.00
04219               0.20    21800.00
04220              -3.60    21800.00
04221              -2.60    21800.00
04222               0.60    22000.00
04223              -1.20    22000.00
04224              -2.80    22000.00
04225               0.40    22000.00
04226               0.20    22000.00
04227              -3.80    22000.00
04228              -1.80    22200.00
04229               1.00    22200.00
04230              -2.20    22000.00
04231              -2.00    22200.00
04232               0.20    22000.00
04233              -1.20    22200.00
04234              -2.80    22000.00
04235              -0.80    22000.00
04236              -0.40    22000.00
04237              -2.40    21800.00
04238              -1.40    22000.00
04239              -0.40    21800.00
04240              -1.20    21600.00
04241              -2.00    21600.00
04242              -1.40    21400.00
04243              -0.40    21200.00
04244              -1.00    21200.00
04245              -2.00    21200.00
04246              -0.60    21000.00
04247              -0.40    21000.00
04248              -2.00    20600.00
04249              -0.80    20600.00
04250              -0.60    20400.00
04251              -2.20    20200.00
04252              -1.40    20000.00
04253               0.20    19800.00
04254              -1.60    19800.00
04255              -1.20    19400.00
04256               0.20    19200.00
04257              -1.20    19000.00
04258              -1.40    18800.00
04259              -0.80    18600.00
04260              -1.20    18400.00
04261              -1.20    18200.00
04262              -0.60    18000.00
04263              -1.00    17600.00
04264              -1.60    17400.00
04265              -1.00    17000.00
04266              -1.00    16800.00
04267              -1.20    16400.00
04268              -0.60    16200.00
04269              -1.00    16000.00
04270              -1.00    15600.00
04271              -1.00    15600.00
04272              -1.00    15000.00
04273              -1.00    14800.00
04274              -1.20    14400.00
04275              -0.20    14200.00
04276              -1.20    13600.00
04277              -1.20    13400.00
04278              -0.20    13200.00
04279              -1.20    12600.00
04280              -1.40    12400.00
04281              -0.60    12000.00
04282              -1.00    11800.00
04283              -0.80    11200.00
04284              -0.40    11000.00
04285              -1.20    10600.00
04286              -0.80    10200.00
04287              -0.40     9600.00
04288              -1.00     9400.00
04289              -1.00     9000.00
04290              -1.00     8600.00
04291              -0.40     8400.00
04292              -1.00     7800.00
04293              -0.60     7400.00
04294              -0.40     7000.00
04295              -1.20     6800.00
04296              -0.40     6400.00
04297              -0.40     6000.00
04298              -1.80     5600.00
04299              -0.40     5000.00
04300               0.00     4600.00
04301              -1.20     4400.00
04302              -0.60     3800.00
04303              -0.20     3400.00
04304              -0.60     3000.00
04305              -0.60     2600.00
04306               0.00     2200.00
04307              -0.20     1800.00
04308              -0.40     1200.00
04309              -0.40      800.00
04310              -0.40      600.00
04311              -0.60      200.00
04312               0.20     -200.00
04313               0.20     -600.00
04314               3.20    -1000.00
04315               0.20    -1200.00
04316              -2.40    -1600.00
04317               1.40    -2200.00
04318               2.00    -2600.00
04319              -2.20    -3000.00
04320               2.00    -3200.00
04321              19.40    -3600.00
04322              25.00    -4400.00
04323             -25.00    -5000.00
04324             -25.00    -5600.00
04325              25.00    -5800.00
04326               1.00    -5800.00
04327             -25.00    -6000.00
04328              25.00    -6400.00
04329              25.00    -7400.00
04330             -25.00    -7000.00
04331              25.00    -8000.00
04332              25.00    -8400.00
04333             -25.00    -8400.00
04334              10.60    -9200.00
04335              25.00    -9200.00
04336             -25.00    -9600.00
04337               9.80   -10400.00
04338              25.00   -10400.00
04339              -8.60   -11000.00
04340             -15.60   -11400.00
04341             -13.80   -11600.00
04342              25.00   -12200.00
04343             -13.80   -12400.00
04344             -15.80   -12800.00
04345              25.00   -13000.00
04346              -1.20   -13200.00
04347             -10.00   -14000.00
04348             -12.40   -14200.00
04349              20.20   -14600.00
04350               2.20   -14600.00
04351             -24.20   -15200.00
04352              25.00   -15400.00
04353               1.80   -15600.00
04354             -22.60   -16000.00
04355              12.20   -16400.00
04356               7.00   -16600.00
04357             -13.40   -16800.00
04358               3.60   -17000.00
04359              15.00   -17200.00
04360             -10.60   -17600.00
04361              -2.40   -18000.00
04362              10.20   -18200.00
04363              -7.40   -18400.00
04364              -4.40   -18600.00
04365               9.80   -18800.00
04366               0.60   -19000.00
04367              -4.40   -19400.00
04368               6.00   -19400.00
04369              -1.00   -19600.00
04370              -3.00   -20000.00
04371               0.40   -20200.00
04372               2.60   -20200.00
04373               2.60   -20400.00
04374              -2.60   -20400.00
04375               4.20   -20800.00
04376               0.60   -20800.00
04377              -3.80   -21000.00
04378               1.40   -21200.00
04379               3.00   -21200.00
04380              -0.20   -21200.00
04381              -0.60   -21400.00
04382               4.20   -21600.00
04383               0.20   -21600.00
04384              -3.00   -21800.00
04385               2.00   -22000.00
04386               1.80   -22000.00
04387              -0.40   -22000.00
04388               1.80   -22000.00
04389               1.60   -22000.00
04390               0.40   -22000.00
04391              -0.80   -22000.00
04392               0.60   -22000.00
04393               1.80   -22000.00
04394              -0.40   -22200.00
04395               0.60   -22200.00
04396               2.40   -22000.00
04397               1.00   -22000.00
04398              -1.20   -22000.00
04399               0.40   -22000.00
04400               2.60   -22000.00
04401              -0.40   -21800.00
04402               0.20   -21800.00
04403               2.20   -21800.00
04404               0.60   -21600.00
04405              -1.20   -21600.00
04406               1.00   -21600.00
04407               1.80   -21600.00
04408              -1.40   -21200.00
04409               0.60   -21200.00
04410               2.80   -21000.00
04411              -0.60   -21000.00
04412              -0.60   -20800.00
04413               2.00   -20600.00
04414               0.40   -20600.00
04415              -0.60   -20200.00
04416               0.60   -20200.00
04417               1.80   -20000.00
04418              -0.40   -20000.00
04419               0.40   -19600.00
04420               1.40   -19400.00
04421              -1.00   -19200.00
04422              -0.60   -19000.00
04423               1.00   -18800.00
04424               0.40   -18600.00
04425              -0.20   -18400.00
04426               0.60   -18000.00
04427               0.60   -17800.00
04428              -0.20   -17600.00
04429               0.40   -17200.00
04430               0.20   -17000.00
04431              -0.20   -16800.00
04432               0.40   -16400.00
04433               0.40   -16200.00
04434               0.40   -16000.00
04435               0.00   -15600.00
04436              -0.40   -15200.00
04437               0.40   -15200.00
04438               0.40   -14600.00
04439              -0.20   -14600.00
04440               0.40   -14000.00
04441               0.40   -13800.00
04442              -0.40   -13400.00
04443              -0.40   -13000.00
04444               0.60   -12800.00
04445               0.20   -12400.00
04446              -0.40   -12000.00
04447               1.00   -11600.00
04448               0.20   -11400.00
04449              -0.60   -10800.00
04450               0.40   -10400.00
04451               0.40   -10000.00
04452              -0.40    -9800.00
04453              -0.40    -9600.00
04454               0.40    -9000.00
04455              -0.20    -8800.00
04456              -0.40    -8200.00
04457               0.60    -8000.00
04458              -0.40    -7600.00
04459              -0.20    -7200.00
04460               0.20    -6600.00
04461               0.20    -6200.00
04462              -0.40    -6000.00
04463               0.20    -5400.00
04464              -0.20    -5000.00
04465              -0.40    -4600.00
04466              -0.60    -4200.00
04467               0.40    -3800.00
04468              -0.40    -3400.00
04469              -0.60    -3200.00
04470               0.40    -2600.00
04471               0.20    -2000.00
04472              -1.00    -1800.00
04473              -0.60    -1400.00
04474              -0.40    -1000.00
04475              -0.60     -400.00
04476              -0.40     -200.00
04477               0.60      400.00
04478               1.20      600.00
04479               3.60      800.00
04480              -2.20     1400.00
04481              -2.00     1800.00
04482               2.60     2200.00
04483               0.20     2600.00
04484              -2.80     3000.00
04485               2.60     3200.00
04486               9.00     3800.00
04487              21.20     4600.00
04488              -1.20     4800.00
04489             -25.00     5400.00
04490              -4.80     5600.00
04491              25.00     6000.00
04492             -21.20     6200.00
04493             -25.00     6600.00
04494              25.00     7000.00
04495              25.00     7600.00
04496             -25.00     7800.00
04497              11.00     8400.00
04498              25.00     8400.00
04499             -25.00     8800.00
04500             -23.80     9400.00
04501              25.00     9600.00
04502             -25.00    10000.00
04503             -25.00    10400.00
04504              25.00    10800.00
04505               8.20    11200.00
04506             -25.00    11600.00
04507              -3.00    12000.00
04508              25.00    12400.00
04509             -11.00    12800.00
04510             -19.80    13200.00
04511              18.80    13200.00
04512               7.60    13800.00
04513             -18.80    14000.00
04514              -8.40    14400.00
04515              18.00    14800.00
04516              -1.80    15200.00
04517             -17.40    15400.00
04518              15.60    15600.00
04519               5.80    16000.00
04520             -21.40    16200.00
04521               5.80    16400.00
04522              10.80    16600.00
04523             -14.80    17200.00
04524              -0.60    17400.00
04525              14.00    17400.00
04526              -8.20    17800.00
04527              -8.60    18200.00
04528               8.80    18400.00
04529              -3.00    18400.00
04530              -7.60    18800.00
04531               6.00    19000.00
04532               1.40    19200.00
04533              -5.80    19200.00
04534               1.00    19600.00
04535              -0.40    19800.00
04536              -4.00    20000.00
04537              -1.40    20000.00
04538               1.80    20400.00
04539              -0.20    20400.00
04540              -3.00    20600.00
04541              -0.20    20800.00
04542              -0.60    21200.00
04543              -3.60    21200.00
04544              -2.00    21200.00
04545               0.60    21200.00
04546              -0.20    21600.00
04547              -2.80    21600.00
04548              -0.40    21800.00
04549              -0.20    21600.00
04550              -4.00    22000.00
04551              -1.20    22000.00
04552               1.00    22000.00
04553              -2.80    22000.00
04554              -1.60    22000.00
04555               0.60    22000.00
04556              -2.00    22000.00
04557              -3.20    22200.00
04558              -0.40    22000.00
04559              -0.40    22200.00
04560              -2.00    22000.00
04561              -0.60    22200.00
04562              -0.40    22000.00
04563              -2.20    22000.00
04564              -2.20    22000.00
04565              -0.80    22000.00
04566              -1.00    22000.00
04567              -1.80    22000.00
04568              -0.60    21800.00
04569              -0.40    21600.00
04570              -1.60    21600.00
04571              -1.80    21400.00
04572              -1.20    21400.00
04573              -1.40    21200.00
04574              -1.40    21200.00
04575              -1.00    21200.00
04576              -0.60    20800.00
04577              -1.20    20800.00
04578              -1.20    20800.00
04579              -0.40    20400.00
04580              -1.20    20400.00
04581              -1.80    20000.00
04582              -0.60    20000.00
04583              -0.20    19800.00
04584              -1.40    19600.00
04585              -1.20    19600.00
04586              -0.80    19200.00
04587              -1.40    19000.00
04588              -0.60    18800.00
04589              -1.80    18400.00
04590              -1.20    18400.00
04591               0.00    18000.00
04592              -1.60    17800.00
04593              -2.00    17600.00
04594              -0.20    17200.00
04595              -1.20    17200.00
04596              -2.00    16600.00
04597               0.20    16600.00
04598              -0.60    16200.00
04599              -1.80    16000.00
04600              -0.40    15600.00
04601              -0.40    15400.00
04602              -2.00    15000.00
04603              -0.60    14800.00
04604              -0.40    14200.00
04605              -1.80    14200.00
04606              -1.20    13600.00
04607              -0.60    13400.00
04608              -1.40    13000.00
04609              -1.40    12800.00
04610              -0.40    12400.00
04611              -1.20    12000.00
04612              -1.00    11600.00
04613              -0.60    11200.00
04614              -1.00    11000.00
04615              -1.20    10400.00
04616              -0.80    10200.00
04617              -1.00     9600.00
04618              -1.00     9400.00
04619              -0.60     9000.00
04620              -0.60     8600.00
04621              -1.00     8400.00
04622              -0.80     7800.00
04623              -0.80     7600.00
04624              -1.00     7000.00
04625              -1.00     6800.00
04626              -0.60     6400.00
04627              -0.40     6000.00
04628              -0.60     5400.00
04629              -0.20     5000.00
04630              -0.60     4600.00
04631              -1.00     4400.00
04632               0.00     3800.00
04633              -0.60     3400.00
04634              -1.00     3200.00
04635              -0.20     2600.00
04636              -0.60     2200.00
04637              -0.60     1800.00
04638               0.20     1400.00
04639              -0.60      800.00
04640              -0.60      400.00
04641               0.20        0.00
04642               0.40     -400.00
04643               0.40     -600.00
04644               3.40    -1000.00
04645              -1.20    -1400.00
04646              -2.00    -2000.00
04647               2.00    -2000.00
04648               1.20    -2600.00
04649              -2.20    -3000.00
04650               4.40    -3200.00
04651              23.40    -3600.00
04652              20.40    -4800.00
04653             -25.00    -5200.00
04654             -20.20    -5400.00
04655              25.00    -5800.00
04656             -15.00    -6000.00
04657             -25.00    -5800.00
04658              25.00    -6600.00
04659              25.00    -7200.00
04660             -25.00    -7000.00
04661              25.00    -8400.00
04662              25.00    -8400.00
04663             -25.00    -8600.00
04664              25.00    -9400.00
04665              25.00    -9200.00
04666             -25.00    -9600.00
04667              25.00   -10400.00
04668              25.00   -10400.00
04669              -9.80   -11200.00
04670             -21.00   -11400.00
04671              -3.00   -11600.00
04672              25.00   -12200.00
04673             -25.00   -12200.00
04674              -3.60   -13000.00
04675              24.80   -13000.00
04676              -6.00   -13600.00
04677             -10.20   -13800.00
04678              -9.20   -14200.00
04679              23.80   -14600.00
04680              -7.80   -14600.00
04681             -17.00   -15200.00
04682              25.00   -15400.00
04683              -8.40   -15600.00
04684             -17.80   -16200.00
04685              15.40   -16400.00
04686               2.20   -16600.00
04687             -13.20   -16800.00
04688               8.40   -17000.00
04689              11.60   -17400.00
04690             -12.40   -17600.00
04691               2.20   -18000.00
04692               7.60   -18000.00
04693              -8.80   -18400.00
04694              -0.40   -18800.00
04695               9.00   -19000.00
04696              -2.00   -19000.00
04697              -2.00   -19400.00
04698               6.00   -19600.00
04699              -3.00   -19800.00
04700              -1.80   -20000.00
04701               0.60   -20000.00
04702               2.60   -20200.00
04703               2.00   -20400.00
04704              -1.80   -20400.00
04705               4.20   -20800.00
04706              -0.60   -20800.00
04707              -2.60   -21000.00
04708               2.00   -21000.00
04709               2.60   -21200.00
04710              -0.20   -21600.00
04711              -0.40   -21400.00
04712               4.40   -21800.00
04713              -0.40   -21600.00
04714              -3.60   -21800.00
04715               2.80   -21800.00
04716               1.80   -21800.00
04717              -1.60   -22000.00
04718               2.00   -22000.00
04719               3.20   -22000.00
04720              -1.20   -22000.00
04721              -1.00   -22200.00
04722               2.60   -22000.00
04723               0.40   -22000.00
04724              -1.60   -22200.00
04725               2.60   -22000.00
04726               1.80   -22200.00
04727              -1.00   -22000.00
04728               0.20   -22000.00
04729               1.20   -22000.00
04730               0.40   -22000.00
04731               0.00   -21800.00
04732               1.80   -22000.00
04733               1.00   -21800.00
04734               0.20   -21600.00
04735               0.20   -21600.00
04736               0.40   -21600.00
04737               0.60   -21400.00
04738              -0.20   -21200.00
04739               1.00   -21200.00
04740               1.80   -21000.00
04741              -0.20   -20800.00
04742               0.20   -20800.00
04743               1.00   -20800.00
04744               0.20   -20400.00
04745              -0.20   -20400.00
04746               1.00   -20200.00
04747               0.60   -20000.00
04748              -0.20   -19600.00
04749               0.60   -19400.00
04750               0.80   -19400.00
04751              -0.40   -19200.00
04752               0.20   -18800.00
04753               0.60   -18800.00
04754               0.60   -18600.00
04755               0.20   -18200.00
04756              -0.20   -18200.00
04757               0.40   -17600.00
04758               0.40   -17400.00
04759              -0.20   -17200.00
04760               0.00   -16800.00
04761               0.60   -16800.00
04762               0.40   -16400.00
04763              -0.20   -16000.00
04764               0.40   -16000.00
04765               0.20   -15600.00
04766              -0.40   -15200.00
04767               0.60   -15000.00
04768               0.20   -14800.00
04769               0.20   -14400.00
04770               0.20   -14000.00
04771               0.20   -13600.00
04772               0.60   -13200.00
04773              -0.40   -13000.00
04774              -0.20   -12400.00
04775               0.40   -12200.00
04776               0.20   -12000.00
04777              -0.40   -11600.00
04778              -0.20   -11000.00
04779               0.20   -10800.00
04780              -0.40   -10400.00
04781              -0.40   -10000.00
04782               0.80    -9800.00
04783               0.20    -9200.00
04784              -0.40    -9000.00
04785               0.40    -8600.00
04786               0.20    -8200.00
04787              -0.40    -8000.00
04788              -0.20    -7400.00
04789              -0.20    -6800.00
04790               0.20    -6600.00
04791              -0.20    -6200.00
04792               0.20    -5800.00
04793              -0.20    -5200.00
04794              -1.00    -5000.00
04795               0.20    -4400.00
04796              -0.40    -4200.00
04797              -1.00    -3800.00
04798              -0.40    -3400.00
04799              -0.20    -2800.00
04800               0.20    -2600.00
04801              -0.40    -2200.00
04802              -0.40    -1600.00
04803              -0.20    -1200.00
04804              -0.80     -800.00
04805              -1.20     -400.00
04806               0.20        0.00
04807               0.20      400.00
04808               0.80      800.00
04809               2.80     1000.00
04810              -2.00     1600.00
04811              -1.80     1800.00
04812               2.80     2200.00
04813               0.20     2800.00
04814              -2.80     3000.00
04815               3.60     3400.00
04816              10.80     3800.00
04817              23.00     4600.00
04818             -12.20     5000.00
04819             -25.00     5400.00
04820               7.40     5600.00
04821              25.00     6200.00
04822             -25.00     6200.00
04823             -25.00     6800.00
04824              25.00     7200.00
04825              25.00     7600.00
04826             -25.00     7800.00
04827              25.00     8400.00
04828              25.00     8600.00
04829             -25.00     9000.00
04830               9.00     9400.00
04831              25.00     9600.00
04832             -25.00    10200.00
04833             -17.80    10800.00
04834              25.00    10800.00
04835              -4.80    11200.00
04836             -25.00    11600.00
04837               8.20    12000.00
04838              25.00    12400.00
04839             -21.20    12800.00
04840             -11.60    13200.00
04841              21.80    13400.00
04842               0.60    13600.00
04843             -19.00    14200.00
04844              -3.40    14400.00
04845              18.60    15000.00
04846              -8.40    15200.00
04847             -13.00    15400.00
04848              18.60    15600.00
04849              -1.80    16000.00
04850             -18.80    16200.00
04851               9.80    16400.00
04852               6.80    16800.00
04853             -15.60    17200.00
04854               3.80    17400.00
04855              11.40    17600.00
04856             -10.00    18000.00
04857              -5.60    18200.00
04858               7.80    18400.00
04859              -5.00    18800.00
04860              -6.20    18800.00
04861               6.60    19200.00
04862              -0.20    19200.00
04863              -4.60    19600.00
04864               1.40    19600.00
04865              -1.00    19800.00
04866              -4.20    20000.00
04867              -1.80    20200.00
04868               1.80    20400.00
04869              -1.00    20600.00
04870              -3.00    20800.00
04871               0.60    20800.00
04872              -0.60    21000.00
04873              -3.80    21200.00
04874              -1.00    21400.00
04875               1.00    21400.00
04876              -1.40    21600.00
04877              -2.20    21600.00
04878               1.20    21600.00
04879              -2.20    21800.00
04880              -4.20    21800.00
04881               0.40    22000.00
04882              -0.20    22000.00
04883              -2.20    22000.00
04884              -1.00    22000.00
04885               0.20    22000.00
04886              -2.20    22000.00
04887              -2.80    22200.00
04888              -0.60    22000.00
04889              -0.80    22000.00
04890              -2.00    22200.00
04891              -0.20    22000.00
04892              -0.20    22000.00
04893              -2.20    22000.00
04894              -1.60    22000.00
04895              -0.60    22000.00
04896              -1.80    22000.00
04897              -2.00    21800.00
04898              -0.60    21600.00
04899              -1.20    21600.00
04900              -1.60    21600.00
04901              -1.20    21600.00
04902              -1.60    21400.00
04903              -0.60    21200.00
04904              -1.00    21200.00
04905              -1.40    21200.00
04906              -0.60    20800.00
04907              -0.80    20600.00
04908              -1.80    20600.00
04909              -0.60    20600.00
04910              -0.60    20200.00
04911              -2.00    20000.00
04912              -0.60    20000.00
04913               0.00    19800.00
04914              -1.40    19600.00
04915              -1.40    19400.00
04916              -0.40    19200.00
04917              -1.60    19000.00
04918              -1.60    18800.00
04919              -0.60    18400.00
04920              -1.00    18200.00
04921              -1.00    18000.00
04922              -0.60    17800.00
04923              -1.20    17400.00
04924              -1.00    17400.00
04925              -1.20    17000.00
04926              -1.40    16600.00
04927              -0.60    16400.00
04928              -1.00    16200.00
04929              -1.60    15800.00
04930              -0.60    15600.00
04931              -0.60    15400.00
04932              -2.00    14800.00
04933              -1.00    14600.00
04934              -0.40    14200.00
04935              -1.20    14000.00
04936              -1.20    13600.00
04937              -0.60    13200.00
04938              -1.40    12800.00
04939              -1.60    12600.00
04940              -0.40    12400.00
04941              -0.80    12000.00
04942              -1.20    11600.00
04943              -0.60    11200.00
04944              -0.80    10800.00
04945              -1.20    10400.00
04946              -1.00    10000.00
04947              -1.20     9600.00
04948              -1.20     9200.00
04949              -1.00     8800.00
04950              -0.60     8600.00
04951              -1.20     8400.00
04952              -0.80     7600.00
04953              -0.20     7400.00
04954              -0.80     7000.00
04955              -1.20     6600.00
04956               0.00     6200.00
04957              -0.60     6000.00
04958              -1.40     5400.00
04959               0.20     4800.00
04960              -0.60     4400.00
04961              -1.80     4000.00
04962               0.60     3800.00
04963              -0.40     3200.00
04964              -2.20     2800.00
04965               0.40     2400.00
04966               0.20     2000.00
04967              -1.60     1600.00
04968              -0.20     1200.00
04969               0.40      800.00
04970              -1.20      400.00
04971               0.20        0.00
04972               1.20     -400.00
04973               0.60     -800.00
04974               3.00    -1200.00
04975              -1.40    -1600.00
04976              -2.00    -2000.00
04977               2.00    -2200.00
04978               0.60    -2600.00
04979              -2.20    -3000.00
04980               6.20    -3200.00
04981              25.00    -4000.00
04982               7.60    -4600.00
04983             -25.00    -5000.00
04984              -4.20    -5600.00
04985              25.00    -5800.00
04986             -25.00    -6000.00
04987             -25.00    -6000.00
04988              25.00    -6800.00
04989              -7.60    -7000.00
04990             -25.00    -7400.00
04991              25.00    -8400.00
04992              25.00    -8200.00
04993             -25.00    -8800.00
04994              25.00    -9400.00
04995              25.00    -9200.00
04996             -25.00    -9800.00
04997              25.00   -10400.00
04998              18.00   -10600.00
04999              -9.80   -11200.00
05000             -24.20   -11400.00
