Unit:(mV)
                     CH1         CH2
Frequency              ? 303.210 kHz
00001              -0.20     9200.00
00002               0.20     9000.00
00003              -0.60     8600.00
00004              -0.60     8200.00
00005               0.20     7800.00
00006              -0.60     7600.00
00007              -0.60     6800.00
00008               0.20     6800.00
00009              -0.40     6200.00
00010              -0.40     5800.00
00011               0.00     5400.00
00012              -0.60     4800.00
00013              -1.00     4400.00
00014              -0.20     4000.00
00015              -0.60     3600.00
00016              -0.40     3200.00
00017               0.20     2800.00
00018              -0.80     2400.00
00019              -1.00     2000.00
00020               1.80     1600.00
00021              -1.00     1200.00
00022              -3.00      800.00
00023               1.40      400.00
00024               2.60        0.00
00025              -0.80     -400.00
00026               1.40     -800.00
00027               3.00    -1400.00
00028              -4.40    -1800.00
00029              -1.20    -2000.00
00030               4.60    -2400.00
00031              -1.20    -2800.00
00032              -2.20    -3000.00
00033              13.40    -3600.00
00034              25.00    -4200.00
00035             -23.60    -5000.00
00036             -25.00    -5200.00
00037              23.40    -5800.00
00038              23.60    -6000.00
00039             -25.00    -6000.00
00040              17.80    -6400.00
00041              25.00    -7200.00
00042             -25.00    -7200.00
00043             -25.00    -7800.00
00044              25.00    -8800.00
00045             -25.00    -8400.00
00046             -25.00    -9200.00
00047              25.00    -9200.00
00048             -25.00    -9400.00
00049             -23.00   -10000.00
00050              25.00   -10400.00
00051              -8.40   -10800.00
00052              -3.60   -11400.00
00053             -21.00   -11400.00
00054              17.20   -12200.00
00055              11.80   -12400.00
00056             -23.80   -12600.00
00057              14.20   -13200.00
00058               7.80   -13200.00
00059              -2.60   -14200.00
00060             -19.00   -14200.00
00061               8.20   -14600.00
00062              20.20   -14800.00
00063             -25.00   -15000.00
00064              13.00   -15600.00
00065              19.80   -15800.00
00066             -24.20   -16000.00
00067               1.00   -16400.00
00068              13.40   -16800.00
00069             -10.80   -17000.00
00070              -4.60   -17200.00
00071              15.40   -17600.00
00072              -5.40   -17600.00
00073              -5.40   -18000.00
00074               8.40   -18400.00
00075              -6.00   -18600.00
00076              -4.20   -18800.00
00077               5.40   -19000.00
00078              -0.20   -19200.00
00079              -2.20   -19400.00
00080               5.60   -19600.00
00081              -2.60   -20000.00
00082              -2.80   -20000.00
00083               1.80   -20400.00
00084              -3.00   -20400.00
00085               2.80   -20800.00
00086               0.20   -20600.00
00087               0.20   -21000.00
00088               2.40   -21000.00
00089              -2.80   -21200.00
00090              -2.20   -21400.00
00091               1.20   -21600.00
00092               0.60   -21800.00
00093              -2.20   -21600.00
00094               2.60   -21800.00
00095               2.60   -22000.00
00096              -3.80   -22000.00
00097              -0.60   -22000.00
00098               2.20   -22200.00
00099              -2.80   -22400.00
00100              -0.20   -22200.00
00101               3.40   -22400.00
00102               0.20   -22400.00
00103              -2.00   -22400.00
00104               0.20   -22400.00
00105               0.60   -22400.00
00106              -2.00   -22400.00
00107               0.40   -22400.00
00108               2.00   -22400.00
00109              -0.20   -22400.00
00110              -0.20   -22400.00
00111              -0.40   -22400.00
00112              -0.20   -22400.00
00113              -0.60   -22400.00
00114              -0.20   -22200.00
00115               0.60   -22000.00
00116               0.40   -22000.00
00117               0.40   -22000.00
00118              -0.40   -21800.00
00119               0.40   -21800.00
00120              -0.20   -21600.00
00121              -1.20   -21400.00
00122               0.80   -21600.00
00123               0.20   -21200.00
00124              -0.60   -21200.00
00125              -0.20   -20800.00
00126               0.20   -20800.00
00127              -0.40   -20800.00
00128              -0.60   -20400.00
00129               0.60   -20200.00
00130              -0.20   -20200.00
00131              -0.60   -20000.00
00132               0.40   -19800.00
00133              -0.80   -19600.00
00134              -0.60   -19400.00
00135               0.20   -19200.00
00136              -0.60   -19000.00
00137              -0.60   -18600.00
00138               0.60   -18200.00
00139              -0.60   -18200.00
00140              -0.60   -17800.00
00141               0.80   -17400.00
00142              -0.80   -17200.00
00143              -1.20   -17000.00
00144               1.20   -16800.00
00145              -0.60   -16600.00
00146              -1.20   -16400.00
00147               1.00   -16000.00
00148              -0.60   -15600.00
00149              -1.00   -15200.00
00150               0.40   -15200.00
00151              -0.40   -14800.00
00152              -1.00   -14400.00
00153               0.20   -14000.00
00154               0.20   -13600.00
00155              -1.00   -13200.00
00156              -0.40   -13000.00
00157               0.40   -12800.00
00158              -0.60   -12400.00
00159               0.20   -12000.00
00160               0.20   -11400.00
00161              -1.20   -11200.00
00162              -0.40   -10800.00
00163               0.20   -10400.00
00164              -0.60   -10400.00
00165               0.00    -9600.00
00166               0.20    -9200.00
00167              -0.40    -9000.00
00168              -0.40    -8600.00
00169               0.20    -8200.00
00170              -0.60    -8000.00
00171              -0.60    -7400.00
00172               0.60    -7000.00
00173              -0.40    -6600.00
00174              -1.00    -6000.00
00175               0.60    -5600.00
00176              -0.60    -5200.00
00177              -0.60    -4800.00
00178               0.20    -4400.00
00179               0.20    -4000.00
00180              -1.00    -3600.00
00181               0.20    -3200.00
00182              -0.20    -2800.00
00183              -0.60    -2400.00
00184              -0.60    -2000.00
00185               0.40    -1600.00
00186              -0.40    -1200.00
00187              -0.40     -400.00
00188               0.60     -200.00
00189               0.20        0.00
00190               0.40      600.00
00191               3.60     1200.00
00192               0.20     1400.00
00193              -2.80     1800.00
00194               1.80     2000.00
00195               2.20     2400.00
00196              -1.20     2800.00
00197              -0.40     3200.00
00198               6.20     3600.00
00199              18.00     4200.00
00200              15.00     4800.00
00201             -25.00     5400.00
00202             -23.40     5600.00
00203              25.00     6000.00
00204              -1.80     6400.00
00205             -25.00     6400.00
00206              19.60     7000.00
00207              25.00     7800.00
00208             -25.00     7800.00
00209             -25.00     8400.00
00210              25.00     8400.00
00211             -23.00     9000.00
00212             -25.00     9400.00
00213              25.00     9600.00
00214              10.60    10000.00
00215             -25.00    10400.00
00216              25.00    10800.00
00217              25.00    11200.00
00218             -25.00    11600.00
00219             -21.80    12000.00
00220              25.00    12400.00
00221              -2.00    12800.00
00222             -22.20    13200.00
00223               6.80    13400.00
00224              22.80    14000.00
00225              -9.20    14400.00
00226             -17.20    14600.00
00227              12.00    15000.00
00228               6.00    15200.00
00229             -13.40    15600.00
00230              -1.00    15800.00
00231              13.40    16000.00
00232              -8.60    16200.00
00233              -0.40    16600.00
00234              10.00    16800.00
00235              -6.00    17200.00
00236              -3.80    17400.00
00237               5.80    17600.00
00238              -4.40    18000.00
00239              -4.40    18400.00
00240               6.60    18600.00
00241               0.20    18800.00
00242              -2.20    19200.00
00243               3.00    19200.00
00244              -0.20    19400.00
00245              -2.60    19600.00
00246               1.20    19800.00
00247              -2.60    20000.00
00248               1.40    20400.00
00249              -0.20    20600.00
00250              -3.20    20400.00
00251               4.20    21000.00
00252               2.20    21000.00
00253              -3.80    21000.00
00254               1.40    21200.00
00255               1.00    21400.00
00256              -4.20    21400.00
00257               1.00    21400.00
00258               1.20    21600.00
00259              -2.40    21600.00
00260               0.40    22000.00
00261               3.00    22000.00
00262              -2.40    22200.00
00263              -1.00    22000.00
00264               1.80    22200.00
00265              -2.20    22200.00
00266              -1.00    22400.00
00267               0.20    22400.00
00268               0.60    22400.00
00269              -0.20    22400.00
00270               0.40    22200.00
00271               0.20    22400.00
00272              -0.60    22200.00
00273              -0.60    22400.00
00274              -1.20    22200.00
00275              -0.60    22400.00
00276               0.40    22200.00
00277              -0.20    22200.00
00278              -0.40    22200.00
00279               0.40    22200.00
00280              -0.60    22200.00
00281              -0.60    22000.00
00282               0.40    22000.00
00283               0.20    22000.00
00284              -1.00    21600.00
00285              -0.20    21600.00
00286               0.20    21600.00
00287              -0.60    21400.00
00288              -0.60    21200.00
00289               0.20    21200.00
00290               0.20    21000.00
00291               0.20    20800.00
00292               0.20    21000.00
00293              -0.20    20600.00
00294              -1.00    20400.00
00295               0.00    20200.00
00296              -0.40    20000.00
00297               0.20    19800.00
00298               0.40    19600.00
00299               0.20    19200.00
00300              -0.40    19200.00
00301               0.20    19000.00
00302              -0.40    18800.00
00303              -0.40    18400.00
00304              -0.40    18000.00
00305               0.20    18000.00
00306              -0.20    17600.00
00307              -0.20    17200.00
00308               0.00    17000.00
00309               0.20    16600.00
00310              -0.40    16400.00
00311              -0.40    16200.00
00312               0.20    16000.00
00313              -0.40    15600.00
00314              -0.20    15400.00
00315               0.40    15000.00
00316              -0.60    14800.00
00317              -0.20    14400.00
00318               0.60    14000.00
00319              -1.00    13600.00
00320              -0.40    13400.00
00321               0.40    12800.00
00322              -0.60    12600.00
00323              -0.60    12400.00
00324               0.40    11800.00
00325              -0.40    11600.00
00326              -1.00    11200.00
00327               0.40    10800.00
00328              -0.20    10400.00
00329              -1.00    10000.00
00330               0.20     9600.00
00331              -0.20     9200.00
00332              -0.60     8800.00
00333              -0.20     8600.00
00334              -0.20     8200.00
00335              -1.00     7800.00
00336              -0.60     7200.00
00337              -0.20     6800.00
00338              -0.60     6400.00
00339              -0.60     6200.00
00340              -0.20     5600.00
00341              -0.20     5200.00
00342              -0.40     4800.00
00343              -0.40     4400.00
00344               0.20     4000.00
00345              -0.40     3600.00
00346              -0.60     3200.00
00347              -0.20     2800.00
00348              -0.40     2200.00
00349              -0.60     2000.00
00350              -0.40     1600.00
00351               0.00     1200.00
00352              -0.20      600.00
00353              -0.40      200.00
00354               0.20     -200.00
00355               0.40     -600.00
00356               2.60    -1000.00
00357               0.80    -1400.00
00358              -2.40    -1800.00
00359               0.40    -2000.00
00360               2.20    -2600.00
00361              -1.40    -2800.00
00362               0.60    -3200.00
00363              16.20    -3600.00
00364              25.00    -4400.00
00365             -25.00    -5000.00
00366             -25.00    -5400.00
00367              25.00    -5800.00
00368              11.80    -6000.00
00369             -25.00    -6000.00
00370              25.00    -6400.00
00371              25.00    -7400.00
00372             -25.00    -7200.00
00373              22.40    -8000.00
00374              25.00    -8600.00
00375             -25.00    -8400.00
00376             -19.40    -9200.00
00377              25.00    -9400.00
00378             -25.00    -9600.00
00379             -11.00   -10400.00
00380              25.00   -10600.00
00381               8.40   -11000.00
00382             -13.80   -11400.00
00383             -25.00   -11400.00
00384              25.00   -12200.00
00385              -2.00   -12200.00
00386             -25.00   -12800.00
00387              25.00   -13200.00
00388              10.60   -13600.00
00389             -16.60   -14000.00
00390             -15.40   -14400.00
00391              23.80   -14600.00
00392               2.00   -14800.00
00393             -25.00   -15200.00
00394              25.00   -15600.00
00395               4.40   -15800.00
00396             -21.20   -16200.00
00397               9.00   -16400.00
00398               5.40   -16800.00
00399              -9.20   -17200.00
00400               0.20   -17200.00
00401               9.00   -17600.00
00402              -4.40   -17600.00
00403              -1.00   -18000.00
00404               2.00   -18400.00
00405              -2.80   -18600.00
00406               0.40   -18800.00
00407              -1.00   -19200.00
00408               0.60   -19400.00
00409               2.20   -19400.00
00410              -0.40   -19600.00
00411              -2.00   -20000.00
00412               3.60   -20200.00
00413              -3.60   -20200.00
00414              -2.80   -20400.00
00415               6.20   -20800.00
00416              -3.00   -20800.00
00417              -0.60   -21000.00
00418               4.20   -21200.00
00419              -3.00   -21200.00
00420              -2.20   -21400.00
00421               3.00   -21600.00
00422              -0.20   -21600.00
00423              -2.60   -21800.00
00424               3.40   -21800.00
00425               0.60   -22000.00
00426              -2.80   -22000.00
00427               0.60   -22000.00
00428               1.00   -22000.00
00429              -1.20   -22400.00
00430               0.20   -22400.00
00431               0.80   -22400.00
00432               0.00   -22400.00
00433              -0.60   -22400.00
00434               0.20   -22400.00
00435               0.80   -22400.00
00436              -0.80   -22400.00
00437               0.20   -22400.00
00438               0.40   -22400.00
00439               0.60   -22400.00
00440              -0.60   -22400.00
00441              -0.60   -22400.00
00442               1.20   -22400.00
00443              -0.20   -22200.00
00444              -0.60   -22200.00
00445               0.40   -22000.00
00446               0.40   -22000.00
00447              -0.40   -22000.00
00448              -0.80   -21800.00
00449               1.00   -21800.00
00450              -0.60   -21600.00
00451              -1.20   -21400.00
00452               1.40   -21400.00
00453               0.20   -21200.00
00454              -1.00   -21000.00
00455               0.20   -21000.00
00456               0.20   -20800.00
00457              -0.80   -20400.00
00458              -0.60   -20600.00
00459               0.40   -20400.00
00460              -0.40   -20200.00
00461              -1.20   -20000.00
00462               1.20   -19800.00
00463              -1.00   -19400.00
00464              -1.00   -19200.00
00465               1.00   -19200.00
00466              -1.00   -18800.00
00467              -0.20   -18600.00
00468               0.80   -18400.00
00469              -1.00   -18000.00
00470              -0.20   -17800.00
00471               0.40   -17400.00
00472              -1.00   -17200.00
00473              -0.60   -17000.00
00474               0.40   -16800.00
00475              -0.60   -16600.00
00476              -0.40   -16200.00
00477              -0.20   -16000.00
00478              -0.60   -15600.00
00479              -0.40   -15400.00
00480              -0.20   -14800.00
00481              -0.20   -14800.00
00482              -0.20   -14400.00
00483              -0.20   -14000.00
00484              -0.20   -13600.00
00485              -0.40   -13200.00
00486              -0.40   -13000.00
00487              -0.20   -12600.00
00488              -0.20   -12200.00
00489               0.00   -11800.00
00490              -0.60   -11400.00
00491               0.20   -11200.00
00492               0.00   -10800.00
00493              -0.60   -10600.00
00494              -0.20   -10000.00
00495               0.00    -9600.00
00496              -0.60    -9200.00
00497              -0.20    -8800.00
00498              -0.20    -8400.00
00499              -0.40    -8200.00
00500              -0.60    -7600.00
00501               0.20    -7200.00
00502              -0.20    -6800.00
00503              -0.20    -6600.00
00504               0.00    -6000.00
00505               0.20    -5600.00
00506              -1.00    -5200.00
00507               0.20    -4600.00
00508              -0.60    -4400.00
00509              -0.60    -4000.00
00510              -0.20    -3600.00
00511              -0.20    -3200.00
00512              -0.20    -2600.00
00513               0.40    -2400.00
00514              -0.40    -2000.00
00515              -0.20    -1600.00
00516              -0.20    -1000.00
00517              -0.60     -600.00
00518              -0.60     -200.00
00519               0.80      400.00
00520               1.00      600.00
00521               3.00     1200.00
00522              -0.60     1400.00
00523              -2.00     1800.00
00524               2.00     2000.00
00525               1.20     2400.00
00526              -2.20     2800.00
00527               1.80     3000.00
00528               7.40     3600.00
00529              21.40     4400.00
00530               5.40     4800.00
00531             -25.00     5400.00
00532             -10.60     5600.00
00533              25.00     6000.00
00534             -15.60     6400.00
00535             -25.00     6600.00
00536              25.00     7200.00
00537              25.00     7600.00
00538             -25.00     7800.00
00539             -11.20     8400.00
00540              25.00     8600.00
00541             -25.00     9000.00
00542             -25.00     9400.00
00543              25.00     9800.00
00544             -14.40    10000.00
00545             -25.00    10800.00
00546              25.00    10800.00
00547              18.80    11200.00
00548             -25.00    11600.00
00549             -12.20    12000.00
00550              25.00    12400.00
00551              -2.60    12800.00
00552             -23.80    13400.00
00553              14.00    13400.00
00554              14.80    14000.00
00555             -15.80    14200.00
00556             -12.40    14600.00
00557              17.60    15000.00
00558               2.60    15200.00
00559             -17.80    15400.00
00560              13.20    15800.00
00561               9.00    16000.00
00562             -17.40    16400.00
00563               4.20    16600.00
00564               9.20    16800.00
00565             -10.20    17200.00
00566               0.20    17400.00
00567               9.20    17600.00
00568              -4.60    18200.00
00569              -2.80    18200.00
00570               3.80    18600.00
00571              -2.80    18800.00
00572              -1.20    19200.00
00573               2.20    19200.00
00574              -0.60    19400.00
00575               1.20    19800.00
00576               1.40    19800.00
00577              -2.40    20000.00
00578               0.40    20400.00
00579              -0.60    20400.00
00580              -1.40    20600.00
00581               2.60    20800.00
00582              -1.00    21000.00
00583              -0.60    21200.00
00584               1.40    21200.00
00585              -1.20    21400.00
00586              -2.00    21400.00
00587               1.00    21600.00
00588               0.60    21600.00
00589              -1.80    21800.00
00590               0.60    21800.00
00591               0.40    22000.00
00592              -1.40    22000.00
00593              -0.60    22200.00
00594               1.00    22200.00
00595              -0.40    22200.00
00596              -0.20    22200.00
00597               0.40    22200.00
00598              -0.40    22200.00
00599              -1.00    22200.00
00600              -0.60    22400.00
00601              -0.20    22400.00
00602              -0.40    22200.00
00603               0.40    22400.00
00604              -0.40    22400.00
00605               0.00    22200.00
00606               0.40    22200.00
00607              -0.60    22200.00
00608              -0.80    22200.00
00609               0.20    22200.00
00610              -0.20    22000.00
00611              -0.80    22000.00
00612               0.40    22000.00
00613               0.60    21800.00
00614              -1.00    21800.00
00615               0.20    21600.00
00616               0.40    21600.00
00617              -1.20    21200.00
00618              -0.60    21200.00
00619               1.00    21000.00
00620              -0.40    20800.00
00621              -0.40    20600.00
00622              -0.20    20600.00
00623               0.00    20400.00
00624              -0.20    20200.00
00625               0.40    20000.00
00626              -0.20    20000.00
00627               0.20    19600.00
00628              -0.60    19600.00
00629              -0.20    19400.00
00630               0.20    19000.00
00631              -0.60    18800.00
00632              -0.60    18400.00
00633               0.20    18400.00
00634              -0.20    18000.00
00635              -0.40    17800.00
00636              -0.20    17600.00
00637               0.20    17200.00
00638              -0.20    16800.00
00639              -0.40    16800.00
00640               0.20    16400.00
00641              -0.20    16000.00
00642              -0.60    15800.00
00643              -0.20    15600.00
00644               0.60    15200.00
00645              -1.00    15000.00
00646              -0.20    14600.00
00647               1.00    14200.00
00648              -1.00    14000.00
00649              -1.00    13600.00
00650              -0.20    13200.00
00651              -0.60    12800.00
00652              -0.20    12600.00
00653              -0.20    12200.00
00654              -0.20    11800.00
00655               0.40    11400.00
00656              -0.40    11000.00
00657              -0.40    10800.00
00658              -0.60    10200.00
00659              -0.80    10000.00
00660              -0.60     9600.00
00661              -0.40     9200.00
00662              -0.40     8800.00
00663               0.20     8400.00
00664              -1.00     8000.00
00665              -0.20     7600.00
00666               0.20     7200.00
00667              -1.00     6800.00
00668              -0.20     6400.00
00669               0.00     6000.00
00670              -0.60     5800.00
00671              -0.60     5200.00
00672               0.20     4800.00
00673              -0.40     4400.00
00674              -0.60     4000.00
00675               0.40     3600.00
00676              -0.20     3000.00
00677              -0.60     2800.00
00678              -0.40     2200.00
00679              -0.20     1800.00
00680              -0.60     1400.00
00681              -0.60      800.00
00682               0.20      600.00
00683               0.20        0.00
00684               0.20     -200.00
00685               0.40     -800.00
00686               3.60    -1000.00
00687              -0.40    -1400.00
00688              -2.60    -1800.00
00689               1.80    -2200.00
00690               1.80    -2600.00
00691              -2.80    -2800.00
00692               2.80    -3200.00
00693              21.00    -3800.00
00694              25.00    -4400.00
00695             -25.00    -5000.00
00696             -25.00    -5600.00
00697              25.00    -5800.00
00698              -5.20    -6000.00
00699             -25.00    -6000.00
00700              25.00    -6600.00
00701              25.00    -7200.00
00702             -25.00    -7200.00
00703              25.00    -8200.00
00704              25.00    -8600.00
00705             -25.00    -8400.00
00706              25.00    -9400.00
00707              25.00    -9200.00
00708             -25.00    -9800.00
00709               8.60   -10400.00
00710              25.00   -10600.00
00711               5.00   -11200.00
00712             -21.60   -11400.00
00713             -18.00   -11600.00
00714              25.00   -12200.00
00715             -17.80   -12400.00
00716             -19.60   -13000.00
00717              25.00   -13200.00
00718               3.80   -13600.00
00719             -18.00   -14200.00
00720             -11.00   -14400.00
00721              25.00   -14800.00
00722              -9.40   -14800.00
00723             -20.60   -15200.00
00724              25.00   -15600.00
00725              -6.00   -15800.00
00726             -17.20   -16400.00
00727              12.60   -16400.00
00728               1.80   -16800.00
00729             -11.00   -17000.00
00730               4.40   -17400.00
00731               7.40   -17600.00
00732              -7.40   -17800.00
00733               1.80   -18000.00
00734               1.80   -18400.00
00735              -3.80   -18600.00
00736               0.60   -18800.00
00737               0.40   -19200.00
00738               0.20   -19200.00
00739               1.20   -19400.00
00740              -0.20   -19800.00
00741              -2.20   -20000.00
00742               2.80   -20000.00
00743              -4.20   -20200.00
00744              -0.40   -20600.00
00745               5.80   -20600.00
00746              -4.40   -20800.00
00747               1.80   -21000.00
00748               3.00   -21200.00
00749              -4.40   -21200.00
00750              -1.20   -21400.00
00751               3.40   -21600.00
00752              -2.20   -21800.00
00753              -1.80   -21800.00
00754               4.40   -22000.00
00755              -0.60   -22000.00
00756              -3.00   -22000.00
00757               1.80   -22000.00
00758               0.40   -22200.00
00759              -2.00   -22400.00
00760               1.00   -22200.00
00761               1.00   -22400.00
00762              -0.60   -22400.00
00763              -0.40   -22400.00
00764               0.60   -22200.00
00765               0.00   -22400.00
00766              -1.00   -22400.00
00767               0.40   -22400.00
00768               0.40   -22400.00
00769               0.20   -22400.00
00770              -0.60   -22400.00
00771              -0.60   -22400.00
00772               1.00   -22400.00
00773              -0.40   -22400.00
00774              -0.40   -22200.00
00775               0.40   -22000.00
00776               0.20   -22000.00
00777              -0.60   -22000.00
00778              -0.40   -21800.00
00779               1.00   -21800.00
00780              -1.20   -21600.00
00781              -0.60   -21600.00
00782               1.00   -21400.00
00783              -0.60   -21200.00
00784              -0.60   -21200.00
00785               0.40   -21000.00
00786               0.20   -21000.00
00787              -0.60   -20800.00
00788              -0.20   -20400.00
00789               0.20   -20400.00
00790              -0.60   -20000.00
00791              -0.20   -20000.00
00792              -0.20   -19600.00
00793              -1.00   -19600.00
00794               0.20   -19200.00
00795              -0.20   -19200.00
00796              -0.20   -18800.00
00797               0.60   -18600.00
00798              -1.00   -18400.00
00799              -0.60   -18000.00
00800               0.40   -17800.00
00801              -1.00   -17600.00
00802              -1.00   -17200.00
00803               0.20   -17000.00
00804               0.20   -16800.00
00805              -0.60   -16400.00
00806               0.40   -16200.00
00807               0.20   -16000.00
00808              -0.80   -15600.00
00809               0.20   -15200.00
00810              -0.20   -15000.00
00811              -0.40   -14600.00
00812              -0.40   -14400.00
00813              -0.40   -13800.00
00814              -0.20   -13600.00
00815              -0.20   -13200.00
00816              -0.40   -13000.00
00817               0.20   -12600.00
00818               0.20   -12200.00
00819              -0.40   -12000.00
00820              -0.40   -11400.00
00821               0.20   -11000.00
00822              -0.40   -10800.00
00823              -0.60   -10200.00
00824               0.40    -9800.00
00825              -0.20    -9600.00
00826              -0.40    -9200.00
00827               0.40    -8800.00
00828              -0.40    -8600.00
00829              -0.40    -8000.00
00830               0.00    -7600.00
00831              -0.40    -7200.00
00832              -0.60    -6800.00
00833              -0.20    -6200.00
00834              -0.20    -6000.00
00835               0.00    -5600.00
00836              -0.60    -5200.00
00837               0.40    -4600.00
00838              -0.20    -4200.00
00839              -0.40    -4000.00
00840              -0.40    -3400.00
00841               0.20    -3200.00
00842               0.20    -2600.00
00843              -0.40    -2400.00
00844              -0.20    -1800.00
00845              -0.20    -1400.00
00846              -0.80    -1000.00
00847              -0.60     -400.00
00848               0.40        0.00
00849               0.20        0.00
00850               0.60      800.00
00851               3.60     1200.00
00852              -1.80     1400.00
00853              -2.00     1800.00
00854               2.60     2400.00
00855               1.40     2600.00
00856              -2.80     2800.00
00857               2.80     3200.00
00858              10.20     3800.00
00859              23.40     4600.00
00860              -6.80     5000.00
00861             -25.00     5400.00
00862               1.60     5600.00
00863              25.00     6200.00
00864             -25.00     6400.00
00865             -25.00     6600.00
00866              25.00     7200.00
00867              25.00     7600.00
00868             -25.00     8000.00
00869              25.00     8400.00
00870              25.00     8600.00
00871             -25.00     9200.00
00872             -10.20     9600.00
00873              25.00     9600.00
00874             -25.00    10400.00
00875             -25.00    10800.00
00876              25.00    10800.00
00877               5.80    11400.00
00878             -25.00    11600.00
00879              -0.20    12000.00
00880              25.00    12400.00
00881             -12.40    12800.00
00882             -16.60    13200.00
00883              17.80    13400.00
00884               8.60    14000.00
00885             -17.00    14200.00
00886              -8.20    14600.00
00887              19.00    15000.00
00888              -3.00    15400.00
00889             -14.40    15600.00
00890              16.20    16000.00
00891               2.80    16000.00
00892             -16.40    16400.00
00893               7.40    16600.00
00894               6.00    17200.00
00895             -11.00    17200.00
00896               3.40    17600.00
00897               7.80    18000.00
00898              -5.80    18000.00
00899              -1.20    18400.00
00900               3.60    18600.00
00901              -3.40    19000.00
00902              -0.60    19000.00
00903               1.60    19200.00
00904              -0.60    19600.00
00905               1.80    19800.00
00906               0.20    19800.00
00907              -2.20    20000.00
00908               1.20    20400.00
00909              -1.80    20600.00
00910              -1.20    20600.00
00911               2.80    20800.00
00912              -2.00    21000.00
00913              -1.20    21200.00
00914               2.00    21200.00
00915              -2.00    21400.00
00916              -2.40    21600.00
00917               2.20    21600.00
00918               0.20    21600.00
00919              -2.20    22000.00
00920               1.80    22000.00
00921              -0.40    22000.00
00922              -2.20    22000.00
00923               0.40    22200.00
00924              -0.20    22200.00
00925              -1.00    22400.00
00926               0.00    22400.00
00927               0.20    22400.00
00928              -0.20    22200.00
00929              -0.40    22400.00
00930              -0.60    22400.00
00931              -0.20    22200.00
00932               0.20    22200.00
00933              -0.40    22400.00
00934              -0.40    22400.00
00935               0.40    22400.00
00936              -0.20    22200.00
00937              -0.60    22200.00
00938               0.20    22200.00
00939              -0.40    22000.00
00940              -0.40    22000.00
00941              -0.20    22000.00
00942              -0.20    21800.00
00943              -0.60    21800.00
00944              -0.60    21600.00
00945               0.40    21400.00
00946               0.40    21600.00
00947              -1.00    21400.00
00948               0.20    21200.00
00949               0.80    21200.00
00950              -0.60    20800.00
00951              -0.40    20800.00
00952               0.60    20600.00
00953              -1.20    20400.00
00954              -0.60    20400.00
00955               1.40    20000.00
00956              -1.00    19800.00
00957              -0.40    19800.00
00958               0.80    19400.00
00959              -0.40    19200.00
00960              -0.60    19000.00
00961               0.40    18800.00
00962              -0.20    18600.00
00963              -0.40    18200.00
00964               0.20    18000.00
00965              -0.20    17800.00
00966              -0.60    17400.00
00967               0.20    17200.00
00968              -0.40    17000.00
00969              -0.40    16600.00
00970               0.20    16400.00
00971              -0.40    16000.00
00972              -0.40    15800.00
00973               0.20    15600.00
00974              -0.60    15200.00
00975              -0.60    14800.00
00976               0.40    14800.00
00977              -0.40    14200.00
00978              -0.40    13800.00
00979               0.20    13600.00
00980              -0.60    13200.00
00981              -0.60    12800.00
00982               0.20    12400.00
00983              -0.40    12200.00
00984              -0.60    11800.00
00985               0.00    11400.00
00986              -0.40    11000.00
00987              -0.40    10400.00
00988              -0.40    10200.00
00989              -0.40    10000.00
00990              -0.40     9400.00
00991              -0.20     9200.00
00992              -0.40     8800.00
00993              -0.60     8400.00
00994              -0.20     8000.00
00995              -0.60     7600.00
00996              -0.60     7200.00
00997              -0.20     6800.00
00998              -0.20     6400.00
00999              -0.40     6000.00
01000              -0.20     5400.00
01001              -0.20     5200.00
01002              -0.60     4600.00
01003              -0.40     4400.00
01004              -0.20     4000.00
01005              -0.60     3400.00
01006              -0.20     3000.00
01007               0.20     2800.00
01008              -0.20     2200.00
01009              -0.40     1800.00
01010               0.40     1400.00
01011              -0.20      800.00
01012              -1.20      400.00
01013               0.60        0.00
01014              -0.40     -400.00
01015               1.20     -800.00
01016               3.60    -1000.00
01017              -2.60    -1600.00
01018              -1.00    -1800.00
01019               2.60    -2400.00
01020              -0.40    -2600.00
01021              -1.40    -3000.00
01022               5.80    -3200.00
01023              24.80    -3800.00
01024              15.00    -4800.00
01025             -25.00    -5200.00
01026             -13.00    -5600.00
01027              25.00    -5800.00
01028             -22.80    -6000.00
01029             -25.00    -6000.00
01030              25.00    -6800.00
01031              15.00    -7400.00
01032             -25.00    -7200.00
01033              25.00    -8400.00
01034              25.00    -8400.00
01035             -25.00    -8800.00
01036              25.00    -9600.00
01037              25.00    -9400.00
01038             -25.00   -10000.00
01039              21.60   -10400.00
01040              22.80   -10800.00
01041               3.40   -11200.00
01042             -25.00   -11400.00
01043              -3.00   -12000.00
01044              25.00   -12400.00
01045             -25.00   -12400.00
01046              -5.60   -13200.00
01047              25.00   -13200.00
01048              -3.40   -13600.00
01049             -19.20   -14200.00
01050              -3.60   -14400.00
01051              25.00   -14800.00
01052             -19.80   -14800.00
01053              -9.20   -15200.00
01054              25.00   -15600.00
01055             -14.00   -15600.00
01056             -10.80   -16200.00
01057              12.40   -16400.00
01058              -1.40   -16800.00
01059              -9.20   -17000.00
01060               6.20   -17600.00
01061               5.00   -17600.00
01062              -6.60   -17800.00
01063               2.40   -18200.00
01064              -0.40   -18400.00
01065              -2.40   -18800.00
01066               0.40   -18800.00
01067               0.00   -19200.00
01068               1.20   -19400.00
01069               2.00   -19600.00
01070              -1.40   -19800.00
01071              -0.40   -20000.00
01072               2.20   -20200.00
01073              -6.00   -20200.00
01074               2.00   -20800.00
01075               4.20   -20400.00
01076              -5.40   -20800.00
01077               3.00   -21000.00
01078               2.60   -21200.00
01079              -5.20   -21400.00
01080               0.20   -21400.00
01081               3.80   -21600.00
01082              -3.00   -21600.00
01083              -0.20   -21800.00
01084               3.60   -22000.00
01085              -2.20   -22000.00
01086              -1.60   -22000.00
01087               1.40   -22200.00
01088              -0.20   -22400.00
01089              -0.60   -22400.00
01090               0.20   -22400.00
01091               1.00   -22200.00
01092              -0.20   -22400.00
01093              -1.40   -22400.00
01094               0.80   -22400.00
01095               0.20   -22400.00
01096              -1.40   -22400.00
01097               0.80   -22400.00
01098               0.60   -22400.00
01099              -0.20   -22400.00
01100              -0.60   -22200.00
01101               0.20   -22400.00
01102               0.80   -22200.00
01103              -1.00   -22400.00
01104              -0.20   -22000.00
01105               0.20   -22200.00
01106               0.20   -22000.00
01107              -0.60   -22000.00
01108              -0.40   -21800.00
01109               0.60   -21800.00
01110              -1.00   -21600.00
01111              -0.40   -21600.00
01112               1.20   -21400.00
01113              -0.60   -21200.00
01114              -0.80   -21200.00
01115               0.60   -20800.00
01116              -0.20   -20800.00
01117              -1.00   -20800.00
01118               0.20   -20400.00
01119               0.40   -20200.00
01120              -0.60   -20000.00
01121               0.40   -19800.00
01122               0.20   -19800.00
01123              -1.00   -19400.00
01124              -0.20   -19200.00
01125              -0.40   -19000.00
01126              -0.60   -18800.00
01127              -0.20   -18400.00
01128              -0.40   -18400.00
01129              -0.20   -18000.00
01130               0.00   -17800.00
01131               0.20   -17400.00
01132              -0.60   -17200.00
01133               0.40   -17000.00
01134               0.40   -16600.00
01135              -0.60   -16400.00
01136               0.20   -16000.00
01137              -0.40   -15600.00
01138              -0.60   -15400.00
01139              -0.20   -15200.00
01140               0.20   -14800.00
01141              -0.40   -14600.00
01142              -0.20   -14000.00
01143               0.20   -13800.00
01144              -0.40   -13600.00
01145              -0.40   -13200.00
01146               0.00   -12800.00
01147              -0.20   -12400.00
01148              -0.20   -12200.00
01149               0.00   -11600.00
01150              -0.40   -11400.00
01151               0.40   -11000.00
01152              -0.60   -10600.00
01153              -0.60   -10400.00
01154               0.40    -9800.00
01155              -1.20    -9600.00
01156              -0.60    -9200.00
01157               1.00    -8800.00
01158              -1.00    -8400.00
01159              -0.40    -8000.00
01160               0.60    -7400.00
01161              -0.60    -7200.00
01162              -0.20    -6800.00
01163               0.20    -6200.00
01164              -0.20    -5800.00
01165              -0.20    -5600.00
01166              -0.40    -5000.00
01167              -0.40    -4800.00
01168              -0.60    -4200.00
01169              -0.20    -3800.00
01170              -0.80    -3400.00
01171               0.20    -3000.00
01172               0.40    -2600.00
01173              -0.80    -2200.00
01174              -0.20    -1800.00
01175               0.20    -1400.00
01176              -1.00    -1000.00
01177              -0.60     -400.00
01178               0.60        0.00
01179               0.40      400.00
01180               1.40      800.00
01181               3.40     1400.00
01182              -2.20     1600.00
01183              -1.00     1800.00
01184               3.00     2400.00
01185               0.20     2600.00
01186              -2.60     3000.00
01187               4.40     3400.00
01188              12.00     3800.00
01189              23.60     4600.00
01190             -18.20     5000.00
01191             -25.00     5600.00
01192              13.80     5600.00
01193              25.00     6000.00
01194             -25.00     6400.00
01195             -25.00     6800.00
01196              25.00     7400.00
01197              21.00     7800.00
01198             -25.00     8200.00
01199              25.00     8400.00
01200              25.00     8600.00
01201             -25.00     9200.00
01202              22.00     9600.00
01203              25.00    10000.00
01204             -25.00    10400.00
01205             -10.20    10800.00
01206              25.00    11000.00
01207              -5.80    11600.00
01208             -25.00    11800.00
01209              10.20    12400.00
01210              25.00    12600.00
01211             -20.20    13200.00
01212              -9.80    13200.00
01213              21.00    13600.00
01214               2.80    14000.00
01215             -19.20    14400.00
01216              -1.80    14600.00
01217              19.40    15200.00
01218             -10.80    15400.00
01219              -9.20    15600.00
01220              19.40    16000.00
01221              -4.40    16000.00
01222             -13.20    16400.00
01223              11.40    16800.00
01224               1.80    17200.00
01225             -11.20    17400.00
01226               7.40    17600.00
01227               5.20    18000.00
01228              -7.00    18200.00
01229               0.80    18200.00
01230               2.60    18800.00
01231              -4.00    19000.00
01232               0.60    19200.00
01233               1.40    19200.00
01234              -1.20    19600.00
01235               2.00    19800.00
01236              -1.00    19800.00
01237              -1.60    20000.00
01238               1.00    20400.00
01239              -2.20    20600.00
01240               0.20    20800.00
01241               2.60    21000.00
01242              -2.40    21200.00
01243               0.20    21200.00
01244               2.00    21200.00
01245              -3.00    21200.00
01246              -1.40    21600.00
01247               2.20    21600.00
01248              -1.00    21800.00
01249              -1.40    21800.00
01250               2.00    22000.00
01251              -1.00    22000.00
01252              -1.40    22200.00
01253               1.00    22200.00
01254              -0.20    22200.00
01255              -1.00    22200.00
01256               0.20    22400.00
01257               0.20    22400.00
01258              -0.40    22400.00
01259              -0.60    22200.00
01260              -0.40    22400.00
01261              -0.20    22400.00
01262               0.20    22400.00
01263              -0.40    22200.00
01264              -0.40    22400.00
01265               0.60    22200.00
01266              -0.60    22200.00
01267              -0.80    22000.00
01268               0.40    22200.00
01269              -0.40    22000.00
01270              -0.60    22000.00
01271               0.40    22000.00
01272               0.40    22000.00
01273              -1.00    22000.00
01274              -0.20    21600.00
01275               0.40    21600.00
01276              -0.80    21400.00
01277              -0.60    21400.00
01278               0.40    21200.00
01279              -0.20    21200.00
01280              -0.20    21000.00
01281               0.40    20800.00
01282              -0.20    20600.00
01283              -0.80    20400.00
01284               0.40    20400.00
01285               0.40    20000.00
01286              -1.00    19800.00
01287               0.20    19600.00
01288               0.20    19600.00
01289              -0.60    19200.00
01290              -0.40    19000.00
01291               0.20    18800.00
01292              -0.20    18400.00
01293               0.20    18200.00
01294               0.20    18000.00
01295              -0.20    17600.00
01296              -0.40    17400.00
01297              -0.40    17200.00
01298              -0.40    16800.00
01299               0.00    16600.00
01300              -0.20    16400.00
01301              -0.60    16000.00
01302               0.20    15600.00
01303              -0.20    15600.00
01304              -0.60    15200.00
01305              -0.20    14800.00
01306               0.20    14400.00
01307              -0.40    14200.00
01308              -0.60    14000.00
01309              -0.20    13400.00
01310              -0.40    13200.00
01311              -0.60    12800.00
01312               0.20    12400.00
01313               0.00    12000.00
01314              -0.60    11800.00
01315              -0.40    11200.00
01316              -0.20    11000.00
01317              -0.40    10400.00
01318              -0.60    10200.00
01319              -0.20     9800.00
01320               0.00     9600.00
01321              -0.40     9000.00
01322              -0.40     8600.00
01323              -0.20     8400.00
01324              -0.40     8000.00
01325              -0.20     7600.00
01326              -0.20     7200.00
01327              -0.60     6800.00
01328              -0.20     6400.00
01329              -0.40     6000.00
01330              -0.40     5400.00
01331               0.20     5000.00
01332              -0.20     4600.00
01333              -0.40     4000.00
01334               0.00     3600.00
01335              -0.20     3400.00
01336              -0.40     3000.00
01337              -0.60     2400.00
01338              -0.20     2000.00
01339              -0.20     1600.00
01340              -0.40     1400.00
01341              -0.20      800.00
01342              -0.20      400.00
01343              -0.20        0.00
01344               0.60     -400.00
01345               1.60     -800.00
01346               3.00    -1200.00
01347              -1.80    -1600.00
01348              -1.20    -2000.00
01349               2.20    -2400.00
01350               0.40    -2600.00
01351              -2.00    -3200.00
01352               7.80    -3400.00
01353              25.00    -4000.00
01354              -1.20    -4800.00
01355             -25.00    -5200.00
01356               3.80    -5600.00
01357              25.00    -6000.00
01358             -25.00    -6000.00
01359             -25.00    -6000.00
01360              25.00    -7000.00
01361             -25.00    -7200.00
01362             -25.00    -7200.00
01363              25.00    -8600.00
01364               9.40    -8400.00
01365             -25.00    -9000.00
01366              25.00    -9600.00
01367              12.20    -9400.00
01368             -25.00   -10000.00
01369              25.00   -10400.00
01370              18.00   -10800.00
01371              -0.20   -11400.00
01372             -25.00   -11400.00
01373              14.00   -12000.00
01374              25.00   -12400.00
01375             -25.00   -12400.00
01376               8.40   -13200.00
01377              25.00   -13200.00
01378             -10.20   -13800.00
01379             -19.60   -14400.00
01380               6.40   -14400.00
01381              22.60   -14800.00
01382             -25.00   -15000.00
01383               4.40   -15400.00
01384              25.00   -15800.00
01385             -20.60   -16000.00
01386              -3.60   -16400.00
01387              11.40   -16600.00
01388              -5.20   -17000.00
01389              -6.80   -17000.00
01390               8.40   -17400.00
01391               2.00   -17600.00
01392              -5.40   -17800.00
01393               3.40   -18200.00
01394              -1.40   -18600.00
01395              -1.20   -18800.00
01396              -0.20   -18800.00
01397               0.20   -19200.00
01398               1.40   -19400.00
01399               1.00   -19600.00
01400              -2.20   -19800.00
01401               1.40   -20000.00
01402               0.40   -20200.00
01403              -5.40   -20400.00
01404               5.00   -20600.00
01405               1.40   -20800.00
01406              -4.40   -21000.00
01407               4.20   -21000.00
01408              -0.20   -21200.00
01409              -4.20   -21400.00
01410               1.80   -21600.00
01411               2.20   -21600.00
01412              -2.80   -21600.00
01413               1.00   -21800.00
01414               3.40   -22000.00
01415              -2.60   -22000.00
01416              -1.20   -22000.00
01417               1.80   -22200.00
01418              -0.60   -22000.00
01419              -1.00   -22400.00
01420               0.60   -22400.00
01421               1.00   -22400.00
01422              -0.60   -22400.00
01423              -0.60   -22400.00
01424               1.40   -22400.00
01425              -1.00   -22400.00
01426              -0.60   -22400.00
01427               1.20   -22400.00
01428              -0.20   -22400.00
01429              -0.40   -22400.00
01430              -0.80   -22200.00
01431               0.00   -22400.00
01432               0.20   -22400.00
01433              -1.00   -22200.00
01434              -0.20   -22200.00
01435               0.20   -22200.00
01436               0.20   -22000.00
01437              -1.00   -21800.00
01438               0.00   -21800.00
01439               0.40   -21800.00
01440              -1.60   -21600.00
01441               0.20   -21400.00
01442               1.20   -21600.00
01443              -1.00   -21200.00
01444              -0.60   -21000.00
01445               0.60   -21000.00
01446              -0.60   -20800.00
01447              -1.00   -20400.00
01448               0.20   -20400.00
01449              -0.40   -20000.00
01450              -1.00   -20000.00
01451               0.40   -19600.00
01452              -0.40   -19600.00
01453              -0.60   -19400.00
01454               0.20   -19200.00
01455              -0.60   -19000.00
01456               0.60   -18800.00
01457               0.20   -18400.00
01458              -1.00   -18400.00
01459               0.40   -18000.00
01460              -0.20   -17600.00
01461              -1.20   -17400.00
01462               0.20   -17000.00
01463               1.00   -16800.00
01464              -1.20   -16800.00
01465              -0.40   -16400.00
01466               1.00   -16000.00
01467              -1.00   -15600.00
01468              -1.00   -15400.00
01469               1.20   -15000.00
01470              -0.40   -14800.00
01471              -0.60   -14400.00
01472               0.40   -14000.00
01473               0.40   -13600.00
01474              -1.00   -13200.00
01475               0.20   -13000.00
01476               0.20   -12800.00
01477              -0.60   -12400.00
01478              -0.20   -12000.00
01479               0.00   -11600.00
01480              -0.60   -11400.00
01481              -0.20   -10800.00
01482              -0.20   -10600.00
01483              -0.40   -10200.00
01484               0.20    -9800.00
01485              -0.20    -9400.00
01486              -0.20    -9000.00
01487               0.20    -8800.00
01488              -0.40    -8200.00
01489              -0.20    -8000.00
01490               0.20    -7400.00
01491              -0.20    -7000.00
01492              -0.40    -6600.00
01493              -0.60    -6000.00
01494               0.40    -5800.00
01495              -0.40    -5400.00
01496              -0.60    -5000.00
01497               0.20    -4400.00
01498              -0.40    -4000.00
01499              -1.00    -3600.00
01500               0.00    -3200.00
01501              -0.20    -2800.00
01502              -0.60    -2600.00
01503              -0.60    -2000.00
01504               0.20    -1600.00
01505              -0.20    -1200.00
01506              -0.60     -800.00
01507              -0.60     -400.00
01508               0.40        0.00
01509               0.20      400.00
01510               2.20      800.00
01511               1.80     1200.00
01512              -2.40     1800.00
01513               0.20     2000.00
01514               2.80     2400.00
01515              -0.40     2800.00
01516              -1.40     3000.00
01517               5.20     3400.00
01518              15.00     4000.00
01519              22.00     4600.00
01520             -25.00     5200.00
01521             -25.00     5600.00
01522              24.40     6000.00
01523              14.60     6200.00
01524             -25.00     6400.00
01525              -7.00     6800.00
01526              25.00     7600.00
01527             -14.80     7800.00
01528             -25.00     8400.00
01529              25.00     8400.00
01530              25.00     8800.00
01531             -25.00     9400.00
01532              25.00     9800.00
01533              25.00    10000.00
01534             -25.00    10600.00
01535               8.40    10800.00
01536              25.00    11000.00
01537             -16.20    11600.00
01538             -25.00    11800.00
01539              19.40    12400.00
01540              18.80    12600.00
01541             -25.00    13200.00
01542              -2.00    13400.00
01543              21.40    13800.00
01544              -3.60    14200.00
01545             -18.20    14600.00
01546               4.80    14800.00
01547              16.60    15200.00
01548             -15.60    15400.00
01549              -2.00    15600.00
01550              18.60    16000.00
01551             -11.40    16200.00
01552              -8.40    16600.00
01553              12.40    16800.00
01554              -3.40    17200.00
01555              -8.40    17400.00
01556               9.40    17600.00
01557               2.00    18000.00
01558              -6.20    18200.00
01559               2.40    18400.00
01560               0.00    18600.00
01561              -2.80    19000.00
01562               1.20    19200.00
01563               0.20    19400.00
01564               0.20    19600.00
01565               1.80    19800.00
01566              -2.00    20000.00
01567               0.20    20200.00
01568               0.40    20400.00
01569              -3.00    20600.00
01570               1.80    21000.00
01571               1.40    21000.00
01572              -3.00    21200.00
01573               1.20    21200.00
01574               1.80    21200.00
01575              -3.80    21400.00
01576              -0.40    21600.00
01577               2.80    21600.00
01578              -1.80    21600.00
01579              -1.00    22000.00
01580               2.00    22000.00
01581              -1.80    22200.00
01582              -1.80    22200.00
01583               1.20    22200.00
01584              -0.60    22200.00
01585              -1.20    22400.00
01586               0.40    22200.00
01587               0.60    22400.00
01588              -0.60    22400.00
01589              -1.00    22400.00
01590               0.00    22400.00
01591               0.00    22400.00
01592              -0.60    22400.00
01593              -0.40    22400.00
01594               0.20    22400.00
01595               0.00    22400.00
01596              -0.40    22400.00
01597              -0.20    22200.00
01598              -0.20    22200.00
01599              -0.20    22000.00
01600               0.00    22000.00
01601              -0.20    22000.00
01602              -0.20    22000.00
01603              -0.60    21800.00
01604              -0.60    21600.00
01605               0.40    21400.00
01606              -0.20    21400.00
01607              -0.40    21400.00
01608               0.20    21000.00
01609              -0.20    21200.00
01610              -0.20    21000.00
01611               0.20    20800.00
01612               0.20    20400.00
01613              -1.00    20400.00
01614               0.40    20000.00
01615               0.40    20000.00
01616              -0.60    19600.00
01617               0.20    19600.00
01618               0.20    19200.00
01619              -1.00    19200.00
01620              -0.20    19000.00
01621              -0.20    18800.00
01622              -0.60    18400.00
01623               0.40    18200.00
01624              -0.20    18000.00
01625              -0.60    17600.00
01626               0.80    17400.00
01627              -0.80    17200.00
01628              -0.60    16800.00
01629               1.00    16400.00
01630              -0.60    16200.00
01631              -0.20    16000.00
01632               0.20    15800.00
01633              -1.60    15400.00
01634              -0.20    15200.00
01635              -0.20    14800.00
01636              -1.00    14400.00
01637               0.60    14200.00
01638              -0.20    13800.00
01639              -0.60    13400.00
01640               0.40    13000.00
01641              -0.60    12600.00
01642              -0.60    12400.00
01643               0.40    12000.00
01644              -0.40    11800.00
01645              -1.00    11200.00
01646               0.40    10800.00
01647              -0.40    10400.00
01648              -1.00    10000.00
01649               0.20     9600.00
01650               0.40     9400.00
01651              -1.00     8800.00
01652              -0.20     8600.00
01653              -0.20     8400.00
01654              -0.40     7800.00
01655               0.20     7400.00
01656              -0.60     7000.00
01657               0.20     6800.00
01658              -0.60     6200.00
01659              -0.60     5800.00
01660               0.40     5400.00
01661              -0.40     5000.00
01662              -0.80     4600.00
01663               0.60     4000.00
01664              -0.40     3800.00
01665              -1.00     3200.00
01666               0.60     2800.00
01667               0.00     2400.00
01668              -0.60     2000.00
01669               0.60     1600.00
01670              -0.40     1200.00
01671              -0.80      800.00
01672               1.00      400.00
01673               0.20        0.00
01674              -0.40     -400.00
01675               2.80     -800.00
01676               2.60    -1200.00
01677              -3.40    -1600.00
01678              -0.20    -2000.00
01679               3.00    -2400.00
01680              -1.20    -2800.00
01681              -1.20    -3000.00
01682              11.60    -3400.00
01683              25.00    -4200.00
01684             -18.20    -5000.00
01685             -25.00    -5400.00
01686              18.60    -5800.00
01687              25.00    -6000.00
01688             -25.00    -6000.00
01689               6.20    -6200.00
01690              25.00    -7200.00
01691             -25.00    -7000.00
01692             -25.00    -7800.00
01693              25.00    -8400.00
01694             -25.00    -8400.00
01695             -25.00    -9200.00
01696              25.00    -9400.00
01697             -25.00    -9600.00
01698             -25.00   -10000.00
01699              25.00   -10400.00
01700              11.40   -10800.00
01701              -5.00   -11400.00
01702             -25.00   -11400.00
01703              25.00   -12200.00
01704              18.60   -12400.00
01705             -25.00   -12600.00
01706              18.60   -13200.00
01707              19.60   -13200.00
01708             -13.00   -13800.00
01709             -19.00   -14400.00
01710              15.00   -14600.00
01711              14.80   -14800.00
01712             -25.00   -15200.00
01713              15.60   -15600.00
01714              17.40   -15600.00
01715             -23.00   -16000.00
01716               2.80   -16400.00
01717              10.00   -16600.00
01718              -7.40   -17000.00
01719              -4.00   -17200.00
01720              10.00   -17400.00
01721              -1.40   -17600.00
01722              -3.80   -18000.00
01723               3.40   -18400.00
01724              -2.60   -18400.00
01725              -1.00   -18800.00
01726              -0.20   -19000.00
01727               0.40   -19200.00
01728               1.40   -19400.00
01729               1.20   -19600.00
01730              -2.20   -20000.00
01731               1.60   -20000.00
01732              -0.60   -20200.00
01733              -4.20   -20400.00
01734               5.40   -20800.00
01735              -1.20   -20800.00
01736              -1.80   -21000.00
01737               5.00   -21200.00
01738              -2.20   -21200.00
01739              -3.40   -21200.00
01740               2.60   -21600.00
01741               0.40   -21600.00
01742              -3.00   -21600.00
01743               2.80   -21800.00
01744               1.80   -22000.00
01745              -3.00   -22000.00
01746               0.40   -22000.00
01747               1.00   -22200.00
01748              -1.20   -22200.00
01749               0.40   -22200.00
01750               0.80   -22200.00
01751               0.20   -22400.00
01752               0.00   -22400.00
01753              -0.20   -22400.00
01754               0.20   -22400.00
01755              -1.00   -22400.00
01756              -0.60   -22400.00
01757               0.20   -22400.00
01758               0.20   -22400.00
01759               0.60   -22400.00
01760              -1.00   -22400.00
01761              -0.40   -22400.00
01762               0.60   -22400.00
01763              -0.60   -22200.00
01764              -1.40   -22200.00
01765               0.60   -22000.00
01766               0.60   -22000.00
01767              -1.80   -21800.00
01768               0.40   -21800.00
01769               1.20   -21600.00
01770              -2.20   -21600.00
01771               0.40   -21400.00
01772               0.60   -21200.00
01773              -1.20   -21200.00
01774              -0.60   -21000.00
01775               1.00   -20800.00
01776              -0.20   -20800.00
01777              -1.20   -20400.00
01778               0.20   -20200.00
01779              -0.20   -20200.00
01780              -0.20   -20000.00
01781              -0.20   -19600.00
01782              -0.40   -19600.00
01783              -0.20   -19400.00
01784              -0.60   -19200.00
01785              -0.40   -18800.00
01786               0.40   -18600.00
01787              -0.60   -18400.00
01788              -0.20   -18200.00
01789              -0.20   -17800.00
01790              -0.20   -17600.00
01791              -0.20   -17400.00
01792              -0.40   -17000.00
01793               0.20   -16800.00
01794               0.00   -16400.00
01795              -0.20   -16200.00
01796              -0.20   -16000.00
01797               0.00   -15800.00
01798               0.40   -15400.00
01799              -0.20   -15000.00
01800              -0.40   -14600.00
01801               0.00   -14400.00
01802              -0.60   -14000.00
01803              -0.20   -13600.00
01804               0.20   -13200.00
01805              -1.00   -13000.00
01806              -0.40   -12600.00
01807               0.60   -12200.00
01808              -0.20   -12000.00
01809              -0.20   -11600.00
01810               0.20   -11200.00
01811              -0.60   -10800.00
01812              -0.40   -10400.00
01813               0.40   -10200.00
01814              -0.40    -9800.00
01815              -0.60    -9200.00
01816               0.40    -9000.00
01817              -0.40    -8600.00
01818              -0.20    -8200.00
01819               0.20    -7800.00
01820              -1.00    -7400.00
01821               0.00    -7000.00
01822              -0.20    -6600.00
01823              -1.80    -6000.00
01824               0.20    -5800.00
01825               0.40    -5200.00
01826              -1.00    -5000.00
01827              -0.20    -4400.00
01828               1.00    -4200.00
01829              -1.00    -3600.00
01830              -1.20    -3400.00
01831               0.00    -2800.00
01832               0.20    -2400.00
01833              -1.80    -2000.00
01834              -0.20    -1600.00
01835               0.80    -1000.00
01836              -1.20     -800.00
01837              -1.00     -400.00
01838               1.60      200.00
01839               0.40      400.00
01840               2.00      800.00
01841               1.40     1200.00
01842              -2.00     1600.00
01843               0.40     2000.00
01844               2.80     2400.00
01845              -0.80     2800.00
01846              -1.20     3200.00
01847               6.60     3600.00
01848              18.60     4200.00
01849              16.00     4800.00
01850             -25.00     5200.00
01851             -25.00     5600.00
01852              25.00     6000.00
01853               2.20     6200.00
01854             -25.00     6400.00
01855              12.40     7000.00
01856              25.00     7600.00
01857             -25.00     7600.00
01858             -25.00     8400.00
01859              25.00     8400.00
01860             -11.60     8800.00
01861             -25.00     9400.00
01862              25.00     9600.00
01863              18.20    10000.00
01864             -25.00    10600.00
01865              22.80    10800.00
01866              25.00    11200.00
01867             -23.80    11400.00
01868             -22.80    12000.00
01869              25.00    12400.00
01870              10.80    12800.00
01871             -25.00    13200.00
01872               5.20    13400.00
01873              20.20    13800.00
01874              -9.40    14200.00
01875             -17.40    14400.00
01876              11.00    14800.00
01877              11.60    15200.00
01878             -18.00    15400.00
01879               5.40    15800.00
01880              15.80    16000.00
01881             -15.00    16400.00
01882              -2.80    16400.00
01883              12.20    16800.00
01884              -6.80    17200.00
01885              -5.20    17400.00
01886              10.00    17600.00
01887              -1.60    18000.00
01888              -5.00    18400.00
01889               3.40    18400.00
01890              -1.20    18800.00
01891              -2.60    18800.00
01892               2.00    19200.00
01893              -0.80    19400.00
01894               0.40    19600.00
01895               2.00    19800.00
01896              -2.80    20000.00
01897              -0.60    20000.00
01898               0.60    20400.00
01899              -3.00    20400.00
01900               2.00    21000.00
01901               1.40    20800.00
01902              -2.20    21200.00
01903               0.60    21200.00
01904               1.00    21400.00
01905              -3.00    21400.00
01906              -0.40    21600.00
01907               2.00    21600.00
01908              -1.80    21600.00
01909              -0.20    22000.00
01910               1.00    22000.00
01911              -1.20    22000.00
01912              -1.00    22000.00
01913               0.40    22200.00
01914              -0.60    22200.00
01915              -0.20    22400.00
01916              -0.20    22400.00
01917               0.40    22400.00
01918               0.20    22400.00
01919              -1.00    22400.00
01920               0.20    22400.00
01921               0.40    22400.00
01922              -0.40    22400.00
01923              -0.60    22400.00
01924               0.40    22400.00
01925              -0.20    22200.00
01926              -1.00    22200.00
01927               0.40    22200.00
01928              -0.20    22200.00
01929              -0.60    22200.00
01930               0.20    22200.00
01931               0.40    22000.00
01932               0.40    22000.00
01933              -1.20    21800.00
01934               0.20    21600.00
01935               0.40    21400.00
01936              -1.20    21400.00
01937              -0.40    21200.00
01938               1.20    21200.00
01939              -0.80    20800.00
01940              -0.60    20800.00
01941               0.60    20600.00
01942              -0.20    20600.00
01943              -1.20    20200.00
01944               0.60    20200.00
01945              -0.60    20000.00
01946              -0.20    19800.00
01947               0.40    19600.00
01948              -0.20    19200.00
01949              -0.60    19200.00
01950              -0.20    18800.00
01951              -1.00    18800.00
01952               0.40    18400.00
01953               1.00    18200.00
01954              -0.40    17800.00
01955              -1.00    17600.00
01956              -0.20    17400.00
01957              -1.20    17000.00
01958              -1.40    16800.00
01959               1.00    16400.00
01960               1.00    16200.00
01961              -1.00    16000.00
01962               0.20    15600.00
01963               0.20    15400.00
01964              -1.40    15000.00
01965              -0.40    14800.00
01966               1.00    14400.00
01967              -0.60    14000.00
01968              -0.60    13600.00
01969               0.20    13200.00
01970              -0.60    13000.00
01971              -0.80    12600.00
01972               0.20    12400.00
01973               0.20    12000.00
01974              -0.40    11600.00
01975              -0.40    11200.00
01976               0.00    10800.00
01977              -0.40    10400.00
01978              -0.40    10000.00
01979               0.40     9600.00
01980               0.20     9400.00
01981              -0.60     8800.00
01982               0.20     8600.00
01983              -0.20     8200.00
01984              -0.60     7800.00
01985              -0.20     7200.00
01986               0.00     7000.00
01987              -0.20     6400.00
01988              -0.40     6000.00
01989              -0.20     5600.00
01990               0.00     5200.00
01991              -0.20     4800.00
01992               0.20     4400.00
01993               0.20     4000.00
01994              -0.40     3600.00
01995              -0.40     3200.00
01996               0.40     2800.00
01997              -1.20     2200.00
01998               0.20     2000.00
01999               1.20     1600.00
02000              -1.40     1000.00
02001              -0.20      600.00
02002               1.80      400.00
02003              -1.20     -200.00
02004              -0.40     -400.00
02005               4.80    -1000.00
02006               0.40    -1400.00
02007              -4.20    -1600.00
02008               2.20    -2200.00
02009               2.00    -2600.00
02010              -2.20    -2800.00
02011               2.00    -3200.00
02012              15.20    -3600.00
02013              25.00    -4400.00
02014             -25.00    -5000.00
02015             -25.00    -5400.00
02016              25.00    -5800.00
02017              16.60    -6000.00
02018             -25.00    -6000.00
02019              25.00    -6400.00
02020              25.00    -7400.00
02021             -25.00    -7000.00
02022               9.40    -8000.00
02023              25.00    -8600.00
02024             -25.00    -8400.00
02025             -25.00    -9200.00
02026              25.00    -9400.00
02027             -25.00    -9600.00
02028             -16.40   -10200.00
02029              25.00   -10400.00
02030               9.00   -10800.00
02031             -12.20   -11600.00
02032             -25.00   -11600.00
02033              25.00   -12200.00
02034               1.80   -12400.00
02035             -25.00   -12800.00
02036              25.00   -13200.00
02037              11.40   -13400.00
02038             -16.40   -14000.00
02039             -15.40   -14000.00
02040              22.00   -14600.00
02041               4.20   -14800.00
02042             -25.00   -15200.00
02043              25.00   -15600.00
02044               6.20   -15600.00
02045             -21.40   -16200.00
02046               9.00   -16400.00
02047               6.20   -16800.00
02048             -10.80   -17000.00
02049               1.20   -17200.00
02050              10.00   -17600.00
02051              -6.60   -17800.00
02052               0.00   -18000.00
02053               4.40   -18400.00
02054              -5.40   -18400.00
02055               0.40   -18800.00
02056               2.00   -19000.00
02057              -1.20   -19400.00
02058               1.40   -19400.00
02059               2.60   -19600.00
02060              -3.40   -19800.00
02061               2.00   -20200.00
02062              -1.20   -20200.00
02063              -3.80   -20400.00
02064               6.00   -20600.00
02065              -2.20   -20800.00
02066              -1.40   -20800.00
02067               4.20   -21000.00
02068              -2.60   -21200.00
02069              -3.00   -21400.00
02070               3.80   -21600.00
02071               0.40   -21600.00
02072              -3.60   -21800.00
02073               3.60   -22000.00
02074               1.80   -22000.00
02075              -3.60   -22000.00
02076               0.80   -22000.00
02077               1.20   -22000.00
02078              -2.20   -22400.00
02079              -0.20   -22400.00
02080               1.80   -22400.00
02081              -0.20   -22400.00
02082              -1.20   -22400.00
02083               0.60   -22600.00
02084              -0.20   -22400.00
02085              -2.00   -22600.00
02086               1.00   -22400.00
02087               0.40   -22400.00
02088              -0.80   -22400.00
02089               0.60   -22400.00
02090              -1.00   -22400.00
02091              -0.60   -22400.00
02092               0.60   -22200.00
02093               0.40   -22200.00
02094              -0.60   -22200.00
02095               0.20   -22000.00
02096              -0.80   -22000.00
02097              -1.00   -21800.00
02098               1.20   -21800.00
02099              -0.20   -21600.00
02100              -1.20   -21600.00
02101               1.20   -21400.00
02102              -0.60   -21000.00
02103              -1.60   -21200.00
02104               0.60   -21000.00
02105               0.60   -20800.00
02106              -1.00   -20600.00
02107              -0.20   -20400.00
02108               0.40   -20200.00
02109              -0.60   -20000.00
02110              -0.40   -20000.00
02111              -0.20   -19600.00
02112              -0.20   -19400.00
02113              -1.20   -19400.00
02114               0.40   -19200.00
02115               0.20   -18800.00
02116              -1.20   -18600.00
02117               0.40   -18400.00
02118               0.40   -18400.00
02119              -2.20   -17800.00
02120               1.00   -17600.00
02121               1.20   -17200.00
02122              -2.00   -17000.00
02123               1.40   -16800.00
02124               1.00   -16400.00
02125              -2.20   -16200.00
02126               0.40   -16000.00
02127               1.00   -15600.00
02128              -2.00   -15400.00
02129              -0.20   -14800.00
02130               0.80   -14800.00
02131              -0.20   -14400.00
02132              -0.40   -14000.00
02133               0.40   -13600.00
02134              -0.60   -13200.00
02135              -0.60   -12800.00
02136              -0.40   -12600.00
02137               0.40   -12200.00
02138               0.20   -11800.00
02139               0.00   -11400.00
02140              -0.60   -11000.00
02141               0.60   -10800.00
02142              -1.00   -10200.00
02143              -1.00   -10000.00
02144               1.00    -9600.00
02145               0.00    -9200.00
02146              -0.40    -8800.00
02147              -0.40    -8400.00
02148              -0.60    -8200.00
02149              -0.20    -7800.00
02150              -0.20    -7200.00
02151              -0.60    -6800.00
02152              -0.80    -6400.00
02153               0.20    -6000.00
02154               1.00    -5800.00
02155              -1.20    -5200.00
02156              -0.20    -4600.00
02157              -0.40    -4400.00
02158              -1.20    -4000.00
02159              -1.20    -3600.00
02160               0.60    -3200.00
02161              -0.40    -2800.00
02162              -0.60    -2400.00
02163               1.20    -2000.00
02164               0.20    -1600.00
02165              -2.00    -1200.00
02166               0.20     -800.00
02167               0.40     -200.00
02168              -0.80      200.00
02169               1.40      600.00
02170               4.20      800.00
02171              -1.40     1400.00
02172              -2.20     1800.00
02173               2.60     2200.00
02174               1.80     2400.00
02175              -2.60     2800.00
02176               1.80     3200.00
02177               8.60     3600.00
02178              19.80     4400.00
02179               7.80     4800.00
02180             -25.00     5200.00
02181             -14.80     5600.00
02182              25.00     6000.00
02183             -10.40     6400.00
02184             -25.00     6400.00
02185              25.00     7000.00
02186              25.00     7600.00
02187             -25.00     7800.00
02188             -18.80     8400.00
02189              25.00     8600.00
02190             -25.00     9000.00
02191             -25.00     9600.00
02192              25.00     9800.00
02193              -7.80    10000.00
02194             -25.00    10600.00
02195              25.00    10800.00
02196              22.20    11200.00
02197             -25.00    11600.00
02198             -15.80    12000.00
02199              25.00    12400.00
02200               1.20    12800.00
02201             -25.00    13200.00
02202              12.40    13400.00
02203              17.20    14000.00
02204             -15.00    14200.00
02205             -13.40    14600.00
02206              17.00    15000.00
02207               3.60    15200.00
02208             -17.80    15600.00
02209              11.80    15800.00
02210               9.20    16000.00
02211             -16.80    16400.00
02212               2.60    16600.00
02213               9.00    16800.00
02214              -9.00    17200.00
02215              -1.20    17400.00
02216               9.20    17600.00
02217              -3.60    18000.00
02218              -3.60    18200.00
02219               3.00    18400.00
02220              -2.00    18800.00
02221              -1.80    19000.00
02222               1.20    19200.00
02223              -0.20    19600.00
02224               1.00    19800.00
02225               0.60    19800.00
02226              -2.40    20200.00
02227               1.20    20200.00
02228              -1.20    20600.00
02229              -2.00    20600.00
02230               3.60    21000.00
02231              -1.20    20800.00
02232              -1.80    21200.00
02233               2.60    21200.00
02234              -1.20    21400.00
02235              -3.40    21400.00
02236               2.00    21600.00
02237               0.60    21600.00
02238              -2.60    21800.00
02239               1.80    22000.00
02240               0.60    22000.00
02241              -2.60    22000.00
02242               0.60    22200.00
02243               0.60    22200.00
02244              -1.20    22200.00
02245               0.00    22400.00
02246               0.40    22400.00
02247               0.00    22400.00
02248              -0.60    22200.00
02249              -0.40    22400.00
02250               0.20    22400.00
02251              -0.40    22400.00
02252              -0.20    22400.00
02253              -0.20    22200.00
02254               0.20    22400.00
02255               0.20    22200.00
02256              -0.60    22400.00
02257               0.20    22200.00
02258              -0.20    22200.00
02259              -0.40    22000.00
02260              -0.20    22000.00
02261               0.20    22000.00
02262              -0.40    22000.00
02263              -0.80    21600.00
02264               0.40    21600.00
02265               0.40    21600.00
02266              -0.60    21400.00
02267               0.40    21200.00
02268               0.60    21200.00
02269              -1.00    21000.00
02270              -0.20    20800.00
02271               0.20    20800.00
02272              -0.60    20400.00
02273              -0.60    20400.00
02274               1.20    20200.00
02275              -0.60    20000.00
02276              -0.20    19800.00
02277               0.20    19600.00
02278              -0.40    19200.00
02279              -1.00    19000.00
02280              -0.20    18800.00
02281              -0.60    18800.00
02282              -0.20    18200.00
02283               0.20    18200.00
02284              -0.20    17800.00
02285              -0.40    17400.00
02286              -0.40    17200.00
02287              -0.40    17000.00
02288              -0.40    16800.00
02289              -0.20    16400.00
02290              -0.20    16000.00
02291              -0.60    16000.00
02292              -0.20    15600.00
02293              -0.60    15200.00
02294              -0.60    15000.00
02295              -0.20    14600.00
02296              -0.20    14200.00
02297              -0.40    14000.00
02298              -0.20    13600.00
02299              -0.40    13200.00
02300              -0.40    13000.00
02301              -0.40    12600.00
02302              -0.20    12200.00
02303              -0.60    11800.00
02304              -0.20    11600.00
02305              -0.20    11000.00
02306              -0.20    10800.00
02307              -0.20    10400.00
02308              -0.20    10000.00
02309              -0.40     9600.00
02310              -0.40     9200.00
02311              -0.40     8800.00
02312              -0.40     8400.00
02313              -0.20     8200.00
02314              -0.20     7600.00
02315              -0.20     7200.00
02316              -0.20     6800.00
02317              -0.40     6400.00
02318              -0.40     6200.00
02319               0.20     5600.00
02320              -0.40     5200.00
02321              -0.20     4800.00
02322              -0.20     4200.00
02323               0.20     4000.00
02324              -0.40     3400.00
02325               0.20     3200.00
02326              -0.20     2800.00
02327              -0.20     2400.00
02328              -0.20     1800.00
02329               0.00     1400.00
02330              -0.40     1000.00
02331              -0.40      600.00
02332               0.20        0.00
02333               0.40     -400.00
02334               0.60     -400.00
02335               3.60    -1000.00
02336               0.20    -1400.00
02337              -2.00    -1800.00
02338               1.00    -2000.00
02339               1.80    -2600.00
02340              -2.20    -2800.00
02341               2.00    -3400.00
02342              19.60    -3800.00
02343              25.00    -4600.00
02344             -25.00    -5000.00
02345             -25.00    -5600.00
02346              25.00    -5800.00
02347              -1.00    -6000.00
02348             -25.00    -6000.00
02349              25.00    -6600.00
02350              25.00    -7400.00
02351             -25.00    -7200.00
02352              25.00    -8200.00
02353              25.00    -8600.00
02354             -25.00    -8400.00
02355              24.60    -9400.00
02356              25.00    -9400.00
02357             -25.00    -9800.00
02358               5.20   -10400.00
02359              25.00   -10400.00
02360               4.60   -11000.00
02361             -20.80   -11400.00
02362             -19.80   -11800.00
02363              25.00   -12200.00
02364             -15.40   -12200.00
02365             -21.40   -13000.00
02366              25.00   -13200.00
02367               4.40   -13400.00
02368             -17.60   -14000.00
02369             -11.00   -14400.00
02370              25.00   -14600.00
02371              -7.40   -15000.00
02372             -22.00   -15400.00
02373              25.00   -15600.00
02374              -3.80   -15800.00
02375             -17.80   -16200.00
02376              11.60   -16400.00
02377               2.60   -16800.00
02378             -10.00   -17000.00
02379               3.40   -17200.00
02380               8.20   -17400.00
02381              -6.00   -17800.00
02382               1.20   -18000.00
02383               2.00   -18400.00
02384              -3.20   -18600.00
02385               0.40   -18800.00
02386              -0.20   -19000.00
02387               1.00   -19200.00
02388               1.80   -19400.00
02389              -0.60   -19600.00
02390              -1.20   -20000.00
02391               2.80   -20200.00
02392              -4.60   -20200.00
02393              -0.60   -20400.00
02394               5.80   -20600.00
02395              -4.20   -20800.00
02396               1.40   -21000.00
02397               3.40   -21000.00
02398              -3.80   -21200.00
02399              -1.20   -21200.00
02400               3.60   -21600.00
02401              -1.20   -21600.00
02402              -2.00   -21800.00
02403               3.60   -21800.00
02404              -0.40   -22000.00
02405              -2.60   -22000.00
02406               0.40   -22000.00
02407               1.00   -22200.00
02408              -1.00   -22400.00
02409              -0.60   -22400.00
02410               1.00   -22400.00
02411               0.20   -22400.00
02412              -2.00   -22400.00
02413               0.40   -22400.00
02414               1.20   -22600.00
02415              -2.00   -22400.00
02416               0.20   -22400.00
02417               1.40   -22400.00
02418              -0.40   -22400.00
02419              -1.20   -22400.00
02420              -0.40   -22400.00
02421               0.60   -22400.00
02422              -1.00   -22400.00
02423              -1.00   -22200.00
02424               0.80   -22000.00
02425               0.20   -22000.00
02426              -1.00   -22000.00
02427              -0.20   -21800.00
02428               1.20   -21800.00
02429              -1.20   -21600.00
02430              -0.80   -21600.00
02431               1.60   -21200.00
02432              -0.60   -21200.00
02433              -1.20   -21200.00
02434               1.00   -21000.00
02435              -0.20   -20800.00
02436              -1.20   -20600.00
02437               0.40   -20200.00
02438               0.20   -20200.00
02439              -1.00   -20000.00
02440               0.60   -19800.00
02441               0.40   -19600.00
02442              -1.20   -19400.00
02443               0.40   -19200.00
02444              -0.20   -19200.00
02445              -0.40   -18800.00
02446               0.60   -18600.00
02447               0.40   -18400.00
02448              -0.40   -18000.00
02449               0.00   -17800.00
02450               0.00   -17600.00
02451              -0.60   -17200.00
02452              -0.40   -17000.00
02453               0.40   -16600.00
02454              -0.60   -16400.00
02455              -0.40   -16200.00
02456               0.40   -16000.00
02457              -0.20   -15600.00
02458              -1.00   -15400.00
02459               0.40   -14800.00
02460               0.20   -14600.00
02461              -1.20   -14000.00
02462               0.20   -13800.00
02463              -0.20   -13600.00
02464              -1.00   -13200.00
02465               0.40   -13000.00
02466              -0.20   -12600.00
02467              -0.20   -12200.00
02468               0.40   -11600.00
02469              -1.00   -11400.00
02470              -0.20   -11000.00
02471              -0.20   -10800.00
02472              -0.60   -10400.00
02473              -0.20   -10000.00
02474              -0.20    -9400.00
02475              -0.40    -9200.00
02476              -0.20    -8800.00
02477              -0.60    -8400.00
02478               0.40    -8000.00
02479              -0.60    -7600.00
02480              -0.60    -7200.00
02481               0.40    -6800.00
02482              -1.00    -6400.00
02483              -0.60    -6000.00
02484               0.80    -5600.00
02485              -1.40    -5000.00
02486              -0.60    -4600.00
02487               0.20    -4200.00
02488              -0.60    -4000.00
02489              -0.80    -3600.00
02490               1.00    -3000.00
02491              -0.40    -2600.00
02492              -1.00    -2400.00
02493               0.40    -1800.00
02494              -0.40    -1400.00
02495              -1.40    -1000.00
02496               0.40     -600.00
02497               0.20        0.00
02498              -0.40      400.00
02499               2.00      600.00
02500               3.60     1200.00
02501              -1.80     1600.00
02502              -1.20     2000.00
02503               2.20     2200.00
02504               1.20     2600.00
02505              -2.20     3000.00
02506               2.60     3200.00
02507              10.00     3800.00
02508              23.00     4600.00
02509              -3.80     4800.00
02510             -25.00     5400.00
02511              -1.20     5600.00
02512              25.00     6000.00
02513             -24.40     6400.00
02514             -25.00     6400.00
02515              25.00     7200.00
02516              25.00     7800.00
02517             -25.00     7800.00
02518              18.80     8400.00
02519              25.00     8600.00
02520             -25.00     9200.00
02521             -17.00     9600.00
02522              25.00     9600.00
02523             -25.00    10200.00
02524             -25.00    10800.00
02525              25.00    10800.00
02526               7.80    11400.00
02527             -25.00    11600.00
02528              -2.80    12000.00
02529              25.00    12400.00
02530              -9.40    12800.00
02531             -18.60    13200.00
02532              17.00    13600.00
02533              10.80    14000.00
02534             -17.40    14200.00
02535              -9.40    14600.00
02536              19.80    15000.00
02537              -1.80    15200.00
02538             -15.80    15600.00
02539              16.60    16000.00
02540               4.40    16000.00
02541             -18.00    16400.00
02542               6.80    16600.00
02543               7.40    17200.00
02544             -12.00    17200.00
02545               2.60    17400.00
02546               9.00    17600.00
02547              -6.00    18000.00
02548              -2.00    18400.00
02549               4.00    18600.00
02550              -3.60    18800.00
02551              -1.20    19000.00
02552               1.80    19400.00
02553              -0.60    19400.00
02554               1.40    19600.00
02555               0.20    19800.00
02556              -2.00    20000.00
02557               1.20    20200.00
02558              -2.20    20400.00
02559              -1.00    20600.00
02560               3.40    20800.00
02561              -2.00    21000.00
02562              -1.00    21200.00
02563               2.60    21200.00
02564              -2.20    21400.00
02565              -2.60    21400.00
02566               2.80    21600.00
02567              -0.20    21800.00
02568              -2.40    21800.00
02569               2.60    22000.00
02570               0.20    22000.00
02571              -2.60    22000.00
02572               1.20    22200.00
02573               0.20    22200.00
02574              -1.20    22200.00
02575               0.20    22400.00
02576              -0.60    22400.00
02577               0.60    22200.00
02578               0.00    22400.00
02579              -1.00    22400.00
02580               0.80    22400.00
02581               0.20    22400.00
02582              -1.20    22400.00
02583              -0.20    22400.00
02584               1.20    22400.00
02585              -0.60    22200.00
02586              -1.20    22200.00
02587               0.80    22200.00
02588               0.20    22200.00
02589              -1.20    22000.00
02590               0.40    22000.00
02591               0.80    22000.00
02592              -0.60    21600.00
02593              -1.00    21600.00
02594               1.00    21600.00
02595              -0.60    21400.00
02596              -1.80    21400.00
02597               1.60    21200.00
02598               0.40    20800.00
02599              -1.60    21000.00
02600               1.20    20800.00
02601              -0.40    20600.00
02602              -2.20    20400.00
02603               0.60    20200.00
02604               0.60    20000.00
02605              -2.20    19800.00
02606               1.00    19600.00
02607               0.20    19600.00
02608              -1.80    19200.00
02609               0.20    19000.00
02610               0.00    18800.00
02611              -1.20    18400.00
02612               0.40    18200.00
02613               0.20    18000.00
02614              -0.60    17800.00
02615              -0.40    17400.00
02616               0.00    17200.00
02617              -1.00    16800.00
02618               0.00    16800.00
02619               0.40    16400.00
02620              -1.20    16000.00
02621               0.20    15800.00
02622               0.40    15600.00
02623              -1.80    15200.00
02624              -0.20    15000.00
02625               0.40    14600.00
02626              -1.20    14200.00
02627               0.20    14000.00
02628               0.20    13400.00
02629              -0.60    13200.00
02630              -0.20    12800.00
02631               0.20    12600.00
02632              -0.40    12200.00
02633              -0.20    11800.00
02634              -0.40    11400.00
02635              -0.60    11000.00
02636              -0.20    10600.00
02637              -0.60    10200.00
02638              -0.40     9800.00
02639               0.40     9600.00
02640              -0.40     9200.00
02641              -0.60     8800.00
02642               0.20     8400.00
02643              -0.40     8000.00
02644              -0.40     7600.00
02645               0.20     7200.00
02646              -0.40     6800.00
02647              -0.40     6400.00
02648               0.20     6000.00
02649              -0.20     5600.00
02650              -0.20     5200.00
02651              -0.20     4600.00
02652              -0.40     4000.00
02653              -0.20     3800.00
02654              -0.20     3600.00
02655              -0.20     3000.00
02656               0.20     2600.00
02657              -0.40     2200.00
02658               0.20     1800.00
02659              -0.60     1400.00
02660               0.80      800.00
02661              -0.40      400.00
02662               0.00        0.00
02663               1.20     -400.00
02664               0.20     -800.00
02665               3.40    -1000.00
02666              -0.20    -1400.00
02667              -2.80    -2000.00
02668               1.80    -2200.00
02669               1.80    -2800.00
02670              -2.80    -2800.00
02671               4.40    -3400.00
02672              25.00    -3800.00
02673              17.00    -4600.00
02674             -25.00    -5000.00
02675             -15.80    -5600.00
02676              25.00    -5800.00
02677             -19.20    -6200.00
02678             -25.00    -6200.00
02679              25.00    -6800.00
02680              23.80    -7400.00
02681             -25.00    -7200.00
02682              25.00    -8400.00
02683              25.00    -8400.00
02684             -25.00    -8800.00
02685              25.00    -9600.00
02686              25.00    -9200.00
02687             -25.00    -9800.00
02688              18.80   -10400.00
02689              25.00   -10600.00
02690               3.60   -11200.00
02691             -25.00   -11400.00
02692              -4.80   -12000.00
02693              25.00   -12200.00
02694             -25.00   -12400.00
02695              -7.40   -13200.00
02696              25.00   -13200.00
02697              -3.60   -13800.00
02698             -18.80   -14200.00
02699              -3.40   -14400.00
02700              25.00   -14600.00
02701             -18.80   -14800.00
02702             -10.20   -15400.00
02703              25.00   -15600.00
02704             -13.40   -15800.00
02705             -10.80   -16400.00
02706              13.00   -16400.00
02707              -1.20   -16800.00
02708              -8.60   -17000.00
02709               6.60   -17200.00
02710               5.80   -17400.00
02711              -6.40   -17800.00
02712               2.80   -18200.00
02713               0.20   -18400.00
02714              -2.80   -18600.00
02715               0.40   -19000.00
02716              -0.40   -19000.00
02717               1.20   -19400.00
02718               1.80   -19400.00
02719              -1.20   -19600.00
02720              -0.20   -20000.00
02721               2.60   -20200.00
02722              -5.40   -20200.00
02723               2.20   -20400.00
02724               4.40   -20600.00
02725              -4.40   -21000.00
02726               2.60   -21000.00
02727               2.00   -21000.00
02728              -4.20   -21200.00
02729              -0.40   -21400.00
02730               4.00   -21600.00
02731              -2.60   -21600.00
02732              -2.00   -21800.00
02733               4.40   -21800.00
02734              -1.20   -22200.00
02735              -3.60   -22000.00
02736               2.00   -22000.00
02737               0.40   -22200.00
02738              -2.20   -22000.00
02739               1.20   -22400.00
02740               1.40   -22400.00
02741              -1.20   -22400.00
02742              -0.60   -22400.00
02743               1.00   -22400.00
02744              -1.00   -22400.00
02745              -1.40   -22400.00
02746               1.00   -22400.00
02747               0.00   -22400.00
02748              -0.20   -22400.00
02749              -0.40   -22400.00
02750              -0.40   -22400.00
02751               0.60   -22400.00
02752              -0.40   -22200.00
02753              -0.40   -22000.00
02754               0.20   -22000.00
02755               0.20   -22000.00
02756              -0.60   -22000.00
02757              -0.40   -21800.00
02758               0.60   -21600.00
02759              -1.00   -21600.00
02760              -0.40   -21400.00
02761               1.20   -21400.00
02762              -0.40   -21200.00
02763              -0.60   -21000.00
02764               0.40   -21000.00
02765              -0.20   -20800.00
02766              -0.60   -20400.00
02767              -0.20   -20200.00
02768               0.20   -20200.00
02769              -0.40   -20000.00
02770               0.60   -19800.00
02771              -0.20   -19600.00
02772              -0.40   -19400.00
02773               0.40   -19400.00
02774              -0.60   -18800.00
02775              -0.20   -18600.00
02776               0.40   -18600.00
02777              -0.20   -18400.00
02778              -0.40   -18000.00
02779               0.20   -17600.00
02780               0.00   -17400.00
02781              -0.60   -17200.00
02782               0.20   -16800.00
02783               0.40   -16800.00
02784              -0.60   -16200.00
02785               0.20   -16200.00
02786              -0.20   -15600.00
02787              -0.60   -15400.00
02788               0.20   -15200.00
02789              -0.20   -14800.00
02790              -0.20   -14600.00
02791              -0.20   -14200.00
02792               0.20   -14000.00
02793              -0.40   -13400.00
02794              -0.60   -13200.00
02795              -0.20   -12800.00
02796              -0.20   -12400.00
02797              -0.40   -12200.00
02798               0.00   -11600.00
02799              -0.40   -11400.00
02800              -0.20   -11000.00
02801              -0.20   -10600.00
02802              -0.40   -10200.00
02803              -0.20    -9800.00
02804              -0.40    -9600.00
02805              -0.40    -9200.00
02806              -0.40    -8800.00
02807              -0.60    -8200.00
02808              -0.60    -8000.00
02809              -0.40    -7600.00
02810              -0.20    -7000.00
02811              -0.40    -6800.00
02812              -0.40    -6400.00
02813               0.00    -5800.00
02814              -0.20    -5600.00
02815              -1.00    -5000.00
02816              -0.40    -4600.00
02817              -0.20    -4200.00
02818              -0.60    -3600.00
02819              -0.40    -3400.00
02820               0.40    -3000.00
02821              -0.40    -2400.00
02822              -0.80    -2000.00
02823               0.20    -1800.00
02824              -0.40    -1200.00
02825              -1.00    -1000.00
02826              -0.60     -400.00
02827               0.60        0.00
02828               0.20      400.00
02829               1.80      800.00
02830               3.60     1200.00
02831              -2.20     1600.00
02832              -1.00     1800.00
02833               3.00     2200.00
02834               0.40     2600.00
02835              -2.40     3000.00
02836               4.20     3400.00
02837              11.80     4000.00
02838              24.20     4600.00
02839             -15.80     5000.00
02840             -25.00     5600.00
02841              11.60     5800.00
02842              25.00     6200.00
02843             -25.00     6400.00
02844             -25.00     6800.00
02845              25.00     7200.00
02846              25.00     7600.00
02847             -25.00     8000.00
02848              25.00     8400.00
02849              25.00     8600.00
02850             -25.00     9200.00
02851              17.00     9800.00
02852              25.00    10000.00
02853             -25.00    10400.00
02854             -12.60    10800.00
02855              25.00    11000.00
02856              -4.00    11400.00
02857             -25.00    11800.00
02858               8.40    12200.00
02859              25.00    12600.00
02860             -18.80    13000.00
02861             -11.20    13200.00
02862              21.00    13600.00
02863               4.20    14000.00
02864             -19.40    14400.00
02865              -2.80    14600.00
02866              19.80    15000.00
02867             -10.00    15400.00
02868             -10.20    15600.00
02869              19.20    16000.00
02870              -3.60    16000.00
02871             -14.40    16400.00
02872              11.20    16600.00
02873               2.60    17200.00
02874             -11.80    17400.00
02875               6.80    17600.00
02876               5.80    17800.00
02877              -7.00    18000.00
02878               0.40    18200.00
02879               2.60    18800.00
02880              -3.80    19000.00
02881               0.20    19200.00
02882               1.40    19200.00
02883              -1.00    19600.00
02884               2.00    19600.00
02885              -0.80    20000.00
02886              -1.80    20000.00
02887               1.20    20400.00
02888              -2.60    20400.00
02889              -0.20    20800.00
02890               3.00    21000.00
02891              -2.00    21000.00
02892               0.20    21200.00
02893               2.20    21400.00
02894              -2.60    21400.00
02895              -1.60    21600.00
02896               2.60    21600.00
02897              -0.60    21600.00
02898              -1.80    22000.00
02899               2.20    22000.00
02900              -1.20    22000.00
02901              -1.80    22000.00
02902               1.20    22200.00
02903              -0.20    22200.00
02904              -0.60    22200.00
02905               0.20    22400.00
02906               0.40    22400.00
02907              -0.20    22400.00
02908              -0.60    22400.00
02909              -0.20    22400.00
02910               0.40    22400.00
02911               0.20    22400.00
02912               0.20    22200.00
02913               0.00    22200.00
02914               0.20    22400.00
02915              -0.40    22400.00
02916              -0.20    22200.00
02917              -0.20    22200.00
02918              -0.60    22200.00
02919              -0.20    22000.00
02920               0.20    22000.00
02921               0.00    22000.00
02922              -0.20    21600.00
02923              -0.60    21600.00
02924               0.20    21600.00
02925              -0.20    21400.00
02926              -0.40    21200.00
02927              -0.20    21200.00
02928              -0.40    21000.00
02929              -0.40    20800.00
02930              -0.20    21000.00
02931              -0.40    20600.00
02932              -1.00    20400.00
02933               0.20    20000.00
02934              -0.40    20000.00
02935              -0.60    19800.00
02936              -0.20    19600.00
02937              -0.20    19400.00
02938              -0.60    19200.00
02939              -0.20    19000.00
02940              -0.60    18600.00
02941               0.20    18600.00
02942              -0.40    18200.00
02943              -0.20    18000.00
02944               0.00    17600.00
02945              -0.40    17400.00
02946              -1.20    17200.00
02947               0.20    16800.00
02948              -0.20    16600.00
02949              -1.00    16200.00
02950              -0.20    16000.00
02951               0.20    15800.00
02952              -1.00    15200.00
02953              -0.20    15200.00
02954               0.40    14800.00
02955              -0.60    14400.00
02956              -0.40    14200.00
02957               0.20    13800.00
02958              -0.60    13600.00
02959              -0.20    13200.00
02960              -0.20    12800.00
02961              -0.60    12400.00
02962               0.20    12000.00
02963              -0.20    11600.00
02964              -0.60    11200.00
02965               0.20    10800.00
02966               0.20    10600.00
02967              -1.00    10200.00
02968               0.20    10000.00
02969               0.20     9600.00
02970              -1.00     9200.00
02971               0.20     8800.00
02972               0.40     8400.00
02973              -1.00     7800.00
02974               0.20     7600.00
02975               0.40     7200.00
02976              -1.00     6800.00
02977              -0.20     6400.00
02978               0.20     6000.00
02979              -0.60     5400.00
02980              -0.20     5000.00
02981               0.20     4400.00
02982              -0.40     4200.00
02983              -0.40     3800.00
02984               0.40     3200.00
02985              -0.40     3000.00
02986              -0.40     2600.00
02987               0.00     2200.00
02988              -0.20     1600.00
02989              -0.40     1200.00
02990               0.00      800.00
02991              -0.20      400.00
02992               0.00     -200.00
02993               0.40     -400.00
02994               1.20     -800.00
02995               2.80    -1200.00
02996              -2.00    -1600.00
02997              -1.80    -2000.00
02998               2.20    -2400.00
02999               0.20    -2600.00
03000              -2.40    -3000.00
03001               7.40    -3400.00
03002              25.00    -4000.00
03003               2.20    -5000.00
03004             -25.00    -5200.00
03005               1.00    -5600.00
03006              25.00    -6000.00
03007             -25.00    -6200.00
03008             -25.00    -6000.00
03009              25.00    -7000.00
03010             -23.40    -7200.00
03011             -25.00    -7200.00
03012              25.00    -8600.00
03013              18.60    -8400.00
03014             -25.00    -8800.00
03015              25.00    -9600.00
03016              19.40    -9200.00
03017             -25.00   -10000.00
03018              25.00   -10400.00
03019              18.60   -10600.00
03020               1.00   -11400.00
03021             -25.00   -11600.00
03022              10.80   -12000.00
03023              25.00   -12200.00
03024             -25.00   -12400.00
03025               5.80   -13200.00
03026              25.00   -13200.00
03027              -9.20   -13800.00
03028             -19.60   -14200.00
03029               4.60   -14400.00
03030              23.60   -14800.00
03031             -25.00   -15000.00
03032               2.60   -15400.00
03033              25.00   -15600.00
03034             -19.60   -16000.00
03035              -4.20   -16200.00
03036              12.20   -16400.00
03037              -5.00   -16800.00
03038              -7.00   -17000.00
03039               9.00   -17400.00
03040               2.00   -17600.00
03041              -5.40   -17800.00
03042               4.40   -18200.00
03043              -1.40   -18400.00
03044              -1.80   -18600.00
03045               1.00   -18800.00
03046               0.20   -19200.00
03047               1.20   -19400.00
03048               1.80   -19400.00
03049              -2.00   -19600.00
03050               0.40   -20000.00
03051               1.40   -20200.00
03052              -5.40   -20200.00
03053               4.20   -20600.00
03054               2.20   -20800.00
03055              -3.80   -20800.00
03056               3.80   -21000.00
03057               0.20   -21200.00
03058              -4.40   -21400.00
03059               1.20   -21400.00
03060               2.20   -21600.00
03061              -3.40   -21600.00
03062               0.40   -21800.00
03063               3.40   -22000.00
03064              -2.60   -22000.00
03065              -1.20   -22200.00
03066               1.80   -22000.00
03067              -0.60   -22400.00
03068              -1.00   -22200.00
03069               1.00   -22400.00
03070               0.40   -22400.00
03071              -0.80   -22400.00
03072              -0.60   -22400.00
03073               1.20   -22400.00
03074              -0.60   -22400.00
03075              -0.80   -22400.00
03076               1.00   -22400.00
03077               0.00   -22400.00
03078              -0.40   -22400.00
03079              -0.60   -22200.00
03080              -0.20   -22400.00
03081               0.40   -22400.00
03082              -1.00   -22000.00
03083               0.20   -22000.00
03084               0.40   -22000.00
03085               0.20   -22000.00
03086              -1.00   -22000.00
03087               0.20   -21800.00
03088               0.40   -21600.00
03089              -1.20   -21600.00
03090               0.20   -21400.00
03091               0.80   -21400.00
03092              -1.00   -21200.00
03093              -0.20   -21000.00
03094               1.00   -20800.00
03095              -0.20   -20600.00
03096              -0.40   -20800.00
03097               0.40   -20200.00
03098              -0.20   -20200.00
03099              -0.60   -20000.00
03100               0.40   -19600.00
03101              -0.40   -19600.00
03102              -0.60   -19400.00
03103               0.20   -19200.00
03104              -0.40   -19000.00
03105               0.00   -18600.00
03106               0.20   -18400.00
03107              -0.20   -18200.00
03108              -0.20   -18000.00
03109               0.40   -17800.00
03110              -0.20   -17400.00
03111              -0.60   -17200.00
03112               0.20   -16800.00
03113               0.40   -16800.00
03114              -0.40   -16200.00
03115               0.20   -16000.00
03116              -0.40   -15800.00
03117              -0.60   -15400.00
03118               0.20   -15200.00
03119              -0.40   -14800.00
03120              -0.40   -14400.00
03121               0.00   -14000.00
03122              -0.20   -13800.00
03123              -0.20   -13400.00
03124              -0.20   -13000.00
03125               0.20   -12800.00
03126              -0.20   -12400.00
03127              -0.20   -12000.00
03128               0.00   -11600.00
03129              -0.80   -11400.00
03130              -0.40   -11000.00
03131              -0.40   -10600.00
03132              -0.60   -10400.00
03133              -0.20    -9800.00
03134              -0.60    -9400.00
03135              -0.40    -9000.00
03136               0.20    -8800.00
03137              -0.60    -8200.00
03138              -0.60    -8000.00
03139              -0.20    -7400.00
03140              -0.20    -7200.00
03141              -0.60    -6600.00
03142              -0.60    -6400.00
03143               0.40    -6000.00
03144              -0.60    -5400.00
03145              -0.60    -4800.00
03146               0.20    -4600.00
03147              -0.40    -4200.00
03148              -1.00    -3600.00
03149               0.20    -3400.00
03150              -0.20    -2800.00
03151              -0.20    -2400.00
03152              -0.40    -2000.00
03153               0.20    -1800.00
03154              -0.20    -1200.00
03155              -0.60     -800.00
03156              -0.40     -400.00
03157               0.60        0.00
03158               0.20      600.00
03159               2.20      800.00
03160               2.00     1200.00
03161              -2.20     1800.00
03162              -0.40     2000.00
03163               2.80     2400.00
03164               0.20     2800.00
03165              -2.00     3000.00
03166               5.00     3400.00
03167              15.40     4000.00
03168              22.00     4800.00
03169             -25.00     5200.00
03170             -25.00     5600.00
03171              22.60     5800.00
03172              16.20     6400.00
03173             -25.00     6400.00
03174             -10.20     6800.00
03175              25.00     7600.00
03176              -7.80     7800.00
03177             -25.00     8200.00
03178              25.00     8600.00
03179              25.00     8800.00
03180             -25.00     9200.00
03181              25.00     9600.00
03182              25.00    10000.00
03183             -25.00    10400.00
03184               4.60    10800.00
03185              25.00    11200.00
03186             -14.60    11600.00
03187             -25.00    11800.00
03188              18.60    12200.00
03189              20.80    12600.00
03190             -25.00    13200.00
03191              -3.40    13400.00
03192              22.20    13600.00
03193              -3.40    14000.00
03194             -18.80    14400.00
03195               4.20    14800.00
03196              17.00    15000.00
03197             -15.00    15200.00
03198              -3.20    15800.00
03199              18.80    16000.00
03200             -10.00    16000.00
03201              -9.40    16400.00
03202              12.40    16600.00
03203              -2.20    17000.00
03204              -9.80    17400.00
03205               9.40    17600.00
03206               2.60    17800.00
03207              -6.80    18200.00
03208               2.60    18400.00
03209               1.20    18600.00
03210              -4.80    19000.00
03211               1.80    19000.00
03212               0.40    19400.00
03213              -0.60    19600.00
03214               2.40    19800.00
03215              -2.60    20000.00
03216               0.20    20200.00
03217               1.20    20400.00
03218              -3.80    20400.00
03219               2.40    20800.00
03220               2.20    21000.00
03221              -3.80    21000.00
03222               1.80    21200.00
03223               1.80    21200.00
03224              -4.20    21400.00
03225               0.20    21600.00
03226               3.40    21600.00
03227              -2.20    21600.00
03228              -0.60    22000.00
03229               3.00    22000.00
03230              -2.20    22000.00
03231              -2.00    22200.00
03232               2.20    22000.00
03233              -0.60    22200.00
03234              -1.00    22200.00
03235               1.00    22400.00
03236               0.40    22200.00
03237              -0.60    22400.00
03238              -0.60    22200.00
03239               0.20    22400.00
03240              -0.20    22400.00
03241              -0.20    22400.00
03242               0.00    22200.00
03243               0.40    22400.00
03244               0.20    22200.00
03245              -0.60    22400.00
03246              -0.20    22200.00
03247               0.40    22200.00
03248              -0.40    22000.00
03249              -0.40    22000.00
03250               0.40    22000.00
03251              -0.40    22000.00
03252              -1.20    21800.00
03253              -0.40    21600.00
03254               0.60    21600.00
03255              -1.00    21400.00
03256              -0.80    21200.00
03257               0.60    21200.00
03258              -0.40    21000.00
03259              -0.60    20800.00
03260               0.20    20800.00
03261               0.00    20600.00
03262              -1.20    20400.00
03263               0.60    20000.00
03264              -0.20    20000.00
03265              -1.00    19800.00
03266               0.00    19600.00
03267              -0.20    19400.00
03268              -1.20    19200.00
03269              -0.40    18800.00
03270              -0.20    18800.00
03271               0.20    18400.00
03272              -0.20    18200.00
03273               1.00    18000.00
03274              -1.00    17600.00
03275              -0.40    17600.00
03276               0.40    17200.00
03277              -1.40    16800.00
03278              -0.60    16400.00
03279              -0.20    16200.00
03280              -1.00    16000.00
03281               1.00    15600.00
03282               0.40    15600.00
03283              -0.60    15000.00
03284               1.00    14800.00
03285              -0.40    14400.00
03286              -1.00    14200.00
03287              -0.20    13600.00
03288              -1.40    13400.00
03289              -0.20    13000.00
03290               0.20    12600.00
03291              -0.40    12400.00
03292               1.00    12000.00
03293               0.60    11600.00
03294              -0.40    11200.00
03295               0.20    10800.00
03296              -0.60    10600.00
03297              -1.80    10200.00
03298              -0.20     9800.00
03299               0.40     9400.00
03300              -0.40     9000.00
03301               1.00     8600.00
03302               0.60     8200.00
03303              -0.60     7800.00
03304              -0.40     7400.00
03305              -0.40     7000.00
03306              -1.00     6800.00
03307              -0.40     6200.00
03308               0.40     5800.00
03309               0.20     5400.00
03310               0.40     4800.00
03311               0.60     4600.00
03312              -0.40     4000.00
03313              -0.40     3600.00
03314               0.00     3200.00
03315              -0.60     2800.00
03316              -0.20     2600.00
03317               0.40     2000.00
03318              -0.60     1600.00
03319              -0.60     1200.00
03320              -0.20      800.00
03321              -0.40      400.00
03322               0.20     -200.00
03323               0.60     -400.00
03324               1.80     -800.00
03325               2.20    -1200.00
03326              -2.60    -1600.00
03327              -1.20    -2000.00
03328               2.20    -2400.00
03329              -0.20    -2800.00
03330              -1.80    -3200.00
03331              10.80    -3600.00
03332              25.00    -4200.00
03333             -15.40    -5000.00
03334             -25.00    -5400.00
03335              15.80    -5800.00
03336              25.00    -6000.00
03337             -25.00    -6000.00
03338               0.20    -6000.00
03339              25.00    -7200.00
03340             -25.00    -7200.00
03341             -25.00    -7600.00
03342              25.00    -8800.00
03343             -25.00    -8400.00
03344             -25.00    -9000.00
03345              25.00    -9400.00
03346             -21.00    -9400.00
03347             -25.00   -10400.00
03348              25.00   -10400.00
03349              12.20   -10800.00
03350              -3.00   -11400.00
03351             -25.00   -11600.00
03352              23.80   -12200.00
03353              21.80   -12400.00
03354             -25.00   -12600.00
03355              16.40   -13200.00
03356              21.00   -13200.00
03357             -12.40   -13800.00
03358             -19.00   -14400.00
03359              13.80   -14600.00
03360              17.00   -14800.00
03361             -25.00   -15000.00
03362              14.00   -15600.00
03363              19.20   -15600.00
03364             -23.40   -16000.00
03365               1.80   -16400.00
03366              11.60   -16600.00
03367              -8.20   -16800.00
03368              -5.20   -17200.00
03369              12.20   -17400.00
03370              -2.20   -17400.00
03371              -5.40   -18000.00
03372               6.80   -18400.00
03373              -3.60   -18400.00
03374              -2.80   -18800.00
03375               2.60   -19000.00
03376               0.20   -19200.00
03377               0.20   -19400.00
03378               3.00   -19600.00
03379              -1.80   -20000.00
03380              -0.20   -20000.00
03381               0.20   -20200.00
03382              -4.40   -20400.00
03383               4.60   -20400.00
03384              -0.20   -20800.00
03385              -2.60   -20800.00
03386               3.40   -21000.00
03387              -1.20   -21200.00
03388              -2.80   -21400.00
03389               1.40   -21600.00
03390               1.40   -21600.00
03391              -2.20   -21800.00
03392               0.40   -21800.00
03393               2.80   -22000.00
03394              -2.80   -22000.00
03395              -2.00   -22000.00
03396               1.80   -22200.00
03397              -0.60   -22400.00
03398              -1.00   -22200.00
03399               1.40   -22200.00
03400               0.60   -22400.00
03401              -1.20   -22400.00
03402              -0.40   -22400.00
03403               0.60   -22600.00
03404              -1.40   -22400.00
03405              -0.20   -22400.00
03406               1.20   -22400.00
03407              -0.40   -22400.00
03408               0.20   -22400.00
03409              -0.40   -22400.00
03410              -0.20   -22400.00
03411               0.20   -22200.00
03412              -0.20   -22200.00
03413              -0.40   -22000.00
03414               0.20   -22000.00
03415               0.40   -22000.00
03416              -1.00   -21800.00
03417               0.40   -21600.00
03418               0.60   -21800.00
03419              -1.20   -21600.00
03420               0.60   -21200.00
03421               1.00   -21200.00
03422              -0.60   -21000.00
03423               0.20   -20800.00
03424               0.40   -20800.00
03425              -0.60   -20800.00
03426              -0.40   -20400.00
03427               0.40   -20400.00
03428              -0.40   -20200.00
03429               0.00   -20000.00
03430               0.40   -19600.00
03431              -0.60   -19600.00
03432              -0.20   -19400.00
03433               0.00   -19200.00
03434              -0.60   -18800.00
03435               0.40   -18600.00
03436               0.40   -18400.00
03437              -0.40   -18400.00
03438              -0.20   -17800.00
03439               0.20   -17600.00
03440              -0.40   -17200.00
03441              -0.60   -17000.00
03442               0.60   -16800.00
03443              -0.20   -16600.00
03444              -0.60   -16400.00
03445               0.40   -15800.00
03446              -0.60   -15600.00
03447              -0.60   -15400.00
03448               0.20   -15200.00
03449              -0.20   -14800.00
03450              -0.40   -14600.00
03451              -0.40   -14000.00
03452               0.20   -13800.00
03453              -0.60   -13400.00
03454              -0.40   -13000.00
03455              -0.40   -12600.00
03456              -0.40   -12400.00
03457               0.00   -12000.00
03458              -0.40   -11400.00
03459              -0.60   -11400.00
03460               0.20   -10800.00
03461              -0.60   -10400.00
03462              -0.40   -10000.00
03463              -0.40    -9600.00
03464              -0.40    -9400.00
03465              -0.40    -9000.00
03466              -0.60    -8600.00
03467               0.40    -8200.00
03468              -0.40    -7800.00
03469              -1.00    -7400.00
03470               0.20    -7000.00
03471               0.20    -6600.00
03472              -1.20    -6200.00
03473               0.40    -5800.00
03474              -0.60    -5600.00
03475              -0.60    -4800.00
03476              -0.40    -4400.00
03477              -0.20    -4200.00
03478              -0.60    -3600.00
03479              -0.20    -3200.00
03480               0.20    -2800.00
03481               0.20    -2400.00
03482              -0.40    -2000.00
03483              -0.20    -1600.00
03484              -0.60    -1200.00
03485              -0.60     -600.00
03486              -0.60     -400.00
03487               0.40        0.00
03488               0.40      400.00
03489               3.00      800.00
03490               1.20     1200.00
03491              -2.20     1800.00
03492               1.20     2000.00
03493               2.20     2400.00
03494              -1.00     2800.00
03495              -0.80     3200.00
03496               6.60     3600.00
03497              17.40     4000.00
03498              17.60     4800.00
03499             -25.00     5400.00
03500             -25.00     5600.00
03501              25.00     6000.00
03502               5.20     6200.00
03503             -25.00     6400.00
03504               8.40     7000.00
03505              25.00     7600.00
03506             -25.00     7800.00
03507             -25.00     8400.00
03508              25.00     8400.00
03509              -4.60     8800.00
03510             -25.00     9400.00
03511              25.00     9600.00
03512              23.40    10000.00
03513             -25.00    10600.00
03514              20.00    10800.00
03515              25.00    11200.00
03516             -23.00    11600.00
03517             -25.00    11800.00
03518              25.00    12400.00
03519              12.60    12800.00
03520             -25.00    13200.00
03521               4.40    13400.00
03522              21.40    13800.00
03523              -9.40    14200.00
03524             -17.80    14400.00
03525              10.80    14800.00
03526              11.60    15200.00
03527             -18.80    15400.00
03528               5.00    15800.00
03529              16.40    16000.00
03530             -15.60    16200.00
03531              -3.00    16600.00
03532              12.20    16800.00
03533              -7.40    17200.00
03534              -5.80    17200.00
03535              10.60    17600.00
03536              -1.40    18000.00
03537              -5.00    18400.00
03538               3.40    18400.00
03539              -1.20    18800.00
03540              -2.20    19000.00
03541               1.20    19200.00
03542               0.60    19400.00
03543               0.40    19600.00
03544               1.40    19800.00
03545              -1.80    20000.00
03546               0.20    20000.00
03547              -0.60    20400.00
03548              -2.60    20600.00
03549               2.80    20800.00
03550               0.40    20800.00
03551              -2.80    21000.00
03552               2.80    21200.00
03553               0.40    21400.00
03554              -3.80    21400.00
03555               1.20    21600.00
03556               2.20    21600.00
03557              -2.60    21800.00
03558               0.60    22000.00
03559               2.00    22000.00
03560              -2.60    22200.00
03561              -0.60    22200.00
03562               1.40    22200.00
03563              -0.60    22200.00
03564              -0.60    22400.00
03565               0.40    22200.00
03566               0.60    22400.00
03567              -0.60    22400.00
03568              -1.20    22400.00
03569               0.40    22200.00
03570               0.60    22400.00
03571              -0.20    22400.00
03572              -0.40    22400.00
03573               0.80    22200.00
03574              -0.20    22200.00
03575              -1.20    22200.00
03576               0.20    22200.00
03577               0.40    22200.00
03578              -0.60    22200.00
03579               0.20    22000.00
03580               0.40    22000.00
03581              -0.40    21800.00
03582              -1.00    21800.00
03583               0.40    21600.00
03584               0.20    21600.00
03585              -1.20    21400.00
03586              -0.80    21200.00
03587               0.20    21200.00
03588              -0.20    21000.00
03589               0.40    20800.00
03590               0.20    20600.00
03591              -0.60    20400.00
03592              -0.60    20400.00
03593               1.00    20000.00
03594              -0.80    20000.00
03595              -0.60    19800.00
03596              -0.20    19600.00
03597              -0.20    19400.00
03598              -1.00    19200.00
03599              -0.20    19000.00
03600              -0.20    18600.00
03601               0.20    18400.00
03602              -0.60    18200.00
03603              -0.40    18000.00
03604               0.20    17600.00
03605              -0.40    17400.00
03606              -0.40    17000.00
03607               0.20    16800.00
03608              -0.20    16400.00
03609              -0.60    16200.00
03610              -0.60    16000.00
03611               0.20    15800.00
03612              -0.20    15400.00
03613              -0.60    15200.00
03614              -0.20    14800.00
03615               0.40    14400.00
03616              -0.40    14000.00
03617              -0.60    13800.00
03618               0.40    13400.00
03619              -0.20    13200.00
03620              -0.40    12600.00
03621              -0.20    12400.00
03622              -0.20    12000.00
03623              -0.20    11600.00
03624              -0.40    11200.00
03625              -0.20    10800.00
03626               0.20    10400.00
03627              -0.60    10000.00
03628              -0.20     9600.00
03629               0.20     9200.00
03630              -0.60     9000.00
03631              -0.40     8400.00
03632               0.60     8200.00
03633              -0.20     7800.00
03634              -0.40     7200.00
03635               0.60     7000.00
03636              -0.40     6400.00
03637              -0.80     6200.00
03638               0.00     5600.00
03639              -0.20     5200.00
03640              -0.60     4800.00
03641               0.20     4400.00
03642               0.20     4000.00
03643              -0.60     3600.00
03644              -0.20     3200.00
03645              -0.40     2800.00
03646              -0.60     2400.00
03647              -0.40     2000.00
03648              -0.20     1600.00
03649              -0.60     1200.00
03650               0.40      800.00
03651               0.20      200.00
03652              -0.40     -200.00
03653               1.00     -600.00
03654               2.20    -1000.00
03655               0.20    -1400.00
03656              -2.20    -1800.00
03657               0.60    -2000.00
03658               1.40    -2600.00
03659              -1.40    -2800.00
03660               0.40    -3200.00
03661              13.80    -3400.00
03662              25.00    -4400.00
03663             -25.00    -5000.00
03664             -25.00    -5400.00
03665              25.00    -5600.00
03666              18.60    -6000.00
03667             -25.00    -6000.00
03668              25.00    -6400.00
03669              25.00    -7400.00
03670             -25.00    -7200.00
03671               1.80    -8000.00
03672              25.00    -8600.00
03673             -25.00    -8400.00
03674             -25.00    -9200.00
03675              25.00    -9200.00
03676             -25.00    -9600.00
03677             -18.60   -10400.00
03678              25.00   -10400.00
03679               7.20   -10800.00
03680              -9.80   -11400.00
03681             -25.00   -11600.00
03682              25.00   -12200.00
03683               6.00   -12200.00
03684             -25.00   -12800.00
03685              24.40   -13200.00
03686              13.80   -13400.00
03687             -15.40   -14000.00
03688             -17.20   -14400.00
03689              21.00   -14600.00
03690               7.00   -14800.00
03691             -25.00   -15200.00
03692              23.80   -15600.00
03693               9.20   -15600.00
03694             -22.40   -16000.00
03695               7.60   -16400.00
03696               7.40   -16600.00
03697              -9.40   -17000.00
03698              -0.60   -17200.00
03699              10.00   -17400.00
03700              -3.80   -17600.00
03701              -2.00   -18000.00
03702               3.80   -18400.00
03703              -3.60   -18400.00
03704               0.00   -18800.00
03705               0.60   -19000.00
03706               0.40   -19400.00
03707               1.20   -19400.00
03708               1.00   -19600.00
03709              -2.20   -19800.00
03710               2.20   -20200.00
03711              -2.20   -20200.00
03712              -3.00   -20400.00
03713               6.00   -20600.00
03714              -2.20   -20800.00
03715              -1.20   -21000.00
03716               4.40   -21000.00
03717              -3.00   -21200.00
03718              -3.00   -21400.00
03719               2.80   -21600.00
03720               0.20   -21600.00
03721              -3.20   -21600.00
03722               3.00   -21600.00
03723               1.20   -22000.00
03724              -3.00   -22000.00
03725               0.60   -22000.00
03726               1.20   -22000.00
03727              -1.20   -22200.00
03728               0.20   -22200.00
03729               1.00   -22400.00
03730              -0.20   -22200.00
03731              -1.40   -22400.00
03732               0.40   -22400.00
03733               0.40   -22400.00
03734              -1.60   -22400.00
03735               0.80   -22400.00
03736               0.60   -22400.00
03737              -1.00   -22400.00
03738               0.40   -22400.00
03739              -0.20   -22400.00
03740              -0.40   -22400.00
03741               0.20   -22000.00
03742               0.40   -22200.00
03743              -0.60   -22000.00
03744               0.20   -22000.00
03745               0.60   -22000.00
03746              -1.20   -21600.00
03747               0.20   -21800.00
03748               0.40   -21600.00
03749              -1.00   -21600.00
03750               0.40   -21600.00
03751               1.00   -21200.00
03752              -0.60   -21200.00
03753               0.20   -21000.00
03754               0.40   -20800.00
03755              -0.60   -20800.00
03756              -0.20   -20400.00
03757               0.80   -20200.00
03758              -2.20   -20000.00
03759               1.20   -19800.00
03760               1.60   -19600.00
03761              -2.00   -19600.00
03762               0.20   -19400.00
03763               0.60   -19200.00
03764              -0.60   -18800.00
03765              -0.20   -18600.00
03766              -0.40   -18400.00
03767               0.40   -18200.00
03768              -0.20   -18000.00
03769              -0.20   -17600.00
03770              -0.40   -17200.00
03771              -0.60   -17000.00
03772               0.80   -16800.00
03773              -0.20   -16600.00
03774              -1.00   -16200.00
03775               0.40   -16000.00
03776              -0.40   -15600.00
03777              -1.00   -15200.00
03778               0.00   -14800.00
03779              -0.20   -14800.00
03780              -0.60   -14400.00
03781              -0.60   -13800.00
03782               0.20   -13800.00
03783              -0.80   -13200.00
03784              -0.60   -13000.00
03785               0.20   -12400.00
03786              -0.40   -12200.00
03787              -0.20   -12000.00
03788              -0.60   -11400.00
03789              -0.40   -11200.00
03790              -0.40   -10800.00
03791              -0.60   -10400.00
03792              -0.20   -10000.00
03793               0.20    -9800.00
03794              -0.60    -9200.00
03795              -0.40    -9000.00
03796               0.00    -8600.00
03797              -0.40    -8200.00
03798              -1.20    -7600.00
03799               0.20    -7200.00
03800              -0.20    -6800.00
03801              -1.20    -6400.00
03802              -0.20    -6000.00
03803               1.00    -5800.00
03804              -1.40    -5200.00
03805               0.20    -4800.00
03806               0.40    -4400.00
03807              -0.60    -4000.00
03808              -1.00    -3600.00
03809               0.40    -3200.00
03810              -0.40    -2800.00
03811              -0.60    -2400.00
03812              -0.20    -1800.00
03813               0.00    -1600.00
03814              -0.60    -1000.00
03815              -0.40     -600.00
03816               0.20     -200.00
03817               0.40      200.00
03818               0.40      600.00
03819               3.60     1000.00
03820              -0.20     1400.00
03821              -2.00     1800.00
03822               1.40     2000.00
03823               2.00     2400.00
03824              -1.00     2800.00
03825              -0.20     3200.00
03826               8.40     3600.00
03827              20.60     4400.00
03828               8.20     4800.00
03829             -25.00     5400.00
03830             -15.80     5600.00
03831              25.00     6000.00
03832              -7.40     6200.00
03833             -25.00     6600.00
03834              25.00     7200.00
03835              25.00     7600.00
03836             -25.00     7600.00
03837             -25.00     8400.00
03838              25.00     8600.00
03839             -25.00     9000.00
03840             -25.00     9400.00
03841              25.00     9600.00
03842              -5.20    10000.00
03843             -25.00    10800.00
03844              25.00    10800.00
03845              22.80    11200.00
03846             -25.00    11800.00
03847             -16.20    12000.00
03848              25.00    12400.00
03849               2.20    12800.00
03850             -25.00    13200.00
03851              11.60    13400.00
03852              16.80    13800.00
03853             -14.20    14200.00
03854             -14.20    14400.00
03855              15.60    14800.00
03856               5.00    15200.00
03857             -18.00    15400.00
03858              11.60    15800.00
03859              11.00    16000.00
03860             -18.20    16400.00
03861               1.80    16600.00
03862              10.00    16800.00
03863              -9.80    17200.00
03864              -1.40    17400.00
03865              10.60    17600.00
03866              -4.00    18000.00
03867              -3.80    18400.00
03868               4.20    18400.00
03869              -2.60    18800.00
03870              -2.20    19000.00
03871               2.60    19400.00
03872              -0.40    19400.00
03873               0.40    19600.00
03874               1.40    19800.00
03875              -2.60    20000.00
03876               0.40    20200.00
03877              -0.40    20400.00
03878              -2.00    20600.00
03879               2.80    20800.00
03880              -0.60    20800.00
03881              -1.80    21000.00
03882               2.20    21200.00
03883              -0.40    21400.00
03884              -2.80    21600.00
03885               2.00    21600.00
03886               1.20    21600.00
03887              -2.20    21600.00
03888               1.40    22000.00
03889               0.60    22000.00
03890              -2.00    22200.00
03891               0.40    22000.00
03892               1.00    22200.00
03893              -1.00    22200.00
03894              -0.20    22200.00
03895               0.40    22400.00
03896               0.20    22400.00
03897              -0.20    22400.00
03898              -0.20    22200.00
03899               0.40    22400.00
03900              -0.20    22400.00
03901               0.20    22400.00
03902              -0.60    22400.00
03903              -0.20    22400.00
03904               0.20    22200.00
03905              -0.60    22200.00
03906              -0.40    22200.00
03907               0.00    22000.00
03908              -0.40    22000.00
03909              -1.00    22000.00
03910               0.20    22000.00
03911               0.40    21800.00
03912              -1.20    21600.00
03913              -0.40    21600.00
03914               1.00    21600.00
03915              -0.60    21200.00
03916              -1.00    21200.00
03917               0.60    20800.00
03918              -0.20    21000.00
03919              -0.60    20800.00
03920              -0.40    20600.00
03921              -0.20    20400.00
03922              -0.60    20200.00
03923               0.20    20000.00
03924              -0.80    20000.00
03925              -0.20    19600.00
03926               0.40    19600.00
03927               0.00    19200.00
03928              -0.60    19000.00
03929              -0.20    18800.00
03930              -1.20    18800.00
03931              -0.60    18200.00
03932               0.40    18200.00
03933               0.20    18000.00
03934              -0.40    17600.00
03935               0.20    17200.00
03936              -0.60    17200.00
03937              -0.40    16800.00
03938               0.20    16400.00
03939              -0.60    16200.00
03940              -0.40    16000.00
03941               0.40    15600.00
03942              -0.60    15400.00
03943              -0.40    15000.00
03944               0.80    14800.00
03945              -0.20    14400.00
03946              -0.20    14000.00
03947              -0.40    13600.00
03948              -1.20    13200.00
03949              -0.40    13000.00
03950               0.40    12600.00
03951               0.40    12400.00
03952              -0.60    11800.00
03953              -0.40    11600.00
03954              -0.60    11000.00
03955              -0.60    10800.00
03956               0.40    10400.00
03957               0.40    10000.00
03958              -0.20     9600.00
03959               0.20     9200.00
03960              -0.40     8800.00
03961              -0.80     8400.00
03962              -0.40     8200.00
03963              -0.20     7800.00
03964              -0.40     7200.00
03965              -0.20     7000.00
03966               0.20     6400.00
03967               0.20     6000.00
03968              -0.20     5600.00
03969              -0.40     5000.00
03970              -0.60     4800.00
03971              -0.60     4400.00
03972               0.20     4000.00
03973               0.00     3600.00
03974              -0.40     3200.00
03975              -0.20     2600.00
03976              -0.20     2200.00
03977              -0.60     2000.00
03978              -0.20     1400.00
03979               0.20     1200.00
03980              -0.40      600.00
03981              -0.20        0.00
03982               0.20     -200.00
03983               0.40     -800.00
03984               3.00    -1000.00
03985               0.00    -1400.00
03986              -2.20    -1800.00
03987               1.20    -2000.00
03988               1.80    -2600.00
03989              -2.20    -2800.00
03990               2.00    -3200.00
03991              18.60    -3600.00
03992              25.00    -4400.00
03993             -25.00    -5200.00
03994             -25.00    -5600.00
03995              25.00    -6000.00
03996               2.80    -6000.00
03997             -25.00    -6000.00
03998              25.00    -6600.00
03999              25.00    -7200.00
04000             -25.00    -7000.00
04001              25.00    -8200.00
04002              25.00    -8400.00
04003             -25.00    -8400.00
04004              14.00    -9400.00
04005              25.00    -9200.00
04006             -25.00    -9600.00
04007               1.20   -10400.00
04008              25.00   -10400.00
04009               6.80   -11000.00
04010             -18.80   -11400.00
04011             -23.40   -11600.00
04012              25.00   -12200.00
04013             -11.80   -12400.00
04014             -25.00   -13000.00
04015              25.00   -13200.00
04016               5.40   -13600.00
04017             -17.40   -14000.00
04018             -11.20   -14200.00
04019              25.00   -14600.00
04020              -5.40   -14800.00
04021             -22.80   -15200.00
04022              25.00   -15600.00
04023              -2.00   -15800.00
04024             -18.80   -16200.00
04025              11.40   -16400.00
04026               2.80   -16400.00
04027             -10.80   -17000.00
04028               3.60   -17200.00
04029               9.00   -17600.00
04030              -6.00   -17800.00
04031               1.00   -18000.00
04032               2.80   -18400.00
04033              -4.60   -18600.00
04034               0.20   -18800.00
04035               0.60   -19200.00
04036               0.00   -19200.00
04037               2.00   -19400.00
04038               0.20   -19600.00
04039              -4.20   -20000.00
04040               5.80   -20000.00
04041              -3.40   -20400.00
04042              -6.00   -20400.00
04043               6.80   -20600.00
04044              -1.40   -20600.00
04045               0.20   -21000.00
04046               3.00   -21000.00
04047              -3.40   -21200.00
04048              -2.80   -21400.00
04049               2.20   -21600.00
04050               0.40   -21600.00
04051              -2.20   -21600.00
04052               2.80   -21800.00
04053               1.20   -22000.00
04054              -3.00   -22000.00
04055               0.40   -22000.00
04056               0.40   -22200.00
04057              -2.20   -22400.00
04058               0.20   -22200.00
04059               2.00   -22400.00
04060               0.20   -22400.00
04061              -1.00   -22200.00
04062               0.40   -22400.00
04063              -0.60   -22400.00
04064              -2.40   -22400.00
04065               1.20   -22400.00
04066               1.00   -22400.00
04067               0.40   -22400.00
04068               0.20   -22400.00
04069              -0.40   -22400.00
04070              -0.20   -22200.00
04071              -0.60   -22400.00
04072              -0.80   -22200.00
04073               0.40   -22000.00
04074               1.00   -22000.00
04075               0.40   -21800.00
04076              -0.40   -21800.00
04077               0.60   -21800.00
04078              -1.40   -21600.00
04079              -0.60   -21600.00
04080               1.40   -21200.00
04081              -0.60   -21200.00
04082              -0.40   -21200.00
04083               1.00   -21000.00
04084              -0.40   -20800.00
04085              -0.60   -20800.00
04086               0.00   -20400.00
04087               0.20   -20200.00
04088               0.00   -20200.00
04089               0.60   -19800.00
04090               0.20   -19800.00
04091              -0.60   -19400.00
04092               0.00   -19200.00
04093              -0.80   -19200.00
04094              -0.60   -18800.00
04095               0.60   -18400.00
04096               0.40   -18400.00
04097              -0.40   -18000.00
04098               0.60   -17800.00
04099               0.40   -17600.00
04100              -1.20   -17200.00
04101               0.00   -17000.00
04102               1.00   -16600.00
04103              -1.20   -16400.00
04104              -0.20   -16000.00
04105               0.40   -15800.00
04106              -1.20   -15600.00
04107              -0.20   -15200.00
04108               0.40   -14800.00
04109              -0.60   -14800.00
04110              -0.20   -14200.00
04111               0.40   -14000.00
04112              -0.20   -13600.00
04113              -0.60   -13200.00
04114              -0.20   -12800.00
04115              -0.40   -12600.00
04116              -0.60   -12200.00
04117              -0.20   -11800.00
04118              -0.60   -11600.00
04119              -0.40   -11000.00
04120               0.20   -10800.00
04121              -0.60   -10200.00
04122              -0.20   -10000.00
04123              -0.60    -9600.00
04124              -1.00    -9200.00
04125              -0.20    -8800.00
04126              -0.20    -8400.00
04127              -0.40    -8000.00
04128              -0.40    -7600.00
04129               0.00    -7200.00
04130              -0.20    -6800.00
04131              -0.60    -6400.00
04132              -0.40    -6000.00
04133               0.60    -5600.00
04134              -1.20    -5200.00
04135              -0.40    -4600.00
04136               0.20    -4400.00
04137              -0.60    -4000.00
04138              -1.00    -3600.00
04139               1.00    -3000.00
04140               0.20    -2600.00
04141              -0.60    -2200.00
04142               0.40    -2000.00
04143               0.20    -1600.00
04144              -1.20    -1000.00
04145              -0.20     -400.00
04146               1.20     -200.00
04147              -0.60      400.00
04148               1.00      800.00
04149               4.80     1200.00
04150              -2.00     1600.00
04151              -2.00     1800.00
04152               3.00     2200.00
04153               0.60     2400.00
04154              -2.20     3000.00
04155               3.00     3200.00
04156               8.60     3800.00
04157              22.60     4600.00
04158              -0.60     4800.00
04159             -25.00     5400.00
04160              -3.40     5600.00
04161              25.00     6000.00
04162             -23.00     6400.00
04163             -25.00     6800.00
04164              25.00     7200.00
04165              25.00     7600.00
04166             -25.00     7800.00
04167              14.80     8400.00
04168              25.00     8600.00
04169             -25.00     9000.00
04170             -16.60     9600.00
04171              25.00     9800.00
04172             -25.00    10200.00
04173             -25.00    10800.00
04174              25.00    10800.00
04175              -2.20    11200.00
04176             -25.00    11800.00
04177               3.40    12000.00
04178              20.80    12400.00
04179              -8.40    12800.00
04180             -10.20    13200.00
04181              10.00    13600.00
04182               6.20    13800.00
04183              -8.60    14200.00
04184             -13.00    14600.00
04185              13.20    15000.00
04186               5.00    15200.00
04187             -16.80    15600.00
04188              11.40    15800.00
04189               9.40    16000.00
04190             -17.80    16400.00
04191               3.40    16600.00
04192              10.60    16800.00
04193             -12.20    17200.00
04194               0.40    17400.00
04195              11.60    17800.00
04196              -7.00    18000.00
04197              -3.60    18400.00
04198               6.80    18800.00
04199              -5.00    18800.00
04200              -3.00    19200.00
04201               5.20    19200.00
04202              -1.40    19400.00
04203              -1.20    19800.00
04204               4.20    19800.00
04205              -2.80    20000.00
04206              -2.00    20200.00
04207               1.60    20400.00
04208              -0.60    20600.00
04209               1.00    21000.00
04210               0.20    21000.00
04211               0.00    21200.00
04212               0.20    21200.00
04213              -0.60    21400.00
04214              -1.40    21400.00
04215               0.20    21600.00
04216               1.00    21600.00
04217              -0.60    21800.00
04218               0.40    22000.00
04219               0.40    22000.00
04220              -1.20    22200.00
04221              -0.40    22000.00
04222               0.20    22400.00
04223               0.40    22200.00
04224              -0.60    22200.00
04225              -0.60    22400.00
04226               0.80    22400.00
04227              -0.40    22400.00
04228              -1.80    22400.00
04229               0.40    22400.00
04230               1.00    22200.00
04231              -1.00    22400.00
04232              -0.40    22200.00
04233               1.00    22200.00
04234              -0.40    22200.00
04235              -1.20    22200.00
04236               0.40    22000.00
04237              -0.20    22200.00
04238              -1.00    22000.00
04239              -0.60    22000.00
04240               0.80    22000.00
04241              -0.40    21800.00
04242              -1.40    21600.00
04243               0.60    21600.00
04244               0.20    21400.00
04245              -2.00    21400.00
04246               0.20    21200.00
04247               0.80    21000.00
04248              -1.40    21000.00
04249              -0.20    20800.00
04250               0.60    20600.00
04251              -1.20    20400.00
04252              -0.60    20400.00
04253               1.20    20000.00
04254              -1.20    20000.00
04255              -0.40    19800.00
04256               0.40    19400.00
04257              -0.60    19200.00
04258              -0.60    19000.00
04259               0.40    18800.00
04260              -0.60    18800.00
04261              -0.60    18200.00
04262               1.20    18000.00
04263               0.20    17800.00
04264              -1.20    17400.00
04265               0.60    17200.00
04266              -0.20    16800.00
04267              -1.80    16600.00
04268               1.00    16400.00
04269               0.80    16200.00
04270              -2.20    15800.00
04271               1.00    15600.00
04272               1.20    15400.00
04273              -3.00    15000.00
04274               0.40    14600.00
04275               2.00    14400.00
04276              -2.80    14000.00
04277               0.60    13600.00
04278               1.20    13200.00
04279              -2.40    12800.00
04280               0.60    12400.00
04281               1.00    12200.00
04282              -1.60    11800.00
04283               0.40    11600.00
04284               1.20    11000.00
04285              -1.20    10800.00
04286              -1.00    10200.00
04287               2.00    10000.00
04288              -1.80     9600.00
04289              -1.20     9200.00
04290               2.60     8800.00
04291              -1.00     8400.00
04292              -2.20     8000.00
04293               2.20     7600.00
04294              -0.40     7200.00
04295              -3.00     6800.00
04296               1.60     6400.00
04297              -0.20     6000.00
04298              -2.00     5600.00
04299               1.20     5200.00
04300               0.40     4800.00
04301              -2.00     4200.00
04302               0.20     3800.00
04303               0.60     3400.00
04304              -1.60     3000.00
04305              -0.40     2600.00
04306               0.40     2200.00
04307              -0.80     1600.00
04308              -0.60     1400.00
04309              -0.20     1000.00
04310               0.20      600.00
04311              -1.20      200.00
04312               1.40     -200.00
04313               1.40     -600.00
04314               1.80    -1200.00
04315              -0.20    -1600.00
04316              -0.60    -1800.00
04317              -0.40    -2000.00
04318               1.00    -2600.00
04319              -1.20    -3000.00
04320               2.60    -3400.00
04321              22.80    -3600.00
04322              21.40    -4800.00
04323             -25.00    -5000.00
04324             -20.40    -5600.00
04325              25.00    -5800.00
04326             -15.40    -6200.00
04327             -25.00    -6000.00
04328              25.00    -6600.00
04329              25.00    -7400.00
04330             -25.00    -7200.00
04331              25.00    -8200.00
04332              25.00    -8400.00
04333             -25.00    -8800.00
04334              25.00    -9400.00
04335              25.00    -9400.00
04336             -25.00    -9800.00
04337              17.00   -10400.00
04338              25.00   -10600.00
04339               4.40   -11200.00
04340             -25.00   -11400.00
04341              -9.20   -11600.00
04342              25.00   -12400.00
04343             -25.00   -12400.00
04344             -11.60   -13000.00
04345              25.00   -13200.00
04346              -0.60   -13600.00
04347             -19.40   -14200.00
04348              -5.80   -14200.00
04349              25.00   -14600.00
04350             -16.40   -14800.00
04351             -14.00   -15400.00
04352              25.00   -15600.00
04353             -10.80   -15800.00
04354             -12.60   -16400.00
04355              12.40   -16400.00
04356               0.40   -16800.00
04357             -10.20   -17000.00
04358               5.20   -17200.00
04359               7.00   -17600.00
04360              -6.60   -17800.00
04361               1.40   -18200.00
04362               1.00   -18400.00
04363              -2.60   -18600.00
04364               0.20   -19000.00
04365              -0.60   -19200.00
04366               1.00   -19200.00
04367               2.20   -19600.00
04368              -2.20   -19600.00
04369              -0.60   -20000.00
04370               2.80   -20000.00
04371              -5.80   -20400.00
04372               1.20   -20400.00
04373               4.60   -20600.00
04374              -4.60   -20800.00
04375               2.20   -21000.00
04376               2.00   -21000.00
04377              -3.60   -21200.00
04378              -1.20   -21400.00
04379               3.80   -21400.00
04380              -1.80   -21600.00
04381              -2.60   -21800.00
04382               4.20   -21800.00
04383              -0.80   -22000.00
04384              -3.80   -22000.00
04385               2.60   -22000.00
04386              -0.20   -22200.00
04387              -2.60   -22400.00
04388               1.80   -22400.00
04389               0.60   -22400.00
04390              -1.80   -22400.00
04391               0.40   -22200.00
04392               1.20   -22400.00
04393              -1.40   -22400.00
04394              -0.20   -22400.00
04395               1.40   -22400.00
04396              -1.00   -22400.00
04397               0.20   -22400.00
04398               0.00   -22400.00
04399              -1.00   -22400.00
04400               0.40   -22200.00
04401              -0.20   -22400.00
04402               0.20   -22000.00
04403              -0.60   -22000.00
04404               1.20   -22000.00
04405               0.20   -21800.00
04406              -1.20   -21800.00
04407               1.00   -21600.00
04408               0.00   -21600.00
04409              -0.60   -21600.00
04410               0.60   -21200.00
04411               0.40   -21200.00
04412              -0.20   -21000.00
04413               0.20   -20800.00
04414               0.20   -20800.00
04415              -0.40   -20400.00
04416              -0.40   -20400.00
04417               0.20   -20400.00
04418               0.00   -20000.00
04419               0.20   -19600.00
04420              -0.20   -19600.00
04421               0.20   -19400.00
04422               0.40   -19200.00
04423              -0.60   -19200.00
04424               0.00   -18800.00
04425               0.60   -18400.00
04426              -1.20   -18200.00
04427               0.00   -18000.00
04428               0.20   -17800.00
04429              -1.00   -17400.00
04430              -0.60   -17200.00
04431               1.00   -17000.00
04432              -0.20   -16800.00
04433              -1.00   -16400.00
04434               1.00   -16000.00
04435              -0.40   -15600.00
04436              -1.60   -15400.00
04437               1.40   -15200.00
04438              -0.40   -14800.00
04439              -2.00   -14600.00
04440               0.60   -14200.00
04441              -0.20   -13800.00
04442              -1.20   -13600.00
04443               0.40   -13000.00
04444               0.40   -12800.00
04445              -2.00   -12400.00
04446               0.40   -12200.00
04447               1.00   -12000.00
04448              -1.80   -11400.00
04449               0.00   -11000.00
04450               1.20   -10600.00
04451              -1.80   -10200.00
04452               0.40   -10000.00
04453               0.20    -9600.00
04454              -1.00    -9200.00
04455               0.40    -8800.00
04456              -0.60    -8400.00
04457              -0.40    -8000.00
04458               0.40    -7600.00
04459              -1.40    -7200.00
04460              -0.60    -6800.00
04461               1.40    -6400.00
04462              -1.60    -6000.00
04463              -1.00    -5600.00
04464               1.40    -5000.00
04465              -0.60    -4600.00
04466              -1.40    -4200.00
04467               1.60    -3800.00
04468              -0.60    -3400.00
04469              -1.20    -2800.00
04470               1.00    -2600.00
04471              -0.60    -2200.00
04472              -1.00    -1800.00
04473               1.00    -1200.00
04474              -0.60    -1000.00
04475              -0.60     -400.00
04476               0.60        0.00
04477              -0.20      400.00
04478               1.20      800.00
04479               3.80     1200.00
04480              -2.20     1600.00
04481              -1.00     2000.00
04482               3.60     2400.00
04483               0.20     2600.00
04484              -2.40     3000.00
04485               4.60     3600.00
04486              10.60     4000.00
04487              24.00     4800.00
04488             -12.40     5200.00
04489             -25.00     5600.00
04490               8.80     5600.00
04491              25.00     6000.00
04492             -25.00     6400.00
04493             -25.00     6800.00
04494              25.00     7600.00
04495              25.00     7600.00
04496             -25.00     8000.00
04497              25.00     8400.00
04498              25.00     8600.00
04499             -25.00     9200.00
04500              10.00     9600.00
04501              25.00    10000.00
04502             -25.00    10400.00
04503             -16.60    10800.00
04504              25.00    10800.00
04505              -2.00    11400.00
04506             -25.00    11800.00
04507               5.80    12400.00
04508              25.00    12600.00
04509             -17.20    12800.00
04510             -13.00    13400.00
04511              19.80    13600.00
04512               5.60    14000.00
04513             -18.80    14400.00
04514              -4.40    14600.00
04515              20.00    15200.00
04516              -8.20    15200.00
04517             -11.60    15600.00
04518              18.60    15800.00
04519              -1.80    16000.00
04520             -15.60    16400.00
04521              10.00    16600.00
04522               3.60    16800.00
04523             -11.60    17200.00
04524               6.00    17600.00
04525               6.60    17800.00
04526              -6.60    18200.00
04527              -0.20    18400.00
04528               2.80    18600.00
04529              -3.60    18800.00
04530              -0.20    19200.00
04531               1.40    19200.00
04532              -0.60    19600.00
04533               2.00    19800.00
04534              -0.60    20000.00
04535              -1.40    20000.00
04536               1.00    20400.00
04537              -2.20    20600.00
04538              -0.20    20600.00
04539               3.00    21000.00
04540              -2.20    21000.00
04541              -0.20    21200.00
04542               2.60    21200.00
04543              -2.20    21400.00
04544              -1.80    21600.00
04545               2.80    21600.00
04546              -0.40    21600.00
04547              -1.80    21800.00
04548               2.20    22000.00
04549              -0.80    22000.00
04550              -2.00    22000.00
04551               0.80    22200.00
04552              -0.20    22200.00
04553              -0.60    22200.00
04554               0.20    22200.00
04555               0.40    22400.00
04556              -0.20    22400.00
04557              -0.60    22200.00
04558              -0.60    22200.00
04559              -0.20    22400.00
04560               0.00    22200.00
04561              -0.40    22200.00
04562              -0.20    22200.00
04563               0.40    22400.00
04564              -0.40    22200.00
04565              -1.00    22400.00
04566               0.20    22200.00
04567              -0.40    22200.00
04568              -0.60    22000.00
04569              -0.20    22000.00
04570               0.20    21800.00
04571              -0.60    21800.00
04572              -1.00    21600.00
04573               0.40    21400.00
04574              -0.40    21400.00
04575              -1.00    21200.00
04576               0.20    21200.00
04577               0.40    21000.00
04578              -0.60    20800.00
04579              -0.20    20600.00
04580               0.00    20600.00
04581              -1.00    20400.00
04582              -0.20    20200.00
04583               0.80    20000.00
04584              -1.00    19800.00
04585               0.20    19600.00
04586               0.40    19600.00
04587              -1.00    19200.00
04588              -0.40    19000.00
04589              -0.20    18800.00
04590              -0.60    18400.00
04591              -0.20    18200.00
04592               0.40    18000.00
04593              -0.20    17600.00
04594              -0.40    17600.00
04595              -0.20    17200.00
04596               0.00    16800.00
04597              -0.40    16600.00
04598               0.20    16400.00
04599              -0.40    16000.00
04600              -0.20    15800.00
04601              -0.20    15600.00
04602              -0.60    15200.00
04603              -0.20    14800.00
04604               0.40    14600.00
04605              -0.20    14400.00
04606               0.20    14000.00
04607               0.20    13600.00
04608              -0.40    13200.00
04609              -0.40    12800.00
04610               0.00    12400.00
04611              -0.40    12000.00
04612              -0.40    11800.00
04613               0.20    11200.00
04614              -0.40    11000.00
04615               0.00    10600.00
04616               0.00    10200.00
04617              -0.40    10000.00
04618              -0.20     9400.00
04619              -0.20     9200.00
04620              -0.40     8800.00
04621              -0.40     8400.00
04622              -0.20     7800.00
04623              -0.20     7400.00
04624              -0.40     7200.00
04625              -0.40     6800.00
04626              -0.20     6400.00
04627              -0.40     6000.00
04628              -0.20     5600.00
04629              -0.40     5000.00
04630              -0.60     4600.00
04631              -0.60     4200.00
04632              -0.20     3800.00
04633              -0.40     3200.00
04634              -0.40     2800.00
04635              -0.20     2400.00
04636              -0.20     2000.00
04637              -0.20     1800.00
04638              -0.20     1200.00
04639              -0.40      800.00
04640              -0.40      400.00
04641              -0.20        0.00
04642               0.20     -400.00
04643               1.00     -800.00
04644               3.00    -1200.00
04645              -2.20    -1600.00
04646              -1.20    -1800.00
04647               2.00    -2400.00
04648               0.20    -2800.00
04649              -2.60    -3200.00
04650               6.80    -3200.00
04651              25.00    -4000.00
04652               5.80    -4800.00
04653             -25.00    -5200.00
04654              -2.80    -5600.00
04655              25.00    -5800.00
04656             -25.00    -6000.00
04657             -25.00    -6000.00
04658              25.00    -6800.00
04659             -12.40    -7200.00
04660             -25.00    -7200.00
04661              25.00    -8400.00
04662              25.00    -8400.00
04663             -25.00    -8800.00
04664              25.00    -9400.00
04665              25.00    -9200.00
04666             -25.00   -10000.00
04667              25.00   -10400.00
04668              19.20   -10600.00
04669               1.20   -11400.00
04670             -25.00   -11400.00
04671               6.60   -12000.00
04672              25.00   -12400.00
04673             -25.00   -12400.00
04674               2.80   -13000.00
04675              25.00   -13400.00
04676              -6.80   -13800.00
04677             -19.40   -14200.00
04678               2.00   -14400.00
04679              25.00   -14800.00
04680             -24.60   -14800.00
04681              -1.80   -15200.00
04682              25.00   -15600.00
04683             -18.00   -16000.00
04684              -6.20   -16200.00
04685              12.60   -16400.00
04686              -3.60   -16800.00
04687              -7.80   -17000.00
04688               8.00   -17200.00
04689               3.40   -17600.00
04690              -6.40   -17800.00
04691               3.00   -18200.00
04692              -0.60   -18600.00
04693              -2.20   -18800.00
04694              -0.20   -18800.00
04695               0.40   -19200.00
04696               1.60   -19400.00
04697               1.00   -19600.00
04698              -1.40   -19600.00
04699               1.00   -20000.00
04700               0.40   -20200.00
04701              -5.40   -20400.00
04702               4.20   -20400.00
04703               2.00   -20800.00
04704              -4.40   -21000.00
04705               4.00   -21000.00
04706               0.20   -21200.00
04707              -4.20   -21400.00
04708               1.20   -21600.00
04709               2.00   -21600.00
04710              -3.00   -21600.00
04711               0.40   -21800.00
04712               3.40   -22000.00
04713              -2.60   -22000.00
04714              -1.20   -22000.00
04715               1.80   -22200.00
04716              -0.40   -22000.00
04717              -1.00   -22000.00
04718               1.00   -22200.00
04719               0.40   -22400.00
04720              -1.00   -22400.00
04721              -0.60   -22400.00
04722               1.20   -22400.00
04723              -1.20   -22400.00
04724              -0.60   -22400.00
04725               1.80   -22400.00
04726              -0.40   -22400.00
04727               0.20   -22400.00
04728               0.40   -22400.00
04729              -0.40   -22400.00
04730               0.40   -22200.00
04731              -0.20   -22000.00
04732              -0.60   -22200.00
04733              -0.20   -22000.00
04734               1.00   -22000.00
04735              -1.00   -21800.00
04736              -0.20   -21800.00
04737               1.20   -21600.00
04738              -1.20   -21600.00
04739               0.20   -21400.00
04740               1.40   -21200.00
04741              -1.00   -21200.00
04742              -0.40   -21000.00
04743               1.20   -20800.00
04744              -0.60   -20600.00
04745              -0.60   -20400.00
04746               1.00   -20200.00
04747              -0.20   -20200.00
04748              -0.60   -20000.00
04749               1.20   -19800.00
04750              -0.60   -19600.00
04751              -1.20   -19400.00
04752               0.60   -19200.00
04753              -0.60   -19000.00
04754              -0.60   -18600.00
04755               0.40   -18600.00
04756               0.20   -18400.00
04757              -0.60   -18000.00
04758               0.20   -17600.00
04759              -0.20   -17400.00
04760              -1.00   -17000.00
04761               0.20   -16800.00
04762               0.20   -16600.00
04763              -0.80   -16400.00
04764              -0.20   -16000.00
04765              -0.40   -15800.00
04766              -0.80   -15400.00
04767               0.20   -15200.00
04768              -0.20   -14800.00
04769              -0.20   -14600.00
04770              -0.20   -14200.00
04771              -0.20   -13800.00
04772              -0.40   -13400.00
04773              -0.60   -13000.00
04774              -0.20   -12800.00
04775              -0.20   -12400.00
04776               0.00   -12000.00
04777               0.00   -11800.00
04778              -0.40   -11400.00
04779              -0.20   -11000.00
04780              -0.20   -10600.00
04781              -0.60   -10200.00
04782               0.20    -9800.00
04783              -0.40    -9200.00
04784              -0.40    -9000.00
04785              -0.20    -8800.00
04786              -0.40    -8400.00
04787              -0.40    -8000.00
04788              -0.20    -7400.00
04789               0.20    -7000.00
04790              -0.40    -6600.00
04791              -0.60    -6400.00
04792               0.40    -5800.00
04793               0.00    -5600.00
04794              -0.80    -5000.00
04795               0.20    -4400.00
04796               0.20    -4400.00
04797              -0.60    -3800.00
04798              -0.20    -3400.00
04799               0.40    -2800.00
04800               0.20    -2400.00
04801              -0.60    -2000.00
04802               0.00    -1800.00
04803              -0.40    -1200.00
04804              -0.60     -800.00
04805              -0.40     -400.00
04806               1.00        0.00
04807               0.40      400.00
04808               2.00      800.00
04809               2.60     1200.00
04810              -2.20     1600.00
04811              -0.60     1800.00
04812               2.60     2400.00
04813               0.40     2800.00
04814              -2.60     3000.00
04815               4.80     3400.00
04816              14.00     4000.00
04817              22.60     4600.00
04818             -25.00     5000.00
04819             -25.00     5600.00
04820              19.80     5600.00
04821              19.60     6200.00
04822             -25.00     6400.00
04823             -15.20     6800.00
04824              25.00     7400.00
04825               0.40     7600.00
04826             -25.00     8200.00
04827              25.00     8400.00
04828              25.00     8600.00
04829             -25.00     9200.00
04830              25.00     9600.00
04831              25.00    10000.00
04832             -25.00    10600.00
04833               0.60    10800.00
04834              25.00    11000.00
04835             -12.60    11400.00
04836             -25.00    11800.00
04837              16.60    12400.00
04838              22.20    12600.00
04839             -24.40    12800.00
04840              -4.60    13400.00
04841              22.00    13600.00
04842              -2.00    14000.00
04843             -19.20    14400.00
04844               2.60    14600.00
04845              17.40    15000.00
04846             -14.00    15200.00
04847              -4.40    15600.00
04848              19.00    15800.00
04849              -8.60    16000.00
04850             -10.60    16400.00
04851              12.20    16800.00
04852              -1.20    17200.00
04853             -10.20    17400.00
04854               9.00    17600.00
04855               3.00    18000.00
04856              -6.60    18200.00
04857               1.40    18400.00
04858               2.80    18800.00
04859              -4.40    19000.00
04860               0.60    19200.00
04861               1.80    19400.00
04862              -1.20    19600.00
04863               2.20    19600.00
04864              -1.00    20000.00
04865              -1.40    20000.00
04866               1.40    20400.00
04867              -2.60    20600.00
04868               1.20    20600.00
04869               2.60    20800.00
04870              -2.80    21000.00
04871               1.20    21200.00
04872               2.00    21200.00
04873              -3.80    21400.00
04874               0.00    21400.00
04875               2.20    21800.00
04876              -1.80    21600.00
04877               0.20    21600.00
04878               1.40    22000.00
04879              -1.80    22000.00
04880              -0.20    22200.00
04881               0.40    22200.00
04882              -0.60    22200.00
04883               0.40    22200.00
04884              -0.40    22200.00
04885              -0.40    22200.00
04886               0.40    22400.00
04887              -0.60    22400.00
04888              -0.60    22200.00
04889               0.40    22200.00
04890               0.00    22400.00
04891              -1.00    22200.00
04892               0.20    22400.00
04893               0.20    22200.00
04894              -1.20    22200.00
04895              -0.60    22000.00
04896               0.20    22200.00
04897              -0.60    22000.00
04898              -0.40    22000.00
04899               0.20    22000.00
04900               0.00    21800.00
04901              -0.60    21800.00
04902              -0.60    21600.00
04903               0.40    21600.00
04904              -0.60    21400.00
04905              -1.00    21200.00
04906               0.40    21000.00
04907              -0.20    21000.00
04908              -0.60    20800.00
04909               0.20    20800.00
04910               0.20    20400.00
04911              -1.20    20400.00
04912               0.40    20000.00
04913               0.20    20000.00
04914              -1.00    19800.00
04915               0.20    19600.00
04916               0.40    19400.00
04917              -0.60    19200.00
04918              -0.20    18800.00
04919              -0.20    18800.00
04920               0.40    18400.00
04921              -1.20    18200.00
04922               0.40    18000.00
04923               0.40    17600.00
04924              -1.40    17400.00
04925               0.20    17000.00
04926               0.40    16800.00
04927              -1.00    16400.00
04928               1.00    16400.00
04929              -0.40    16000.00
04930              -0.60    15600.00
04931               1.20    15400.00
04932              -0.60    15200.00
04933              -0.80    14800.00
04934               1.00    14400.00
04935              -0.60    14200.00
04936              -0.60    13800.00
04937               0.80    13400.00
04938              -0.60    13200.00
04939              -0.40    12800.00
04940               0.80    12400.00
04941              -0.60    12000.00
04942              -0.40    11600.00
04943               0.60    11200.00
04944              -0.60    10800.00
04945              -0.40    10400.00
04946               0.40    10000.00
04947              -0.60     9800.00
04948              -0.60     9200.00
04949               0.40     9200.00
04950              -0.40     8800.00
04951              -0.60     8200.00
04952               0.20     7800.00
04953              -0.60     7600.00
04954              -0.60     7200.00
04955               0.00     6600.00
04956              -0.60     6400.00
04957              -0.60     5600.00
04958               0.20     5600.00
04959              -0.60     4800.00
04960              -0.40     4400.00
04961               0.20     4200.00
04962              -0.60     3800.00
04963              -0.40     3200.00
04964               0.20     2800.00
04965              -0.60     2400.00
04966              -0.40     2000.00
04967               0.20     1600.00
04968              -0.40     1200.00
04969              -0.60      800.00
04970               0.20      400.00
04971              -0.40     -200.00
04972               0.00     -400.00
04973               2.20     -800.00
04974               2.40    -1200.00
04975              -2.80    -1600.00
04976              -0.40    -2000.00
04977               2.60    -2400.00
04978              -0.60    -2800.00
04979              -1.40    -3200.00
04980               9.80    -3400.00
04981              25.00    -4200.00
04982             -10.60    -4800.00
04983             -25.00    -5200.00
04984              13.20    -5600.00
04985              25.00    -6000.00
04986             -25.00    -6000.00
04987              -6.00    -6000.00
04988              25.00    -7200.00
04989             -25.00    -7200.00
04990             -25.00    -7600.00
04991              25.00    -8600.00
04992             -23.60    -8400.00
04993             -25.00    -9000.00
04994              25.00    -9600.00
04995             -17.20    -9400.00
04996             -25.00   -10000.00
04997              25.00   -10400.00
04998               4.20   -10800.00
04999              -5.40   -11400.00
05000             -25.00   -11400.00
