Unit:(mV)
                     CH1         CH2
Frequency              ? 303.195 kHz
00001               0.40     9200.00
00002               0.40     8800.00
00003              -2.60     8400.00
00004              -1.00     8000.00
00005               0.60     7600.00
00006              -1.40     7200.00
00007              -1.80     6800.00
00008               0.40     6400.00
00009              -1.00     6000.00
00010              -1.40     5400.00
00011              -0.40     5200.00
00012               0.20     4600.00
00013              -1.00     4000.00
00014              -0.60     3800.00
00015              -0.20     3200.00
00016              -0.40     2800.00
00017              -1.20     2400.00
00018              -0.60     2200.00
00019              -0.20     1600.00
00020              -1.00     1200.00
00021              -0.60      800.00
00022               0.40      400.00
00023              -0.20     -200.00
00024              -0.20     -400.00
00025               1.80     -800.00
00026               3.20    -1400.00
00027              -2.60    -1600.00
00028              -1.20    -1800.00
00029               2.60    -2400.00
00030              -0.60    -2800.00
00031              -1.80    -3200.00
00032               8.40    -3400.00
00033              25.00    -4200.00
00034              -0.40    -4800.00
00035             -25.00    -5200.00
00036               3.40    -5600.00
00037              25.00    -6000.00
00038             -25.00    -6000.00
00039             -25.00    -6200.00
00040              25.00    -7000.00
00041             -20.40    -7200.00
00042             -25.00    -7600.00
00043              25.00    -8600.00
00044              18.60    -8400.00
00045             -25.00    -8800.00
00046              25.00    -9400.00
00047              17.00    -9400.00
00048             -25.00   -10000.00
00049              22.00   -10600.00
00050              12.40   -10800.00
00051              13.20   -11400.00
00052             -25.00   -11600.00
00053               4.20   -12200.00
00054              25.00   -12400.00
00055             -25.00   -12600.00
00056              -2.60   -13200.00
00057              25.00   -13200.00
00058              -9.20   -14000.00
00059             -25.00   -14400.00
00060              10.60   -14600.00
00061              25.00   -14800.00
00062             -25.00   -15000.00
00063               3.00   -15600.00
00064              25.00   -15600.00
00065             -25.00   -16000.00
00066              -8.60   -16600.00
00067              18.60   -16800.00
00068              -3.80   -17000.00
00069             -13.00   -17200.00
00070              12.40   -17600.00
00071               7.80   -17800.00
00072             -12.00   -18000.00
00073               2.80   -18400.00
00074               5.80   -18800.00
00075              -6.60   -18800.00
00076              -2.60   -19200.00
00077               8.60   -19200.00
00078              -0.40   -19600.00
00079              -2.80   -19600.00
00080               2.80   -20000.00
00081               0.40   -20200.00
00082              -2.20   -20400.00
00083              -2.80   -20400.00
00084               7.00   -20800.00
00085               0.20   -20800.00
00086              -3.40   -21000.00
00087               5.80   -21000.00
00088              -1.20   -21200.00
00089              -3.80   -21600.00
00090               2.60   -21600.00
00091               3.00   -21600.00
00092              -2.00   -21800.00
00093               0.60   -22000.00
00094               4.60   -22000.00
00095              -2.80   -22000.00
00096              -2.20   -22400.00
00097               3.00   -22400.00
00098               0.20   -22200.00
00099              -0.60   -22400.00
00100               2.00   -22400.00
00101               1.60   -22400.00
00102              -0.60   -22400.00
00103              -1.40   -22600.00
00104               2.20   -22400.00
00105               0.20   -22600.00
00106              -1.20   -22400.00
00107               2.40   -22400.00
00108               1.00   -22400.00
00109              -0.60   -22400.00
00110              -0.40   -22400.00
00111               1.20   -22400.00
00112               0.40   -22400.00
00113              -0.60   -22400.00
00114               1.40   -22200.00
00115               0.60   -22200.00
00116              -0.20   -22000.00
00117              -0.40   -22000.00
00118               0.20   -22000.00
00119               0.40   -21800.00
00120              -0.60   -21600.00
00121               1.00   -21600.00
00122               1.00   -21600.00
00123               0.20   -21200.00
00124               0.20   -21200.00
00125               0.40   -21000.00
00126              -0.20   -20800.00
00127              -0.40   -20800.00
00128               0.00   -20600.00
00129               0.20   -20200.00
00130               0.40   -20200.00
00131               0.20   -20000.00
00132              -0.60   -19600.00
00133               0.40   -19600.00
00134               0.60   -19200.00
00135              -0.60   -19200.00
00136               0.40   -18800.00
00137               1.00   -18400.00
00138              -0.60   -18400.00
00139               0.20   -18000.00
00140               0.40   -17800.00
00141              -0.20   -17400.00
00142              -0.60   -17200.00
00143               0.60   -16800.00
00144               0.20   -16800.00
00145               0.20   -16400.00
00146               0.60   -16000.00
00147              -0.60   -15800.00
00148              -0.20   -15600.00
00149               0.20   -15200.00
00150              -0.60   -14800.00
00151               0.20   -14600.00
00152               1.00   -14400.00
00153              -0.20   -13800.00
00154              -0.40   -13600.00
00155               0.20   -13200.00
00156              -0.40   -12800.00
00157              -0.60   -12400.00
00158               0.40   -12000.00
00159               0.40   -11800.00
00160              -1.40   -11200.00
00161               0.40   -11000.00
00162               0.80   -10400.00
00163              -1.20   -10200.00
00164              -0.20    -9800.00
00165               1.00    -9600.00
00166              -0.60    -9200.00
00167              -1.20    -8800.00
00168               1.20    -8400.00
00169              -0.20    -8000.00
00170              -1.80    -7400.00
00171               0.20    -7000.00
00172               0.40    -6600.00
00173              -1.40    -6200.00
00174               0.20    -5800.00
00175               0.40    -5400.00
00176              -1.20    -5000.00
00177              -0.20    -4400.00
00178               0.20    -4200.00
00179              -1.40    -3800.00
00180               0.20    -3400.00
00181              -0.40    -2800.00
00182              -1.40    -2600.00
00183              -0.60    -2000.00
00184              -0.20    -1800.00
00185              -0.20    -1200.00
00186              -0.40     -800.00
00187               0.40     -400.00
00188               0.40        0.00
00189              -0.20      400.00
00190               2.20      800.00
00191               0.60     1200.00
00192              -4.40     1800.00
00193              -1.00     2000.00
00194               2.20     2400.00
00195              -0.60     2800.00
00196              -1.80     3200.00
00197               7.80     3600.00
00198              15.60     4000.00
00199              20.60     4800.00
00200             -25.00     5200.00
00201             -25.00     5400.00
00202              20.00     6000.00
00203              15.00     6200.00
00204             -25.00     6400.00
00205             -11.60     6800.00
00206              25.00     7600.00
00207               1.20     7800.00
00208             -25.00     8200.00
00209              25.00     8400.00
00210              25.00     8800.00
00211             -25.00     9200.00
00212              25.00     9600.00
00213              25.00    10000.00
00214             -25.00    10400.00
00215              -0.60    10800.00
00216              25.00    11000.00
00217              -8.60    11600.00
00218             -25.00    12000.00
00219              13.40    12400.00
00220              25.00    12600.00
00221             -25.00    13200.00
00222              -7.60    13600.00
00223              25.00    13600.00
00224              -5.20    14200.00
00225             -25.00    14600.00
00226               9.00    14800.00
00227              17.40    15200.00
00228             -20.40    15600.00
00229              -2.20    15600.00
00230              21.40    16000.00
00231             -13.20    16400.00
00232             -12.60    16600.00
00233              15.40    16800.00
00234              -1.80    17200.00
00235             -13.40    17200.00
00236              10.20    17800.00
00237               5.60    18000.00
00238             -11.80    18400.00
00239              -0.60    18400.00
00240               5.80    18800.00
00241              -8.00    19200.00
00242              -2.80    19400.00
00243               7.40    19600.00
00244              -3.00    19600.00
00245              -3.60    20000.00
00246               2.80    20000.00
00247              -2.00    20400.00
00248              -4.60    20400.00
00249              -0.20    20600.00
00250               2.20    20800.00
00251              -3.40    21000.00
00252              -1.80    21200.00
00253               2.00    21200.00
00254              -3.80    21400.00
00255              -4.20    21600.00
00256               2.60    21600.00
00257               1.00    21600.00
00258              -3.80    22000.00
00259              -1.40    22000.00
00260               1.80    22000.00
00261              -3.40    22200.00
00262              -3.60    22200.00
00263               1.20    22400.00
00264              -0.60    22400.00
00265              -1.80    22400.00
00266              -0.20    22200.00
00267               0.20    22400.00
00268              -3.40    22400.00
00269              -2.80    22400.00
00270               0.60    22400.00
00271              -1.60    22400.00
00272              -2.60    22400.00
00273               1.40    22400.00
00274               0.20    22400.00
00275              -3.00    22400.00
00276              -0.60    22200.00
00277               0.40    22400.00
00278              -3.00    22200.00
00279              -1.40    22400.00
00280               1.20    22000.00
00281              -1.80    22000.00
00282              -1.40    22000.00
00283              -0.60    21800.00
00284              -1.40    22000.00
00285              -1.20    21600.00
00286              -0.40    21600.00
00287              -0.60    21400.00
00288              -1.20    21200.00
00289              -1.00    21200.00
00290              -1.00    20800.00
00291              -1.80    20800.00
00292              -0.60    20600.00
00293              -1.40    20400.00
00294              -0.20    20200.00
00295               0.60    20000.00
00296              -2.00    19800.00
00297              -1.80    19600.00
00298               0.00    19400.00
00299              -2.00    19200.00
00300              -1.80    19000.00
00301               0.20    18800.00
00302              -0.40    18600.00
00303              -1.80    18400.00
00304               0.20    18000.00
00305              -0.40    17800.00
00306              -2.60    17400.00
00307              -0.60    17200.00
00308              -0.40    16800.00
00309              -1.40    16600.00
00310              -0.40    16400.00
00311              -0.60    16000.00
00312              -1.40    15800.00
00313              -1.40    15600.00
00314              -1.00    15200.00
00315              -1.00    15000.00
00316              -1.00    14400.00
00317              -0.60    14000.00
00318              -1.00    13600.00
00319              -1.20    13400.00
00320              -0.40    13200.00
00321              -1.20    12800.00
00322              -1.20    12400.00
00323              -0.40    12000.00
00324              -0.60    11800.00
00325              -1.00    11200.00
00326              -0.60    10800.00
00327              -0.60    10400.00
00328              -1.20    10200.00
00329              -1.00     9800.00
00330              -0.60     9400.00
00331              -1.00     9200.00
00332              -1.20     8600.00
00333              -0.60     8400.00
00334              -0.60     7800.00
00335              -0.60     7400.00
00336              -1.00     7000.00
00337              -0.40     6800.00
00338              -0.80     6200.00
00339              -0.60     5600.00
00340              -0.40     5600.00
00341              -0.60     4800.00
00342              -0.80     4400.00
00343              -0.60     4000.00
00344              -0.60     3600.00
00345              -0.80     3200.00
00346              -0.20     2800.00
00347              -0.40     2400.00
00348              -0.60     2000.00
00349              -0.20     1600.00
00350              -0.40     1200.00
00351              -0.60      800.00
00352              -0.40      400.00
00353              -0.20        0.00
00354               0.20     -600.00
00355               2.40     -800.00
00356               2.20    -1400.00
00357              -3.00    -1600.00
00358              -0.40    -2000.00
00359               2.60    -2400.00
00360              -1.40    -2800.00
00361              -1.20    -3200.00
00362              11.00    -3600.00
00363              25.00    -4200.00
00364             -16.40    -4800.00
00365             -25.00    -5400.00
00366              18.00    -5800.00
00367              25.00    -6000.00
00368             -25.00    -6200.00
00369              -2.60    -6000.00
00370              25.00    -7200.00
00371             -25.00    -7200.00
00372             -25.00    -7600.00
00373              25.00    -8800.00
00374             -25.00    -8600.00
00375             -25.00    -9200.00
00376              25.00    -9600.00
00377             -16.60    -9400.00
00378             -25.00   -10400.00
00379              23.80   -10400.00
00380               9.80   -10800.00
00381               9.80   -11600.00
00382             -25.00   -11600.00
00383              20.20   -12200.00
00384              25.00   -12400.00
00385             -25.00   -12600.00
00386               9.40   -13200.00
00387              25.00   -13600.00
00388             -15.00   -14000.00
00389             -25.00   -14400.00
00390              19.80   -14600.00
00391              21.20   -14800.00
00392             -25.00   -15200.00
00393              15.00   -15600.00
00394              25.00   -15800.00
00395             -25.00   -16200.00
00396              -1.80   -16600.00
00397              17.00   -16800.00
00398              -7.00   -17000.00
00399             -10.20   -17400.00
00400              15.40   -17400.00
00401               3.40   -17800.00
00402             -12.00   -18000.00
00403               5.20   -18400.00
00404               4.40   -18600.00
00405              -7.60   -18800.00
00406              -0.40   -19200.00
00407               9.00   -19200.00
00408              -2.80   -19600.00
00409              -1.40   -19600.00
00410               3.40   -20000.00
00411              -0.60   -20200.00
00412              -3.00   -20400.00
00413              -0.60   -20400.00
00414               7.60   -20800.00
00415              -2.20   -21000.00
00416              -1.40   -21000.00
00417               6.00   -21200.00
00418              -2.20   -21200.00
00419              -3.00   -21600.00
00420               2.80   -21600.00
00421               2.80   -21800.00
00422              -2.80   -21800.00
00423               1.00   -22000.00
00424               4.40   -22000.00
00425              -2.40   -22000.00
00426              -2.00   -22200.00
00427               3.00   -22400.00
00428               0.20   -22400.00
00429              -0.40   -22400.00
00430               1.40   -22400.00
00431               2.20   -22600.00
00432              -0.60   -22600.00
00433              -2.00   -22400.00
00434               2.80   -22600.00
00435              -0.20   -22400.00
00436              -0.60   -22400.00
00437               1.40   -22400.00
00438               2.20   -22600.00
00439              -1.00   -22600.00
00440              -1.40   -22600.00
00441               2.00   -22400.00
00442               0.60   -22400.00
00443              -1.20   -22400.00
00444               1.80   -22200.00
00445               1.20   -22200.00
00446              -1.00   -22000.00
00447               0.20   -22000.00
00448               1.20   -22000.00
00449              -0.60   -21800.00
00450              -1.20   -21600.00
00451               1.80   -21600.00
00452               0.60   -21400.00
00453              -1.00   -21200.00
00454               0.40   -21200.00
00455               1.00   -21000.00
00456              -0.60   -20800.00
00457              -0.40   -20800.00
00458               1.20   -20400.00
00459               0.60   -20400.00
00460              -0.40   -20000.00
00461               0.60   -20000.00
00462               0.20   -19600.00
00463              -1.00   -19400.00
00464              -0.20   -19200.00
00465               0.60   -19200.00
00466               0.20   -18800.00
00467               0.20   -18400.00
00468               0.40   -18200.00
00469              -0.20   -18000.00
00470              -0.40   -17800.00
00471               0.20   -17400.00
00472               0.00   -17200.00
00473               0.40   -17000.00
00474               0.20   -16400.00
00475               0.20   -16400.00
00476               0.40   -16200.00
00477              -0.20   -16000.00
00478              -0.60   -15400.00
00479               0.20   -15200.00
00480               0.40   -14800.00
00481               0.20   -14400.00
00482               0.40   -14000.00
00483              -0.40   -13800.00
00484               0.20   -13400.00
00485               0.20   -13000.00
00486              -0.60   -12800.00
00487               0.40   -12400.00
00488               0.60   -12200.00
00489              -0.60   -11600.00
00490               0.20   -11400.00
00491               0.40   -11000.00
00492              -0.60   -10600.00
00493              -0.20   -10000.00
00494               1.00    -9600.00
00495              -1.40    -9400.00
00496              -0.40    -8800.00
00497               1.00    -8600.00
00498              -0.80    -8400.00
00499              -1.00    -7800.00
00500               1.00    -7400.00
00501              -0.40    -7000.00
00502              -1.00    -6600.00
00503              -0.40    -6000.00
00504              -0.40    -5800.00
00505              -0.80    -5200.00
00506              -0.20    -5000.00
00507              -0.40    -4400.00
00508              -1.00    -4200.00
00509              -0.20    -3600.00
00510              -1.00    -3400.00
00511              -0.60    -2600.00
00512              -0.20    -2400.00
00513              -1.20    -2000.00
00514              -0.40    -1600.00
00515              -0.60    -1200.00
00516              -0.80     -800.00
00517              -0.60     -400.00
00518               0.40        0.00
00519              -0.40      600.00
00520               2.20      800.00
00521               0.60     1400.00
00522              -3.00     1800.00
00523               1.00     2000.00
00524               2.20     2400.00
00525              -1.60     2800.00
00526              -1.00     3200.00
00527               6.60     3600.00
00528              16.40     4200.00
00529              17.00     4800.00
00530             -25.00     5200.00
00531             -25.00     5600.00
00532              25.00     6000.00
00533               5.40     6400.00
00534             -25.00     6400.00
00535               4.20     7000.00
00536              25.00     7600.00
00537             -25.00     7800.00
00538             -25.00     8200.00
00539              25.00     8600.00
00540               6.60     8800.00
00541             -25.00     9400.00
00542              25.00     9600.00
00543              25.00    10200.00
00544             -25.00    10800.00
00545              11.60    10800.00
00546              25.00    11200.00
00547             -17.20    11600.00
00548             -25.00    12000.00
00549              23.80    12400.00
00550              21.20    12800.00
00551             -25.00    13200.00
00552               0.40    13400.00
00553              25.00    13600.00
00554             -11.80    14200.00
00555             -22.40    14400.00
00556              14.20    14800.00
00557              13.00    15200.00
00558             -22.40    15600.00
00559               4.60    15800.00
00560              18.60    16000.00
00561             -18.80    16400.00
00562              -7.00    16800.00
00563              15.80    17000.00
00564              -6.00    17200.00
00565             -11.80    17400.00
00566              12.40    17800.00
00567               3.20    18000.00
00568             -12.20    18200.00
00569               1.20    18400.00
00570               5.20    18800.00
00571              -8.20    19200.00
00572              -2.20    19200.00
00573               6.80    19600.00
00574              -3.00    19600.00
00575              -3.60    20000.00
00576               1.40    20000.00
00577              -1.20    20400.00
00578              -4.40    20400.00
00579              -1.00    20600.00
00580               3.40    21000.00
00581              -2.80    21000.00
00582              -2.80    21200.00
00583               1.80    21200.00
00584              -1.80    21400.00
00585              -4.20    21600.00
00586               0.20    21600.00
00587               1.40    22000.00
00588              -2.80    21800.00
00589              -1.00    22000.00
00590               1.20    22000.00
00591              -3.40    22000.00
00592              -2.80    22200.00
00593               1.00    22200.00
00594              -1.40    22400.00
00595              -2.20    22400.00
00596              -0.40    22400.00
00597               1.00    22400.00
00598              -2.20    22600.00
00599              -2.80    22400.00
00600               0.80    22400.00
00601              -1.00    22400.00
00602              -2.20    22400.00
00603              -0.20    22400.00
00604               0.00    22200.00
00605              -2.60    22400.00
00606              -1.20    22400.00
00607              -0.20    22200.00
00608              -1.60    22400.00
00609              -1.20    22200.00
00610              -0.40    22000.00
00611              -1.00    22200.00
00612              -1.20    22000.00
00613              -1.20    21800.00
00614              -1.40    22000.00
00615              -0.80    21600.00
00616              -1.20    21400.00
00617              -0.60    21400.00
00618               0.00    21200.00
00619              -1.20    21200.00
00620              -1.00    21000.00
00621              -1.00    20800.00
00622              -1.60    20600.00
00623              -1.40    20400.00
00624               0.20    20200.00
00625              -1.00    20000.00
00626              -1.20    19800.00
00627              -0.40    19600.00
00628              -1.20    19400.00
00629              -1.40    19200.00
00630              -0.60    19000.00
00631              -0.60    18800.00
00632              -1.20    18400.00
00633              -0.60    18200.00
00634              -0.60    18000.00
00635              -1.20    17600.00
00636              -1.80    17400.00
00637              -1.00    17200.00
00638              -0.60    16800.00
00639              -1.40    16600.00
00640              -1.00    16400.00
00641              -0.60    16000.00
00642              -1.20    15600.00
00643              -1.00    15600.00
00644              -1.20    15000.00
00645              -1.00    14800.00
00646              -1.00    14600.00
00647              -0.60    14200.00
00648              -1.00    13800.00
00649              -1.20    13400.00
00650              -1.00    13000.00
00651              -0.80    12800.00
00652              -1.20    12400.00
00653              -1.00    12000.00
00654              -1.20    11600.00
00655              -1.00    11200.00
00656              -0.60    10800.00
00657              -0.60    10600.00
00658              -1.00    10000.00
00659              -1.20     9600.00
00660              -0.40     9200.00
00661              -1.00     8800.00
00662              -0.60     8600.00
00663              -0.60     8200.00
00664              -0.80     7800.00
00665              -0.60     7400.00
00666              -0.80     7000.00
00667              -0.60     6600.00
00668              -0.20     6200.00
00669              -1.20     5600.00
00670              -0.40     5400.00
00671               0.00     4800.00
00672              -1.20     4400.00
00673              -1.00     4000.00
00674               0.20     3600.00
00675              -1.00     3200.00
00676              -0.60     2800.00
00677               0.40     2400.00
00678              -0.40     2000.00
00679              -1.00     1600.00
00680               0.20     1200.00
00681              -0.20      600.00
00682              -1.00      200.00
00683               0.40     -200.00
00684               0.40     -400.00
00685               2.20     -800.00
00686               1.40    -1200.00
00687              -2.40    -1800.00
00688               0.00    -2000.00
00689               2.20    -2600.00
00690              -1.20    -2800.00
00691              -0.20    -3200.00
00692              14.60    -3600.00
00693              25.00    -4400.00
00694             -25.00    -5000.00
00695             -25.00    -5400.00
00696              25.00    -5800.00
00697              17.40    -6000.00
00698             -25.00    -6200.00
00699              25.00    -6400.00
00700              25.00    -7400.00
00701             -25.00    -7200.00
00702              -9.20    -8200.00
00703              25.00    -8800.00
00704             -25.00    -8600.00
00705             -25.00    -9200.00
00706              25.00    -9400.00
00707             -25.00    -9600.00
00708             -17.20   -10400.00
00709              23.60   -10600.00
00710              11.60   -11000.00
00711              -0.60   -11600.00
00712             -25.00   -11600.00
00713              25.00   -12200.00
00714              21.20   -12400.00
00715             -25.00   -12800.00
00716              22.80   -13200.00
00717              25.00   -13600.00
00718             -22.20   -14000.00
00719             -22.00   -14400.00
00720              25.00   -14800.00
00721               8.40   -15000.00
00722             -25.00   -15200.00
00723              25.00   -15600.00
00724              14.60   -15800.00
00725             -25.00   -16200.00
00726               7.00   -16800.00
00727              13.80   -16800.00
00728             -11.80   -17000.00
00729              -4.60   -17200.00
00730              16.60   -17400.00
00731              -2.20   -17800.00
00732              -9.00   -18200.00
00733               6.60   -18400.00
00734               1.20   -18800.00
00735              -7.20   -19000.00
00736               2.20   -19200.00
00737               7.80   -19400.00
00738              -3.40   -19400.00
00739               0.60   -20000.00
00740               2.40   -20000.00
00741              -0.60   -20200.00
00742              -3.00   -20400.00
00743               1.00   -20600.00
00744               6.20   -20800.00
00745              -3.80   -20800.00
00746               1.20   -21000.00
00747               4.40   -21200.00
00748              -3.80   -21200.00
00749              -1.20   -21600.00
00750               3.60   -21600.00
00751               1.40   -21800.00
00752              -2.40   -21800.00
00753               3.40   -22000.00
00754               3.40   -22000.00
00755              -4.40   -22200.00
00756              -0.20   -22200.00
00757               3.60   -22400.00
00758              -1.20   -22400.00
00759              -0.20   -22400.00
00760               2.80   -22400.00
00761               1.00   -22600.00
00762              -2.20   -22600.00
00763               0.60   -22400.00
00764               2.40   -22600.00
00765              -2.20   -22600.00
00766               0.40   -22400.00
00767               3.00   -22600.00
00768               0.20   -22600.00
00769              -1.00   -22400.00
00770               0.40   -22600.00
00771               1.00   -22400.00
00772              -0.60   -22400.00
00773               0.20   -22400.00
00774               1.20   -22200.00
00775               0.40   -22000.00
00776              -0.40   -22200.00
00777              -0.20   -22000.00
00778               1.00   -21800.00
00779              -0.40   -21600.00
00780              -0.60   -21600.00
00781               2.00   -21600.00
00782               0.20   -21200.00
00783              -0.60   -21200.00
00784               1.20   -21000.00
00785               0.40   -21000.00
00786              -1.20   -20800.00
00787               0.20   -20600.00
00788               1.40   -20400.00
00789              -0.40   -20200.00
00790               0.40   -20000.00
00791               1.20   -19800.00
00792              -0.60   -19600.00
00793              -0.60   -19400.00
00794               0.80   -19400.00
00795              -0.20   -19000.00
00796              -0.60   -18800.00
00797               0.80   -18400.00
00798               0.40   -18200.00
00799              -0.60   -18000.00
00800               0.60   -17600.00
00801               0.00   -17400.00
00802              -0.40   -17000.00
00803               0.00   -16800.00
00804               0.80   -16400.00
00805               0.20   -16200.00
00806               0.40   -16000.00
00807              -0.60   -15600.00
00808              -0.20   -15200.00
00809               0.60   -15000.00
00810              -0.60   -14800.00
00811               0.20   -14400.00
00812               0.60   -14000.00
00813               0.20   -13800.00
00814              -0.60   -13200.00
00815               0.20   -13000.00
00816               0.00   -12600.00
00817              -0.60   -12200.00
00818               1.00   -12000.00
00819               0.00   -11600.00
00820              -1.00   -11400.00
00821               0.20   -10800.00
00822               0.20   -10400.00
00823              -0.80   -10000.00
00824               0.20    -9600.00
00825              -0.20    -9200.00
00826              -0.20    -9000.00
00827              -0.40    -8400.00
00828              -0.20    -8200.00
00829              -0.40    -7600.00
00830              -0.40    -7200.00
00831               0.20    -7200.00
00832              -0.20    -6400.00
00833              -0.60    -6200.00
00834               0.40    -5800.00
00835              -1.20    -5400.00
00836              -1.20    -4800.00
00837              -0.20    -4400.00
00838              -0.60    -4000.00
00839              -1.20    -3600.00
00840               0.20    -3200.00
00841              -0.20    -2800.00
00842              -0.40    -2400.00
00843              -1.00    -2000.00
00844              -0.40    -1600.00
00845              -0.80    -1200.00
00846              -1.00     -600.00
00847              -0.40     -200.00
00848               0.20      200.00
00849               0.20      600.00
00850               3.00      800.00
00851              -0.20     1400.00
00852              -2.80     1800.00
00853               1.00     2000.00
00854               2.00     2600.00
00855              -2.60     2800.00
00856               0.20     3200.00
00857               7.80     3600.00
00858              19.00     4400.00
00859              10.00     4800.00
00860             -25.00     5400.00
00861             -18.80     5600.00
00862              25.00     6200.00
00863              -6.00     6400.00
00864             -25.00     6600.00
00865              21.80     7000.00
00866              25.00     7800.00
00867             -25.00     7800.00
00868             -25.00     8400.00
00869              25.00     8600.00
00870             -25.00     9000.00
00871             -25.00     9400.00
00872              25.00     9800.00
00873               7.00    10200.00
00874             -25.00    10800.00
00875              23.60    10800.00
00876              25.00    11200.00
00877             -25.00    11600.00
00878             -25.00    12200.00
00879              25.00    12600.00
00880              10.80    12800.00
00881             -25.00    13400.00
00882               8.60    13600.00
00883              23.00    14000.00
00884             -18.20    14400.00
00885             -18.40    14600.00
00886              19.40    15000.00
00887               5.80    15200.00
00888             -22.60    15600.00
00889              12.00    15800.00
00890              13.40    16000.00
00891             -22.00    16200.00
00892              -0.40    16600.00
00893              14.20    16800.00
00894             -10.80    17200.00
00895              -7.40    17600.00
00896              13.40    17800.00
00897              -1.60    18200.00
00898             -11.60    18400.00
00899               4.40    18600.00
00900               2.60    18800.00
00901              -8.40    19000.00
00902               0.40    19200.00
00903               5.80    19600.00
00904              -4.20    19600.00
00905              -2.80    19800.00
00906               1.40    20000.00
00907              -2.20    20400.00
00908              -4.20    20600.00
00909               0.60    20600.00
00910               2.80    20800.00
00911              -3.80    21000.00
00912              -1.20    21200.00
00913               1.80    21200.00
00914              -3.40    21400.00
00915              -3.80    21400.00
00916               1.20    21600.00
00917               0.60    21800.00
00918              -3.40    22000.00
00919              -0.40    22000.00
00920               1.00    22000.00
00921              -3.60    22000.00
00922              -2.20    22200.00
00923               1.80    22200.00
00924              -1.60    22400.00
00925              -2.20    22400.00
00926               0.40    22200.00
00927               0.20    22400.00
00928              -3.40    22400.00
00929              -1.80    22400.00
00930               0.40    22400.00
00931              -2.00    22400.00
00932              -1.40    22400.00
00933               0.40    22400.00
00934              -0.80    22400.00
00935              -2.20    22400.00
00936              -1.00    22400.00
00937              -0.40    22200.00
00938              -1.40    22400.00
00939              -0.80    22200.00
00940              -0.20    22000.00
00941              -1.00    22000.00
00942              -1.20    21800.00
00943              -1.20    21800.00
00944              -1.00    21600.00
00945              -1.00    21600.00
00946              -1.20    21400.00
00947              -0.60    21200.00
00948              -0.60    21400.00
00949              -1.00    20800.00
00950              -0.60    21000.00
00951              -1.00    20800.00
00952              -1.40    20600.00
00953              -1.00    20400.00
00954              -0.20    20000.00
00955              -1.00    20000.00
00956              -1.20    19800.00
00957              -0.60    19600.00
00958              -1.00    19400.00
00959              -1.20    19200.00
00960              -1.20    18800.00
00961              -0.80    18800.00
00962              -1.00    18600.00
00963              -1.00    18200.00
00964              -0.60    17800.00
00965              -1.20    17600.00
00966              -1.80    17400.00
00967              -0.60    17200.00
00968              -1.00    16800.00
00969              -1.00    16400.00
00970              -1.00    16200.00
00971              -0.60    16000.00
00972              -0.60    15600.00
00973              -1.40    15200.00
00974              -1.40    15000.00
00975              -0.60    14600.00
00976              -1.00    14400.00
00977              -1.20    14000.00
00978              -0.80    13600.00
00979              -0.60    13400.00
00980              -1.40    13000.00
00981              -1.00    12800.00
00982              -0.20    12000.00
00983              -1.40    12000.00
00984              -1.20    11600.00
00985              -0.40    11200.00
00986              -1.20    10800.00
00987              -1.00    10400.00
00988              -0.80    10000.00
00989              -1.00     9600.00
00990              -0.40     9200.00
00991              -0.60     8800.00
00992              -0.60     8600.00
00993              -0.60     8200.00
00994              -1.00     7800.00
00995              -1.00     7200.00
00996              -0.60     6800.00
00997              -0.60     6600.00
00998              -0.80     6000.00
00999              -1.00     5600.00
01000              -0.20     5200.00
01001              -0.40     4800.00
01002              -1.00     4400.00
01003              -0.40     3800.00
01004              -0.40     3600.00
01005              -0.80     3000.00
01006              -0.60     2800.00
01007              -0.40     2400.00
01008              -0.60     2000.00
01009              -0.60     1600.00
01010              -0.40     1000.00
01011              -0.40      600.00
01012              -0.40      200.00
01013               0.00     -200.00
01014               0.60     -800.00
01015               3.00    -1000.00
01016              -0.40    -1200.00
01017              -2.20    -1800.00
01018               1.20    -2000.00
01019               1.40    -2600.00
01020              -1.80    -2800.00
01021               1.80    -3400.00
01022              18.20    -3800.00
01023              25.00    -4600.00
01024             -25.00    -5200.00
01025             -25.00    -5600.00
01026              25.00    -5800.00
01027               3.60    -6200.00
01028             -25.00    -6200.00
01029              25.00    -6400.00
01030              25.00    -7400.00
01031             -25.00    -7200.00
01032              25.00    -8000.00
01033              25.00    -8600.00
01034             -25.00    -8600.00
01035               0.80    -9400.00
01036              25.00    -9400.00
01037             -25.00    -9800.00
01038              -1.40   -10600.00
01039              21.00   -10600.00
01040              13.00   -11200.00
01041             -12.40   -11600.00
01042             -25.00   -11600.00
01043              25.00   -12400.00
01044               1.00   -12400.00
01045             -25.00   -13000.00
01046              25.00   -13200.00
01047              15.60   -13600.00
01048             -25.00   -14200.00
01049             -15.20   -14400.00
01050              25.00   -14800.00
01051              -4.60   -15000.00
01052             -25.00   -15200.00
01053              25.00   -15600.00
01054               2.80   -15800.00
01055             -25.00   -16200.00
01056              12.40   -16800.00
01057              10.20   -16800.00
01058             -14.80   -17000.00
01059               0.40   -17400.00
01060              16.40   -17800.00
01061              -7.00   -17800.00
01062              -6.00   -18200.00
01063               8.40   -18600.00
01064              -1.40   -18800.00
01065              -7.00   -19000.00
01066               5.40   -19200.00
01067               6.00   -19400.00
01068              -4.40   -19600.00
01069               1.60   -19800.00
01070               2.00   -20000.00
01071              -1.20   -20200.00
01072              -3.80   -20400.00
01073               2.80   -20800.00
01074               5.40   -20600.00
01075              -5.00   -21000.00
01076               3.00   -21000.00
01077               3.00   -21200.00
01078              -4.60   -21600.00
01079              -0.40   -21600.00
01080               3.80   -21600.00
01081               0.40   -21800.00
01082              -2.20   -21800.00
01083               4.20   -22000.00
01084               1.80   -22200.00
01085              -4.40   -22000.00
01086               1.00   -22400.00
01087               3.40   -22400.00
01088              -2.00   -22400.00
01089               0.20   -22400.00
01090               3.60   -22600.00
01091              -0.20   -22400.00
01092              -2.80   -22600.00
01093               2.00   -22600.00
01094               2.00   -22600.00
01095              -2.60   -22400.00
01096               1.20   -22600.00
01097               2.80   -22600.00
01098              -1.20   -22600.00
01099              -0.60   -22400.00
01100               0.60   -22600.00
01101               1.00   -22400.00
01102              -0.80   -22400.00
01103               0.60   -22200.00
01104               1.20   -22400.00
01105               0.20   -22000.00
01106              -0.20   -22000.00
01107               0.20   -22000.00
01108               1.00   -22000.00
01109              -0.40   -21600.00
01110              -0.40   -21600.00
01111               2.00   -21600.00
01112               0.40   -21200.00
01113              -0.60   -21200.00
01114               0.60   -21000.00
01115               0.40   -21000.00
01116              -0.80   -20800.00
01117               0.00   -20400.00
01118               1.00   -20400.00
01119              -0.20   -20200.00
01120               0.40   -20000.00
01121               1.00   -19800.00
01122              -0.40   -19400.00
01123              -0.20   -19400.00
01124               1.00   -19200.00
01125               0.40   -19000.00
01126               0.20   -18600.00
01127               0.40   -18400.00
01128               0.40   -18200.00
01129              -0.60   -18000.00
01130               0.40   -17600.00
01131              -0.20   -17400.00
01132              -0.40   -17000.00
01133               1.20   -16800.00
01134               0.40   -16400.00
01135              -0.40   -16200.00
01136               0.40   -15800.00
01137               0.00   -15600.00
01138              -0.20   -15400.00
01139               0.20   -15000.00
01140               0.40   -14800.00
01141               0.20   -14400.00
01142               0.20   -14000.00
01143               0.20   -13800.00
01144              -0.60   -13200.00
01145              -0.40   -13000.00
01146               0.40   -12600.00
01147              -0.20   -12200.00
01148               0.20   -12000.00
01149              -0.60   -11400.00
01150               0.00   -11200.00
01151               0.20   -10600.00
01152              -0.40   -10600.00
01153              -0.20   -10000.00
01154               0.20    -9600.00
01155              -0.60    -9200.00
01156               0.20    -9000.00
01157              -0.60    -8800.00
01158              -0.40    -8200.00
01159              -0.60    -7600.00
01160              -0.40    -7200.00
01161              -0.20    -6800.00
01162              -0.20    -6400.00
01163              -0.60    -6000.00
01164               0.40    -5600.00
01165              -1.20    -5200.00
01166              -0.40    -4800.00
01167              -0.20    -4400.00
01168              -0.60    -4000.00
01169              -1.20    -3600.00
01170               0.20    -3200.00
01171              -0.20    -2800.00
01172              -0.40    -2400.00
01173              -0.60    -2000.00
01174              -0.40    -1600.00
01175              -0.60    -1000.00
01176              -0.60     -600.00
01177              -0.40        0.00
01178               0.20      400.00
01179               0.20      600.00
01180               3.60     1000.00
01181              -1.40     1400.00
01182              -2.20     1800.00
01183               2.20     2200.00
01184               1.20     2400.00
01185              -2.80     3000.00
01186               1.80     3200.00
01187               9.00     3600.00
01188              22.00     4400.00
01189               0.40     5000.00
01190             -25.00     5400.00
01191              -6.80     5600.00
01192              25.00     6200.00
01193             -19.00     6400.00
01194             -25.00     6600.00
01195              25.00     7400.00
01196              25.00     7800.00
01197             -25.00     8000.00
01198              -6.80     8400.00
01199              25.00     8600.00
01200             -25.00     9000.00
01201             -25.00     9600.00
01202              25.00    10000.00
01203             -16.60    10400.00
01204             -25.00    10800.00
01205              25.00    11000.00
01206              18.00    11200.00
01207             -25.00    11800.00
01208             -15.80    12000.00
01209              25.00    12600.00
01210              -1.20    13000.00
01211             -25.00    13200.00
01212              16.20    13600.00
01213              17.20    14000.00
01214             -22.60    14200.00
01215             -13.00    14600.00
01216              23.40    15000.00
01217              -1.80    15600.00
01218             -20.40    15600.00
01219              17.80    15800.00
01220               6.80    16000.00
01221             -22.80    16400.00
01222               5.00    16800.00
01223              11.60    16800.00
01224             -14.00    17400.00
01225              -2.80    17600.00
01226              13.80    18000.00
01227              -5.40    18200.00
01228             -10.00    18400.00
01229               6.20    18600.00
01230               0.20    18800.00
01231              -8.60    19200.00
01232               2.60    19400.00
01233               4.60    19600.00
01234              -4.40    19800.00
01235              -2.00    20000.00
01236               1.40    20200.00
01237              -2.40    20200.00
01238              -4.60    20600.00
01239               1.40    20600.00
01240               2.60    20800.00
01241              -4.60    21200.00
01242              -0.20    21200.00
01243               1.80    21200.00
01244              -4.20    21600.00
01245              -2.80    21600.00
01246               2.00    21800.00
01247              -0.20    21800.00
01248              -3.60    22000.00
01249               0.60    22200.00
01250               0.60    22200.00
01251              -4.20    22200.00
01252              -1.80    22400.00
01253               1.40    22400.00
01254              -2.00    22400.00
01255              -2.20    22400.00
01256               1.00    22200.00
01257              -0.40    22400.00
01258              -3.60    22400.00
01259              -1.20    22400.00
01260               1.00    22400.00
01261              -2.00    22600.00
01262              -1.40    22400.00
01263               1.00    22400.00
01264              -0.60    22400.00
01265              -2.20    22400.00
01266              -0.60    22400.00
01267               0.20    22200.00
01268              -2.20    22200.00
01269              -1.00    22200.00
01270               0.40    22000.00
01271              -1.40    22200.00
01272              -1.60    22000.00
01273              -1.00    21800.00
01274              -0.60    21600.00
01275              -1.20    21600.00
01276              -1.20    21400.00
01277              -0.60    21200.00
01278              -0.60    21200.00
01279              -1.20    21000.00
01280              -1.00    20800.00
01281              -0.60    20800.00
01282              -1.40    20400.00
01283              -1.20    20400.00
01284               0.20    20000.00
01285              -1.20    20000.00
01286              -1.80    19600.00
01287               0.20    19600.00
01288              -1.80    19200.00
01289              -2.20    19200.00
01290              -0.60    18800.00
01291              -0.60    18800.00
01292              -1.80    18400.00
01293              -0.60    18200.00
01294              -0.40    18000.00
01295              -1.20    17600.00
01296              -1.20    17200.00
01297              -0.60    17000.00
01298              -1.20    16800.00
01299              -1.20    16400.00
01300              -1.00    16000.00
01301              -1.20    15800.00
01302              -0.80    15600.00
01303              -1.20    15200.00
01304              -1.40    15000.00
01305              -0.40    14800.00
01306              -0.60    14200.00
01307              -1.00    14000.00
01308              -0.60    13600.00
01309              -0.60    13400.00
01310              -1.20    12800.00
01311              -1.00    12600.00
01312              -0.60    12400.00
01313              -1.00    11800.00
01314              -1.00    11600.00
01315              -0.20    11000.00
01316              -0.80    10800.00
01317              -0.80    10200.00
01318              -0.60    10000.00
01319              -1.00     9600.00
01320              -0.60     9200.00
01321              -0.60     8800.00
01322              -1.20     8400.00
01323              -0.60     8000.00
01324              -0.20     7800.00
01325              -0.20     7200.00
01326              -0.80     6800.00
01327              -0.40     6400.00
01328              -0.40     6000.00
01329              -1.00     5800.00
01330              -0.40     5200.00
01331              -0.20     4600.00
01332              -1.20     4400.00
01333              -0.60     3800.00
01334               0.20     3600.00
01335              -0.40     3000.00
01336              -1.00     2600.00
01337              -0.20     2200.00
01338              -0.20     1800.00
01339              -0.80     1400.00
01340              -0.40     1000.00
01341              -0.20      400.00
01342              -0.60        0.00
01343               0.20     -200.00
01344               0.80     -800.00
01345               3.40    -1000.00
01346              -1.20    -1600.00
01347              -2.20    -2000.00
01348               1.80    -2200.00
01349               1.00    -2600.00
01350              -2.80    -2800.00
01351               3.60    -3200.00
01352              22.80    -3800.00
01353              21.80    -4800.00
01354             -25.00    -5200.00
01355             -21.40    -5600.00
01356              25.00    -6000.00
01357             -12.60    -6000.00
01358             -25.00    -6000.00
01359              25.00    -6600.00
01360              25.00    -7400.00
01361             -25.00    -7200.00
01362              25.00    -8400.00
01363              25.00    -8800.00
01364             -25.00    -8800.00
01365              25.00    -9600.00
01366              25.00    -9400.00
01367             -25.00    -9800.00
01368              10.80   -10600.00
01369              17.20   -10600.00
01370              14.60   -11400.00
01371             -25.00   -11600.00
01372             -25.00   -11600.00
01373              25.00   -12400.00
01374             -19.00   -12600.00
01375             -25.00   -13000.00
01376              25.00   -13200.00
01377               6.20   -13800.00
01378             -25.00   -14200.00
01379              -6.80   -14400.00
01380              25.00   -14800.00
01381             -17.80   -15000.00
01382             -19.60   -15400.00
01383              25.00   -15600.00
01384              -8.80   -16000.00
01385             -21.40   -16400.00
01386              16.20   -16800.00
01387               5.80   -16800.00
01388             -15.00   -17200.00
01389               4.60   -17200.00
01390              15.00   -17600.00
01391             -10.00   -18000.00
01392              -3.60   -18400.00
01393               8.40   -18600.00
01394              -3.40   -18800.00
01395              -6.20   -19200.00
01396               7.40   -19200.00
01397               3.80   -19600.00
01398              -4.60   -19600.00
01399               3.00   -20000.00
01400               1.00   -20000.00
01401              -1.80   -20400.00
01402              -3.40   -20400.00
01403               5.00   -20600.00
01404               3.60   -20800.00
01405              -4.60   -21000.00
01406               4.60   -21000.00
01407               1.40   -21200.00
01408              -4.20   -21200.00
01409               0.40   -21600.00
01410               3.60   -21600.00
01411              -0.20   -21800.00
01412              -1.80   -21800.00
01413               4.40   -22000.00
01414               0.60   -22000.00
01415              -4.40   -22000.00
01416               2.00   -22400.00
01417               2.60   -22400.00
01418              -1.80   -22400.00
01419               1.00   -22400.00
01420               2.80   -22400.00
01421              -0.60   -22400.00
01422              -2.60   -22400.00
01423               2.00   -22400.00
01424               1.00   -22600.00
01425              -2.40   -22600.00
01426               2.60   -22400.00
01427               1.80   -22600.00
01428              -1.20   -22600.00
01429              -0.20   -22400.00
01430               1.00   -22400.00
01431              -0.40   -22400.00
01432               0.20   -22400.00
01433               1.20   -22400.00
01434               0.40   -22400.00
01435               0.20   -22000.00
01436               0.80   -22000.00
01437              -1.00   -22000.00
01438               1.00   -21800.00
01439              -0.20   -21800.00
01440              -0.60   -21600.00
01441               1.40   -21400.00
01442               0.40   -21200.00
01443              -0.40   -21200.00
01444               0.40   -21000.00
01445               0.60   -21000.00
01446              -0.40   -20800.00
01447               0.20   -20600.00
01448               1.20   -20400.00
01449              -0.20   -20000.00
01450               0.40   -20000.00
01451               1.00   -19600.00
01452              -0.80   -19600.00
01453               0.20   -19400.00
01454               0.60   -19200.00
01455               0.40   -19000.00
01456               0.40   -18600.00
01457               0.40   -18400.00
01458               0.80   -18400.00
01459              -0.40   -18000.00
01460              -0.20   -17400.00
01461               0.20   -17200.00
01462               0.00   -17000.00
01463               0.40   -16800.00
01464               0.40   -16400.00
01465               0.40   -16400.00
01466               0.20   -16000.00
01467              -0.20   -15600.00
01468              -0.20   -15400.00
01469              -0.20   -14800.00
01470               0.40   -14600.00
01471              -0.20   -14400.00
01472               0.20   -14000.00
01473               0.40   -13600.00
01474              -0.40   -13200.00
01475              -0.20   -12800.00
01476               0.40   -12400.00
01477              -0.40   -12200.00
01478               0.20   -12000.00
01479               0.20   -11400.00
01480               0.00   -11000.00
01481              -0.20   -10600.00
01482              -0.60   -10400.00
01483               0.20   -10000.00
01484              -0.40    -9600.00
01485              -0.60    -9200.00
01486               0.40    -8800.00
01487              -0.40    -8400.00
01488              -0.60    -8000.00
01489              -0.40    -7600.00
01490              -0.20    -7200.00
01491              -1.00    -6800.00
01492              -0.40    -6400.00
01493              -0.20    -6000.00
01494              -0.20    -5600.00
01495              -1.00    -5000.00
01496               0.20    -4600.00
01497              -0.60    -4400.00
01498              -0.60    -4000.00
01499              -0.40    -3400.00
01500              -0.60    -3000.00
01501              -0.60    -2800.00
01502              -0.20    -2000.00
01503              -0.60    -1800.00
01504              -1.00    -1400.00
01505              -0.40     -800.00
01506              -1.20     -400.00
01507              -0.40     -200.00
01508               0.60      400.00
01509               1.20      800.00
01510               2.80     1200.00
01511              -2.00     1600.00
01512              -1.80     2000.00
01513               2.40     2200.00
01514               0.40     2600.00
01515              -3.00     3000.00
01516               3.40     3400.00
01517              10.60     3800.00
01518              23.40     4400.00
01519             -10.20     5000.00
01520             -25.00     5400.00
01521               5.00     5800.00
01522              25.00     6200.00
01523             -25.00     6400.00
01524             -25.00     6800.00
01525              25.00     7400.00
01526              25.00     7800.00
01527             -25.00     8000.00
01528              25.00     8400.00
01529              25.00     8600.00
01530             -25.00     9200.00
01531              -9.80     9600.00
01532              25.00    10000.00
01533             -25.00    10400.00
01534             -25.00    10800.00
01535              25.00    11000.00
01536               7.60    11400.00
01537             -25.00    11800.00
01538              -4.40    12000.00
01539              25.00    12800.00
01540             -13.00    13000.00
01541             -22.20    13400.00
01542              22.00    13600.00
01543               9.20    14000.00
01544             -24.80    14200.00
01545              -5.80    14800.00
01546              23.40    15000.00
01547              -9.00    15400.00
01548             -15.60    15600.00
01549              20.60    15800.00
01550              -0.40    16000.00
01551             -21.20    16400.00
01552               9.00    16800.00
01553               7.80    17000.00
01554             -15.60    17400.00
01555               1.80    17600.00
01556              12.40    18000.00
01557              -8.60    18200.00
01558              -7.60    18400.00
01559               7.40    18800.00
01560              -3.00    18800.00
01561              -7.40    19200.00
01562               4.60    19400.00
01563               2.20    19600.00
01564              -5.20    19800.00
01565              -0.60    20000.00
01566               1.00    20400.00
01567              -3.40    20400.00
01568              -3.60    20600.00
01569               2.60    21000.00
01570               1.00    20800.00
01571              -4.60    21000.00
01572               0.40    21200.00
01573               0.60    21400.00
01574              -4.40    21600.00
01575              -1.40    21600.00
01576               2.00    21800.00
01577              -1.20    21600.00
01578              -2.80    22000.00
01579               1.00    22000.00
01580              -1.00    22000.00
01581              -4.20    22200.00
01582              -1.00    22200.00
01583               0.60    22400.00
01584              -2.20    22400.00
01585              -1.20    22400.00
01586               1.20    22400.00
01587              -1.00    22400.00
01588              -3.00    22600.00
01589              -0.20    22400.00
01590              -0.20    22400.00
01591              -2.60    22400.00
01592              -0.40    22400.00
01593               0.20    22400.00
01594              -1.40    22400.00
01595              -1.40    22400.00
01596              -0.40    22400.00
01597              -1.20    22200.00
01598              -2.00    22400.00
01599               0.20    22200.00
01600              -0.60    22000.00
01601              -1.20    22000.00
01602              -0.60    22000.00
01603              -1.40    21800.00
01604              -1.00    21600.00
01605              -1.00    21600.00
01606              -1.40    21400.00
01607              -0.40    21200.00
01608              -0.40    21200.00
01609              -1.40    20800.00
01610              -0.60    21000.00
01611              -0.60    20600.00
01612              -2.60    20400.00
01613              -0.60    20400.00
01614              -0.40    20000.00
01615              -2.00    20000.00
01616              -1.00    19800.00
01617               0.40    19600.00
01618              -2.00    19200.00
01619              -1.20    19000.00
01620              -0.20    18800.00
01621              -1.40    18800.00
01622              -1.40    18400.00
01623              -0.40    18000.00
01624              -1.00    18000.00
01625              -1.40    17600.00
01626              -0.80    17200.00
01627              -1.20    17000.00
01628              -1.20    16600.00
01629              -0.60    16400.00
01630              -1.00    16200.00
01631              -1.20    15800.00
01632              -0.60    15600.00
01633              -1.20    15200.00
01634              -1.20    14800.00
01635              -0.60    14600.00
01636              -1.00    14400.00
01637              -1.20    14000.00
01638              -0.60    13600.00
01639              -0.60    13200.00
01640              -1.20    12800.00
01641              -1.00    12400.00
01642              -0.60    12200.00
01643              -1.20    11800.00
01644              -1.00    11400.00
01645              -0.60    11000.00
01646              -0.60    10800.00
01647              -0.80    10200.00
01648              -0.60     9800.00
01649              -0.60     9600.00
01650              -0.40     9200.00
01651              -0.60     8800.00
01652              -0.80     8400.00
01653              -0.60     8000.00
01654              -0.60     7600.00
01655              -0.40     7200.00
01656              -1.00     6800.00
01657              -0.60     6400.00
01658              -0.40     6000.00
01659              -0.60     5600.00
01660              -0.60     5200.00
01661              -0.40     4600.00
01662              -0.60     4200.00
01663              -0.60     3800.00
01664              -0.40     3200.00
01665              -0.80     2800.00
01666              -0.60     2400.00
01667               0.40     2000.00
01668              -0.60     1600.00
01669              -0.60     1400.00
01670               0.20      800.00
01671              -0.20      400.00
01672              -1.00        0.00
01673               0.20     -400.00
01674               1.20     -600.00
01675               2.80    -1200.00
01676              -2.20    -1600.00
01677              -1.20    -2000.00
01678               2.00    -2400.00
01679               0.20    -2600.00
01680              -1.80    -3000.00
01681               6.00    -3400.00
01682              25.00    -4000.00
01683               9.80    -4800.00
01684             -25.00    -5200.00
01685              -7.60    -5600.00
01686              25.00    -6000.00
01687             -25.00    -6200.00
01688             -25.00    -6000.00
01689              25.00    -6800.00
01690               9.40    -7400.00
01691             -25.00    -7400.00
01692              25.00    -8600.00
01693              25.00    -8400.00
01694             -25.00    -8800.00
01695              25.00    -9600.00
01696              25.00    -9200.00
01697             -25.00   -10000.00
01698              18.00   -10600.00
01699              16.40   -10800.00
01700              14.60   -11400.00
01701             -25.00   -11600.00
01702              -7.60   -12000.00
01703              25.00   -12400.00
01704             -25.00   -12400.00
01705             -13.00   -13200.00
01706              25.00   -13400.00
01707              -3.00   -14000.00
01708             -25.00   -14400.00
01709               3.60   -14600.00
01710              25.00   -15000.00
01711             -25.00   -15000.00
01712              -7.00   -15400.00
01713              25.00   -15600.00
01714             -18.60   -16000.00
01715             -15.60   -16600.00
01716              18.60   -16400.00
01717               1.40   -16800.00
01718             -16.20   -17200.00
01719               9.80   -17600.00
01720              12.80   -17800.00
01721             -13.00   -18000.00
01722              -0.40   -18400.00
01723               8.60   -18600.00
01724              -5.40   -18800.00
01725              -5.80   -19200.00
01726               9.20   -19200.00
01727               1.80   -19400.00
01728              -4.40   -19800.00
01729               4.00   -20000.00
01730               1.40   -20000.00
01731              -2.60   -20400.00
01732              -3.00   -20400.00
01733               5.80   -20800.00
01734               1.40   -20800.00
01735              -4.40   -21000.00
01736               5.00   -21000.00
01737               0.60   -21400.00
01738              -3.40   -21600.00
01739               1.00   -21600.00
01740               3.40   -21600.00
01741              -1.00   -21800.00
01742              -1.00   -21800.00
01743               4.20   -22000.00
01744              -0.60   -22000.00
01745              -4.00   -22400.00
01746               2.00   -22400.00
01747               2.00   -22400.00
01748              -1.80   -22400.00
01749               1.20   -22400.00
01750               2.60   -22600.00
01751              -1.00   -22400.00
01752              -1.80   -22400.00
01753               2.00   -22600.00
01754               1.00   -22600.00
01755              -2.00   -22600.00
01756               2.00   -22600.00
01757               1.80   -22400.00
01758              -0.40   -22600.00
01759              -0.40   -22600.00
01760               1.00   -22400.00
01761               0.60   -22400.00
01762              -0.60   -22400.00
01763               0.60   -22200.00
01764               0.40   -22200.00
01765              -0.40   -22200.00
01766              -0.40   -22000.00
01767               1.20   -21800.00
01768               0.20   -21800.00
01769              -1.00   -21800.00
01770               1.20   -21600.00
01771               1.40   -21200.00
01772              -0.80   -21400.00
01773               0.00   -21000.00
01774               1.20   -21000.00
01775               0.20   -20800.00
01776               0.40   -20800.00
01777               0.40   -20400.00
01778               0.20   -20200.00
01779              -0.20   -20200.00
01780               1.00   -20000.00
01781               0.40   -19600.00
01782              -0.60   -19600.00
01783               0.40   -19200.00
01784               0.20   -19200.00
01785               0.20   -18800.00
01786               0.20   -18600.00
01787               0.40   -18400.00
01788               0.40   -18200.00
01789               0.40   -17800.00
01790               0.60   -17400.00
01791               0.00   -17200.00
01792               0.20   -17000.00
01793               0.40   -16800.00
01794              -0.20   -16400.00
01795              -0.20   -16200.00
01796               0.20   -15600.00
01797              -0.20   -15600.00
01798               0.20   -15200.00
01799               0.20   -14800.00
01800               0.40   -14600.00
01801               0.00   -14200.00
01802               0.20   -14000.00
01803               0.20   -13600.00
01804               0.20   -13200.00
01805              -0.20   -12800.00
01806              -0.40   -12400.00
01807               0.20   -12200.00
01808               0.20   -11600.00
01809              -1.00   -11400.00
01810               0.20   -11000.00
01811               0.20   -10600.00
01812              -1.20   -10200.00
01813               0.20    -9800.00
01814               0.20    -9600.00
01815              -1.80    -9200.00
01816              -0.20    -8800.00
01817               0.40    -8400.00
01818              -0.60    -8000.00
01819              -0.60    -7400.00
01820               0.80    -7200.00
01821              -0.60    -6800.00
01822              -1.60    -6400.00
01823               0.60    -6000.00
01824               0.20    -5600.00
01825              -2.00    -5000.00
01826               0.20    -4600.00
01827              -0.40    -4200.00
01828              -1.00    -3600.00
01829              -0.60    -3400.00
01830               0.20    -3000.00
01831              -0.60    -2600.00
01832              -0.20    -2000.00
01833              -0.60    -1600.00
01834              -0.60    -1200.00
01835              -0.40     -800.00
01836              -1.20     -400.00
01837              -0.60        0.00
01838               1.20      400.00
01839               1.80      800.00
01840               1.80     1200.00
01841              -1.40     1800.00
01842              -0.40     1800.00
01843               1.80     2400.00
01844              -0.40     2800.00
01845              -2.80     3000.00
01846               4.60     3600.00
01847              12.40     4000.00
01848              23.40     4800.00
01849             -20.40     5200.00
01850             -25.00     5400.00
01851              15.80     6000.00
01852              22.80     6200.00
01853             -25.00     6600.00
01854             -23.60     6800.00
01855              25.00     7600.00
01856              20.20     7600.00
01857             -25.00     8200.00
01858              25.00     8600.00
01859              25.00     8800.00
01860             -25.00     9200.00
01861              21.40     9600.00
01862              25.00    10000.00
01863             -25.00    10400.00
01864              -8.60    10800.00
01865              25.00    11200.00
01866              -5.00    11600.00
01867             -25.00    12000.00
01868               6.20    12400.00
01869              25.00    12800.00
01870             -21.40    13000.00
01871             -13.40    13400.00
01872              24.00    13600.00
01873               1.20    14200.00
01874             -23.40    14400.00
01875               0.20    14800.00
01876              20.40    15200.00
01877             -15.20    15400.00
01878              -7.80    15800.00
01879              21.40    16000.00
01880              -9.40    16400.00
01881             -15.60    16600.00
01882              13.20    16800.00
01883               2.00    17200.00
01884             -15.00    17600.00
01885               6.60    17600.00
01886               8.60    18000.00
01887             -11.20    18200.00
01888              -2.80    18400.00
01889               6.00    18800.00
01890              -6.20    19000.00
01891              -4.20    19200.00
01892               5.80    19600.00
01893              -1.00    19600.00
01894              -4.40    19800.00
01895               1.40    20000.00
01896              -1.00    20200.00
01897              -3.80    20400.00
01898              -1.40    20600.00
01899               1.40    20800.00
01900              -0.80    21000.00
01901              -2.20    21200.00
01902               1.00    21200.00
01903              -1.20    21400.00
01904              -4.20    21600.00
01905              -0.60    21600.00
01906               1.00    21800.00
01907              -2.00    21800.00
01908              -1.80    22000.00
01909               1.80    22000.00
01910              -2.00    22200.00
01911              -3.80    22200.00
01912               1.40    22200.00
01913              -0.60    22400.00
01914              -3.40    22400.00
01915               0.40    22400.00
01916               1.80    22400.00
01917              -3.40    22400.00
01918              -2.80    22400.00
01919               1.40    22600.00
01920              -1.40    22400.00
01921              -3.00    22400.00
01922               1.40    22600.00
01923               0.20    22400.00
01924              -2.80    22400.00
01925              -1.00    22400.00
01926               0.40    22400.00
01927              -2.20    22200.00
01928              -2.00    22400.00
01929               1.00    22200.00
01930              -0.60    22000.00
01931              -2.00    22000.00
01932              -0.80    22000.00
01933              -0.60    21800.00
01934              -1.20    21600.00
01935              -2.00    21600.00
01936              -0.60    21400.00
01937              -0.20    21200.00
01938              -1.60    21200.00
01939              -1.20    20800.00
01940              -0.60    20800.00
01941              -1.60    20600.00
01942              -1.80    20600.00
01943               0.20    20200.00
01944              -0.60    20000.00
01945              -1.20    19800.00
01946              -1.00    19600.00
01947              -0.60    19600.00
01948              -2.00    19200.00
01949              -1.20    19000.00
01950              -0.60    18800.00
01951              -1.00    18400.00
01952              -1.20    18400.00
01953              -0.60    18000.00
01954              -1.20    17800.00
01955              -1.80    17400.00
01956              -1.20    17200.00
01957              -0.60    16800.00
01958              -0.60    16600.00
01959              -1.20    16400.00
01960              -1.00    16000.00
01961              -0.60    15800.00
01962              -1.00    15400.00
01963              -1.20    15200.00
01964              -0.60    14800.00
01965              -1.00    14600.00
01966              -1.20    14200.00
01967              -0.60    13800.00
01968              -1.00    13600.00
01969              -1.40    13200.00
01970              -0.80    12800.00
01971              -0.40    12600.00
01972              -1.00    12000.00
01973              -1.20    11800.00
01974               0.20    11200.00
01975              -0.60    10800.00
01976              -1.80    10600.00
01977              -0.60    10400.00
01978               0.00     9600.00
01979              -1.60     9400.00
01980              -0.60     9200.00
01981               0.40     8800.00
01982              -1.40     8400.00
01983              -1.40     8000.00
01984               0.60     7600.00
01985              -0.60     7200.00
01986              -1.80     6600.00
01987               0.20     6200.00
01988              -0.40     6000.00
01989              -1.20     5400.00
01990              -0.20     5000.00
01991              -0.20     4600.00
01992              -1.00     4200.00
01993              -0.40     3800.00
01994              -0.60     3200.00
01995              -0.60     3000.00
01996              -0.60     2400.00
01997              -0.60     2000.00
01998              -0.20     1600.00
01999              -0.60     1200.00
02000              -0.60      800.00
02001              -0.20      400.00
02002              -0.20        0.00
02003               0.40     -400.00
02004               1.80    -1000.00
02005               2.00    -1200.00
02006              -3.00    -1600.00
02007              -0.80    -2000.00
02008               2.20    -2400.00
02009              -0.40    -2800.00
02010              -1.80    -3200.00
02011               8.40    -3400.00
02012              25.00    -4000.00
02013              -5.60    -5000.00
02014             -25.00    -5200.00
02015               8.20    -5600.00
02016              25.00    -6000.00
02017             -25.00    -6200.00
02018             -23.00    -6200.00
02019              25.00    -7200.00
02020             -25.00    -7200.00
02021             -25.00    -7600.00
02022              25.00    -8600.00
02023               4.20    -8400.00
02024             -25.00    -9000.00
02025              25.00    -9600.00
02026               7.20    -9200.00
02027             -25.00   -10200.00
02028              22.80   -10600.00
02029              11.60   -10800.00
02030              12.00   -11600.00
02031             -25.00   -11400.00
02032              10.00   -12200.00
02033              25.00   -12400.00
02034             -25.00   -12600.00
02035               1.80   -13200.00
02036              25.00   -13200.00
02037             -11.40   -14000.00
02038             -25.00   -14400.00
02039              13.40   -14600.00
02040              25.00   -14800.00
02041             -25.00   -15000.00
02042               7.60   -15600.00
02043              25.00   -15800.00
02044             -25.00   -16000.00
02045              -6.00   -16600.00
02046              17.80   -16800.00
02047              -5.00   -17000.00
02048             -11.80   -17200.00
02049              13.60   -17600.00
02050               6.20   -17800.00
02051             -11.60   -18000.00
02052               3.60   -18400.00
02053               5.40   -18800.00
02054              -6.40   -18800.00
02055              -1.80   -19000.00
02056               9.40   -19400.00
02057              -1.20   -19400.00
02058              -2.80   -19800.00
02059               3.60   -20000.00
02060              -0.20   -20200.00
02061              -3.20   -20400.00
02062              -1.20   -20600.00
02063               7.60   -20800.00
02064              -1.80   -20800.00
02065              -2.20   -21000.00
02066               6.00   -21200.00
02067              -2.80   -21200.00
02068              -3.60   -21600.00
02069               2.80   -21600.00
02070               2.60   -21800.00
02071              -2.80   -22000.00
02072               1.40   -22000.00
02073               4.40   -22000.00
02074              -3.80   -22200.00
02075              -2.20   -22400.00
02076               3.60   -22400.00
02077              -0.60   -22400.00
02078              -1.20   -22400.00
02079               3.00   -22400.00
02080               1.00   -22400.00
02081              -1.40   -22600.00
02082              -0.20   -22600.00
02083               2.00   -22400.00
02084              -1.20   -22600.00
02085              -0.40   -22600.00
02086               3.60   -22400.00
02087              -1.20   -22600.00
02088              -0.60   -22600.00
02089               0.60   -22400.00
02090               0.20   -22400.00
02091               0.00   -22400.00
02092               0.20   -22400.00
02093               1.20   -22400.00
02094              -0.20   -22200.00
02095               1.00   -22000.00
02096              -0.60   -22000.00
02097               0.20   -22000.00
02098               1.20   -21800.00
02099              -1.20   -21600.00
02100               1.00   -21600.00
02101               1.80   -21600.00
02102              -0.60   -21200.00
02103              -0.60   -21000.00
02104               1.40   -21000.00
02105               0.40   -21000.00
02106              -1.20   -20800.00
02107               1.40   -20400.00
02108               1.00   -20200.00
02109              -1.00   -20200.00
02110               0.80   -20000.00
02111               1.00   -19600.00
02112              -0.60   -19600.00
02113               0.20   -19400.00
02114               1.00   -19200.00
02115               0.40   -18800.00
02116               0.20   -18400.00
02117               0.40   -18400.00
02118               0.20   -18000.00
02119               0.20   -17800.00
02120               0.20   -17400.00
02121              -0.20   -17200.00
02122               1.00   -17000.00
02123               0.60   -16600.00
02124              -0.40   -16400.00
02125               0.40   -16200.00
02126               0.40   -16000.00
02127              -0.60   -15400.00
02128               0.40   -15200.00
02129               0.40   -14800.00
02130              -0.20   -14600.00
02131               0.20   -14200.00
02132               0.20   -13800.00
02133               0.40   -13600.00
02134              -0.60   -13200.00
02135               0.20   -12800.00
02136              -0.20   -12400.00
02137               0.20   -12000.00
02138              -0.20   -11800.00
02139              -0.60   -11400.00
02140              -0.60   -11000.00
02141              -0.20   -10600.00
02142               0.40   -10000.00
02143              -0.20    -9800.00
02144              -1.20    -9600.00
02145               1.20    -9000.00
02146               0.40    -8800.00
02147              -2.40    -8400.00
02148               1.00    -7800.00
02149               1.00    -7600.00
02150              -2.20    -6800.00
02151               1.00    -6600.00
02152               0.40    -6400.00
02153              -5.80    -5800.00
02154               6.60    -5600.00
02155             -10.40    -4800.00
02156               2.60    -4600.00
02157              -0.60    -4200.00
02158               1.40    -3600.00
02159               9.80    -3200.00
02160              -5.80    -2800.00
02161               1.20    -2400.00
02162              -6.20    -2000.00
02163              -0.60    -1800.00
02164              -2.80    -1600.00
02165              -5.00     -600.00
02166               6.80     -200.00
02167               2.60      200.00
02168               3.80      400.00
02169               2.80      800.00
02170              -2.20     1400.00
02171              -5.00     1400.00
02172              -3.40     2000.00
02173               0.20     2400.00
02174               2.00     2800.00
02175               2.60     3200.00
02176               7.00     3600.00
02177              14.80     4200.00
02178              22.80     4800.00
02179             -25.00     5200.00
02180             -25.00     5600.00
02181              22.80     6000.00
02182              13.40     6200.00
02183             -25.00     6400.00
02184              -9.00     7000.00
02185              25.00     7600.00
02186              -6.80     7600.00
02187             -25.00     8400.00
02188              25.00     8600.00
02189              25.00     8800.00
02190             -25.00     9400.00
02191              25.00     9600.00
02192              25.00    10000.00
02193             -25.00    10600.00
02194               2.40    10800.00
02195              25.00    11200.00
02196             -11.40    11400.00
02197             -25.00    12000.00
02198              16.20    12400.00
02199              24.80    12800.00
02200             -25.00    13200.00
02201              -6.60    13600.00
02202              25.00    13600.00
02203              -5.40    14200.00
02204             -23.40    14400.00
02205               9.00    14800.00
02206              16.20    15200.00
02207             -21.00    15600.00
02208              -1.80    15800.00
02209              19.80    16000.00
02210             -14.60    16400.00
02211             -11.00    16600.00
02212              15.40    16800.00
02213              -2.60    17200.00
02214             -14.00    17400.00
02215              10.00    17800.00
02216               5.60    18000.00
02217             -12.40    18400.00
02218              -0.60    18400.00
02219               6.20    19000.00
02220              -7.80    19000.00
02221              -3.80    19400.00
02222               7.60    19600.00
02223              -2.00    19800.00
02224              -4.60    19800.00
02225               1.80    20000.00
02226              -0.20    20400.00
02227              -4.80    20600.00
02228              -2.00    20600.00
02229               3.00    20800.00
02230              -2.20    21000.00
02231              -3.00    21200.00
02232               2.60    21200.00
02233              -1.20    21400.00
02234              -4.60    21600.00
02235               0.20    21600.00
02236               2.00    21600.00
02237              -3.00    22000.00
02238              -2.00    22000.00
02239               2.00    22200.00
02240              -2.20    22200.00
02241              -3.80    22200.00
02242               1.20    22200.00
02243              -0.40    22400.00
02244              -3.40    22400.00
02245              -0.20    22400.00
02246               1.40    22400.00
02247              -3.00    22400.00
02248              -2.80    22400.00
02249               1.00    22400.00
02250              -1.00    22400.00
02251              -2.40    22400.00
02252              -0.20    22400.00
02253               0.40    22400.00
02254              -1.80    22400.00
02255              -1.80    22400.00
02256               0.20    22400.00
02257              -1.00    22400.00
02258              -2.40    22200.00
02259              -0.40    22200.00
02260               0.40    22000.00
02261              -2.40    22000.00
02262              -1.80    22000.00
02263               1.00    21600.00
02264              -1.00    21600.00
02265              -3.40    21600.00
02266               1.00    21400.00
02267               0.40    21200.00
02268              -3.80    21000.00
02269              -0.40    21000.00
02270               0.60    20800.00
02271              -3.20    20600.00
02272              -1.40    20400.00
02273               1.80    20400.00
02274              -2.20    20000.00
02275              -2.80    19800.00
02276               0.60    19600.00
02277              -0.40    19600.00
02278              -3.80    19200.00
02279              -0.60    19000.00
02280               1.00    18800.00
02281              -2.20    18400.00
02282              -2.00    18200.00
02283               0.80    18000.00
02284              -1.00    17600.00
02285              -2.20    17200.00
02286               0.00    17200.00
02287              -1.20    16800.00
02288              -1.80    16400.00
02289               0.20    16400.00
02290              -1.20    16000.00
02291              -1.80    15800.00
02292              -0.60    15600.00
02293              -0.60    15200.00
02294              -1.00    14800.00
02295              -0.60    14600.00
02296              -0.40    14200.00
02297              -0.60    13800.00
02298              -1.20    13400.00
02299              -1.00    13200.00
02300              -0.20    12800.00
02301              -1.20    12400.00
02302              -1.40    12200.00
02303               0.20    11600.00
02304              -0.20    11200.00
02305              -2.00    11000.00
02306               0.20    10400.00
02307              -0.20    10200.00
02308              -2.20     9800.00
02309               0.00     9600.00
02310               0.40     9200.00
02311              -1.80     8600.00
02312              -1.00     8400.00
02313               0.40     7800.00
02314              -0.60     7400.00
02315              -1.20     7000.00
02316               0.20     6800.00
02317               0.20     6400.00
02318              -1.20     5800.00
02319              -0.60     5400.00
02320               0.20     4800.00
02321              -1.00     4400.00
02322              -1.60     4200.00
02323               0.40     3800.00
02324               0.40     3200.00
02325              -1.20     2800.00
02326              -0.60     2400.00
02327               0.60     2000.00
02328              -0.80     1600.00
02329              -1.20     1000.00
02330               0.20      800.00
02331              -0.40      400.00
02332              -1.00        0.00
02333               0.60     -600.00
02334               2.40     -800.00
02335               1.00    -1200.00
02336              -2.40    -1600.00
02337               0.20    -2000.00
02338               1.40    -2400.00
02339              -1.20    -2800.00
02340              -0.60    -3200.00
02341              11.40    -3600.00
02342              25.00    -4200.00
02343             -20.60    -5000.00
02344             -25.00    -5400.00
02345              21.20    -5800.00
02346              25.00    -6000.00
02347             -25.00    -6200.00
02348               5.80    -6400.00
02349              25.00    -7200.00
02350             -25.00    -7200.00
02351             -25.00    -7800.00
02352              25.00    -8400.00
02353             -25.00    -8400.00
02354             -25.00    -9200.00
02355              25.00    -9600.00
02356             -24.60    -9400.00
02357             -25.00   -10400.00
02358              24.20   -10600.00
02359              11.20   -10800.00
02360               6.20   -11600.00
02361             -25.00   -11600.00
02362              25.00   -12200.00
02363              25.00   -12400.00
02364             -25.00   -12800.00
02365              14.80   -13400.00
02366              25.00   -13600.00
02367             -17.80   -14000.00
02368             -25.00   -14400.00
02369              23.00   -14600.00
02370              17.00   -14800.00
02371             -25.00   -15000.00
02372              20.40   -15600.00
02373              22.60   -16000.00
02374             -25.00   -16200.00
02375               1.80   -16400.00
02376              16.00   -16800.00
02377              -8.80   -17000.00
02378              -8.40   -17200.00
02379              15.80   -17600.00
02380               1.40   -17600.00
02381             -11.00   -18000.00
02382               5.80   -18400.00
02383               3.80   -18800.00
02384              -7.60   -18800.00
02385               0.20   -19200.00
02386               9.80   -19400.00
02387              -2.80   -19600.00
02388              -1.40   -19600.00
02389               3.60   -20000.00
02390              -0.20   -20200.00
02391              -4.40   -20400.00
02392               0.20   -20600.00
02393               7.60   -20800.00
02394              -3.80   -20800.00
02395              -0.40   -21000.00
02396               5.80   -21200.00
02397              -3.80   -21200.00
02398              -2.80   -21600.00
02399               3.00   -21600.00
02400               2.00   -21800.00
02401              -2.80   -21800.00
02402               2.00   -22000.00
02403               3.60   -22000.00
02404              -3.40   -22200.00
02405              -1.40   -22400.00
02406               3.40   -22400.00
02407              -0.60   -22400.00
02408              -0.60   -22400.00
02409               2.00   -22400.00
02410               1.80   -22600.00
02411              -2.60   -22600.00
02412              -0.60   -22400.00
02413               2.60   -22400.00
02414              -1.80   -22600.00
02415              -0.40   -22400.00
02416               3.20   -22600.00
02417               0.20   -22600.00
02418              -1.20   -22400.00
02419               0.20   -22600.00
02420               1.20   -22400.00
02421              -0.60   -22400.00
02422              -0.20   -22400.00
02423               1.80   -22400.00
02424               0.20   -22200.00
02425               0.20   -22000.00
02426              -0.20   -22000.00
02427               0.40   -22000.00
02428               0.40   -21600.00
02429              -1.00   -21600.00
02430               1.40   -21600.00
02431               1.00   -21400.00
02432              -0.60   -21200.00
02433               0.40   -21200.00
02434               1.00   -21000.00
02435              -0.40   -20800.00
02436              -0.20   -20800.00
02437               1.40   -20400.00
02438               0.40   -20200.00
02439              -0.40   -20000.00
02440               1.20   -19600.00
02441              -0.20   -19600.00
02442              -0.60   -19400.00
02443               0.40   -19200.00
02444               0.40   -19000.00
02445               0.20   -18800.00
02446               0.40   -18400.00
02447               0.60   -18400.00
02448              -0.40   -18000.00
02449               0.20   -17400.00
02450               0.20   -17400.00
02451               0.20   -17200.00
02452               0.40   -16800.00
02453               0.60   -16800.00
02454               0.20   -16400.00
02455               0.80   -16000.00
02456              -0.60   -15600.00
02457              -0.40   -15400.00
02458               0.40   -15200.00
02459              -0.20   -14800.00
02460              -0.60   -14400.00
02461               0.40   -14000.00
02462               0.00   -13800.00
02463              -0.80   -13400.00
02464              -0.20   -13000.00
02465               0.40   -12800.00
02466              -0.40   -12400.00
02467               0.20   -12000.00
02468               0.40   -11600.00
02469              -0.40   -11200.00
02470              -0.40   -10800.00
02471               0.20   -10400.00
02472              -0.60   -10000.00
02473              -0.40    -9600.00
02474              -0.20    -9200.00
02475              -0.20    -9000.00
02476              -0.60    -8600.00
02477              -0.20    -8200.00
02478              -0.20    -8000.00
02479              -0.60    -7400.00
02480              -0.20    -7000.00
02481              -0.40    -6600.00
02482              -1.00    -6000.00
02483               0.20    -5800.00
02484              -0.20    -5200.00
02485              -1.00    -4600.00
02486               0.20    -4400.00
02487              -0.20    -4200.00
02488              -0.80    -3600.00
02489              -0.40    -3200.00
02490               0.20    -2800.00
02491              -0.20    -2400.00
02492              -1.00    -1800.00
02493              -0.20    -1600.00
02494              -0.40    -1200.00
02495              -0.60     -600.00
02496              -0.40     -200.00
02497               0.40      200.00
02498               0.40      600.00
02499               3.20      800.00
02500               0.40     1400.00
02501              -2.60     1800.00
02502               1.00     2000.00
02503               2.00     2600.00
02504              -1.60     2800.00
02505              -0.60     3200.00
02506               6.80     3600.00
02507              18.00     4400.00
02508              15.80     4800.00
02509             -25.00     5400.00
02510             -25.00     5600.00
02511              25.00     6000.00
02512               1.80     6400.00
02513             -25.00     6600.00
02514               9.40     7000.00
02515              25.00     7600.00
02516             -25.00     7800.00
02517             -25.00     8200.00
02518              25.00     8600.00
02519              -3.60     8800.00
02520             -25.00     9600.00
02521              25.00     9800.00
02522              24.40    10200.00
02523             -25.00    10800.00
02524              15.80    10800.00
02525              25.00    11200.00
02526             -20.40    11800.00
02527             -25.00    12000.00
02528              25.00    12600.00
02529              17.80    12800.00
02530             -25.00    13400.00
02531               3.00    13600.00
02532              25.00    13800.00
02533             -14.20    14400.00
02534             -21.20    14400.00
02535              15.80    14800.00
02536              10.20    15200.00
02537             -22.80    15600.00
02538               7.20    15800.00
02539              16.60    16000.00
02540             -19.80    16400.00
02541              -5.20    16600.00
02542              15.00    16800.00
02543              -7.80    17400.00
02544             -10.20    17600.00
02545              12.60    17800.00
02546               1.40    18200.00
02547             -11.80    18200.00
02548               2.60    18400.00
02549               3.60    18800.00
02550              -8.20    19000.00
02551              -1.20    19200.00
02552               5.40    19600.00
02553              -3.00    19800.00
02554              -2.80    20000.00
02555               0.40    20000.00
02556              -1.20    20400.00
02557              -3.80    20600.00
02558              -1.00    20800.00
02559               3.00    21000.00
02560              -2.60    21200.00
02561              -2.40    21200.00
02562               1.80    21400.00
02563              -2.00    21600.00
02564              -4.00    21600.00
02565               0.60    21600.00
02566               1.20    21800.00
02567              -2.80    22000.00
02568              -1.00    22000.00
02569               1.40    22200.00
02570              -3.60    22200.00
02571              -2.20    22200.00
02572               1.20    22200.00
02573              -1.80    22400.00
02574              -1.80    22400.00
02575               0.60    22400.00
02576              -0.40    22400.00
02577              -2.60    22400.00
02578              -1.20    22400.00
02579               0.20    22400.00
02580              -2.00    22600.00
02581              -1.00    22400.00
02582              -0.20    22400.00
02583              -1.20    22400.00
02584              -1.40    22400.00
02585              -1.20    22400.00
02586              -0.60    22400.00
02587              -1.20    22200.00
02588              -1.20    22200.00
02589              -0.60    22200.00
02590              -0.60    22000.00
02591              -1.20    22000.00
02592              -2.00    22000.00
02593              -1.20    21600.00
02594              -1.00    21600.00
02595              -1.80    21400.00
02596              -0.60    21400.00
02597              -0.40    21200.00
02598              -1.40    21000.00
02599              -1.20    21000.00
02600              -1.00    20800.00
02601              -2.00    20400.00
02602              -1.80    20400.00
02603               0.20    20200.00
02604              -1.20    20000.00
02605              -1.40    19800.00
02606              -0.40    19600.00
02607              -1.00    19600.00
02608              -1.80    19200.00
02609              -1.20    19000.00
02610              -0.80    18600.00
02611              -1.00    18400.00
02612              -1.00    18200.00
02613              -1.00    18000.00
02614              -1.00    17600.00
02615              -1.40    17400.00
02616              -1.20    17200.00
02617              -0.60    16800.00
02618              -0.60    16400.00
02619              -1.00    16400.00
02620              -0.60    16000.00
02621              -0.60    15800.00
02622              -1.20    15600.00
02623              -1.20    15000.00
02624              -1.00    14800.00
02625              -0.60    14400.00
02626              -0.60    14200.00
02627              -0.60    13600.00
02628              -0.40    13400.00
02629              -1.00    12800.00
02630              -1.20    12600.00
02631              -0.40    12400.00
02632              -0.60    12000.00
02633              -1.20    11800.00
02634              -0.40    11200.00
02635              -0.60    10800.00
02636              -0.60    10400.00
02637              -0.60    10200.00
02638              -0.60     9600.00
02639              -0.40     9200.00
02640              -0.60     9000.00
02641              -0.60     8600.00
02642              -0.40     8200.00
02643              -0.60     7800.00
02644              -1.20     7200.00
02645              -0.40     7000.00
02646              -0.60     6600.00
02647              -0.60     6200.00
02648              -0.20     5600.00
02649              -0.60     5200.00
02650              -0.40     4800.00
02651              -0.40     4400.00
02652              -0.60     4000.00
02653              -0.60     3600.00
02654              -0.40     3200.00
02655              -0.80     2800.00
02656              -0.60     2400.00
02657               0.00     2000.00
02658              -0.40     1400.00
02659              -1.20     1000.00
02660              -0.40      800.00
02661              -0.40      200.00
02662              -0.60     -200.00
02663               0.40     -600.00
02664               2.60    -1000.00
02665               0.60    -1600.00
02666              -3.00    -1800.00
02667               0.20    -2200.00
02668               2.20    -2600.00
02669              -2.00    -2800.00
02670               0.40    -3200.00
02671              15.80    -3600.00
02672              25.00    -4400.00
02673             -25.00    -5000.00
02674             -25.00    -5400.00
02675              25.00    -5800.00
02676              13.60    -6200.00
02677             -25.00    -6400.00
02678              25.00    -6400.00
02679              25.00    -7400.00
02680             -25.00    -7200.00
02681               4.40    -8000.00
02682              25.00    -8400.00
02683             -25.00    -8600.00
02684             -25.00    -9200.00
02685              25.00    -9600.00
02686             -25.00    -9600.00
02687             -12.40   -10400.00
02688              22.80   -10600.00
02689              12.20   -11200.00
02690              -4.00   -11600.00
02691             -25.00   -11600.00
02692              25.00   -12200.00
02693              15.40   -12400.00
02694             -25.00   -13000.00
02695              25.00   -13400.00
02696              22.60   -13600.00
02697             -23.40   -14200.00
02698             -20.20   -14400.00
02699              25.00   -14600.00
02700               5.00   -15000.00
02701             -25.00   -15200.00
02702              25.00   -15600.00
02703              11.00   -15800.00
02704             -25.00   -16400.00
02705               8.20   -16600.00
02706              12.60   -16800.00
02707             -11.80   -17000.00
02708              -3.60   -17400.00
02709              17.00   -17800.00
02710              -3.80   -17800.00
02711              -8.40   -18200.00
02712               7.80   -18400.00
02713              -0.20   -18800.00
02714              -7.40   -18800.00
02715               3.60   -19200.00
02716               7.00   -19400.00
02717              -4.40   -19600.00
02718               1.20   -19800.00
02719               1.80   -20000.00
02720              -1.00   -20200.00
02721              -3.40   -20400.00
02722               0.60   -20600.00
02723               6.60   -20800.00
02724              -4.00   -20800.00
02725               0.60   -21200.00
02726               3.60   -21400.00
02727              -3.80   -21200.00
02728              -1.40   -21400.00
02729               3.40   -21600.00
02730               1.60   -21800.00
02731              -2.80   -21800.00
02732               2.60   -22000.00
02733               3.00   -22000.00
02734              -4.80   -22200.00
02735              -0.60   -22200.00
02736               3.60   -22400.00
02737              -1.40   -22400.00
02738              -0.40   -22400.00
02739               3.00   -22400.00
02740               0.60   -22400.00
02741              -2.80   -22600.00
02742               0.60   -22400.00
02743               2.00   -22600.00
02744              -2.40   -22400.00
02745               0.80   -22600.00
02746               2.80   -22600.00
02747              -0.40   -22600.00
02748              -0.60   -22400.00
02749               0.20   -22400.00
02750               1.00   -22400.00
02751              -0.40   -22400.00
02752              -0.20   -22400.00
02753               1.20   -22400.00
02754               0.40   -22200.00
02755              -0.60   -22000.00
02756              -0.40   -22000.00
02757               1.40   -21800.00
02758              -0.40   -21800.00
02759              -1.00   -21800.00
02760               2.60   -21400.00
02761               0.80   -21200.00
02762              -1.40   -21200.00
02763               1.20   -21200.00
02764               0.80   -21000.00
02765              -1.20   -20800.00
02766               0.40   -20400.00
02767               1.20   -20400.00
02768              -0.40   -20200.00
02769               0.40   -20000.00
02770               1.20   -19800.00
02771              -0.40   -19600.00
02772              -0.20   -19400.00
02773               0.40   -19200.00
02774               0.40   -19000.00
02775               0.60   -18600.00
02776               0.20   -18400.00
02777               0.20   -18400.00
02778               0.60   -17800.00
02779               0.40   -17400.00
02780              -0.60   -17600.00
02781               0.40   -17200.00
02782               1.00   -16800.00
02783              -0.40   -16800.00
02784              -0.20   -16400.00
02785               0.40   -16000.00
02786              -0.60   -15600.00
02787              -0.20   -15400.00
02788               0.20   -15200.00
02789              -0.40   -14800.00
02790               0.40   -14400.00
02791               0.20   -14000.00
02792              -0.20   -13800.00
02793              -0.60   -13400.00
02794              -0.20   -13000.00
02795              -0.40   -12800.00
02796               0.00   -12200.00
02797               0.20   -12000.00
02798              -0.20   -11600.00
02799              -0.20   -11200.00
02800              -0.20   -10800.00
02801              -0.60   -10400.00
02802              -0.20   -10000.00
02803               0.20    -9600.00
02804              -0.60    -9400.00
02805               0.00    -8800.00
02806              -0.40    -8800.00
02807              -0.60    -8200.00
02808              -0.60    -7800.00
02809              -0.40    -7200.00
02810              -0.40    -6800.00
02811              -0.20    -6600.00
02812              -0.60    -6000.00
02813               0.40    -5600.00
02814              -0.80    -5200.00
02815              -1.00    -4600.00
02816               0.20    -4400.00
02817              -0.40    -4000.00
02818              -1.00    -3600.00
02819               0.20    -3200.00
02820               0.40    -2800.00
02821              -0.40    -2400.00
02822              -0.60    -2000.00
02823               0.20    -1600.00
02824              -0.60    -1000.00
02825              -1.00     -800.00
02826              -0.20     -200.00
02827               0.60      400.00
02828               0.40      800.00
02829               3.40     1200.00
02830              -0.60     1400.00
02831              -2.20     1800.00
02832               2.00     2000.00
02833               1.80     2600.00
02834              -2.20     3000.00
02835               1.00     3200.00
02836               7.60     3800.00
02837              20.40     4400.00
02838               8.20     4800.00
02839             -25.00     5400.00
02840             -14.60     5600.00
02841              25.00     6200.00
02842             -10.60     6400.00
02843             -25.00     6600.00
02844              25.00     7200.00
02845              25.00     7800.00
02846             -25.00     7800.00
02847             -25.00     8400.00
02848              25.00     8800.00
02849             -25.00     9000.00
02850             -25.00     9600.00
02851              25.00     9800.00
02852              -0.20    10200.00
02853             -25.00    10800.00
02854              25.00    10800.00
02855              24.60    11200.00
02856             -25.00    11600.00
02857             -22.40    12200.00
02858              25.00    12600.00
02859               6.20    12800.00
02860             -25.00    13200.00
02861              11.60    13600.00
02862              20.80    14000.00
02863             -20.00    14400.00
02864             -16.40    14600.00
02865              21.20    15000.00
02866               2.80    15400.00
02867             -22.40    15600.00
02868              14.20    15800.00
02869              11.40    16000.00
02870             -22.80    16400.00
02871               1.40    16800.00
02872              13.80    17000.00
02873             -12.40    17200.00
02874              -5.80    17600.00
02875              14.00    18000.00
02876              -3.40    18200.00
02877             -11.40    18400.00
02878               5.80    18600.00
02879               2.00    18800.00
02880              -8.60    19000.00
02881               1.60    19200.00
02882               5.80    19600.00
02883              -4.60    19800.00
02884              -2.60    19800.00
02885               1.80    20400.00
02886              -2.20    20200.00
02887              -4.60    20600.00
02888               0.80    20800.00
02889               2.80    21000.00
02890              -3.60    21200.00
02891              -1.20    21200.00
02892               2.00    21400.00
02893              -3.60    21400.00
02894              -3.40    21600.00
02895               1.20    21600.00
02896               0.40    22000.00
02897              -3.00    22000.00
02898              -0.20    22000.00
02899               1.00    22200.00
02900              -3.60    22200.00
02901              -2.20    22400.00
02902               1.20    22400.00
02903              -1.20    22400.00
02904              -2.20    22400.00
02905               0.20    22400.00
02906              -0.20    22400.00
02907              -3.00    22400.00
02908              -1.80    22400.00
02909               0.60    22400.00
02910              -1.80    22400.00
02911              -1.20    22400.00
02912               0.60    22600.00
02913              -0.60    22400.00
02914              -2.20    22400.00
02915              -0.60    22400.00
02916              -0.80    22200.00
02917              -2.20    22400.00
02918              -1.00    22200.00
02919              -0.40    22200.00
02920              -1.40    22000.00
02921              -1.20    22000.00
02922              -1.20    21800.00
02923              -1.00    21800.00
02924              -1.00    21600.00
02925              -1.40    21400.00
02926              -1.00    21400.00
02927              -0.60    21200.00
02928              -1.20    21200.00
02929              -1.00    20800.00
02930              -0.80    20600.00
02931              -1.80    20600.00
02932              -1.00    20400.00
02933              -0.20    20200.00
02934              -1.20    20000.00
02935              -1.40    19800.00
02936              -0.60    19600.00
02937              -1.40    19400.00
02938              -1.80    19200.00
02939              -0.40    18800.00
02940              -0.40    18800.00
02941              -2.20    18400.00
02942              -1.00    18200.00
02943              -0.20    18000.00
02944              -1.00    17600.00
02945              -1.40    17400.00
02946              -0.60    17200.00
02947              -0.40    16800.00
02948              -1.20    16600.00
02949              -1.20    16400.00
02950              -0.40    16000.00
02951              -1.00    15800.00
02952              -1.20    15200.00
02953              -0.20    15000.00
02954              -0.60    14800.00
02955              -1.80    14400.00
02956              -1.20    14000.00
02957              -0.40    13600.00
02958              -0.40    13400.00
02959              -0.60    13000.00
02960              -0.40    12800.00
02961              -0.40    12400.00
02962              -1.20    11800.00
02963              -0.60    11600.00
02964              -0.60    11200.00
02965              -1.00    10800.00
02966              -0.40    10400.00
02967              -0.40    10200.00
02968              -1.00     9800.00
02969              -1.00     9200.00
02970              -0.60     8800.00
02971              -0.60     8600.00
02972              -0.60     8200.00
02973              -0.20     7800.00
02974              -0.40     7200.00
02975              -0.60     6800.00
02976              -0.60     6400.00
02977              -1.00     6000.00
02978              -0.80     5600.00
02979              -0.60     5200.00
02980              -0.60     4800.00
02981              -0.40     4400.00
02982              -0.60     4000.00
02983              -0.60     3400.00
02984              -0.60     3000.00
02985              -0.60     2600.00
02986              -0.60     2200.00
02987              -0.60     2000.00
02988              -0.40     1400.00
02989              -0.40     1200.00
02990              -0.60      600.00
02991              -0.40      200.00
02992              -0.20     -200.00
02993               0.60     -800.00
02994               3.20    -1000.00
02995              -0.60    -1600.00
02996              -2.60    -1800.00
02997               1.00    -2200.00
02998               1.20    -2600.00
02999              -2.60    -3000.00
03000               2.40    -3200.00
03001              19.60    -3600.00
03002              25.00    -4600.00
03003             -25.00    -5200.00
03004             -25.00    -5600.00
03005              25.00    -5800.00
03006              -0.60    -6000.00
03007             -25.00    -6000.00
03008              25.00    -6400.00
03009              25.00    -7400.00
03010             -25.00    -7200.00
03011              25.00    -8200.00
03012              25.00    -8600.00
03013             -25.00    -8800.00
03014              14.60    -9600.00
03015              25.00    -9400.00
03016             -25.00    -9600.00
03017               2.80   -10600.00
03018              20.00   -10600.00
03019              13.60   -11200.00
03020             -16.20   -11600.00
03021             -25.00   -11600.00
03022              25.00   -12400.00
03023              -4.40   -12400.00
03024             -25.00   -13000.00
03025              25.00   -13200.00
03026              13.40   -13600.00
03027             -25.00   -14200.00
03028             -13.40   -14400.00
03029              25.00   -14800.00
03030              -7.60   -14800.00
03031             -25.00   -15200.00
03032              25.00   -15600.00
03033              -0.40   -16000.00
03034             -25.00   -16400.00
03035              13.80   -16600.00
03036               8.40   -16800.00
03037             -14.20   -17000.00
03038               1.80   -17400.00
03039              15.60   -17600.00
03040              -7.80   -18000.00
03041              -4.40   -18200.00
03042               7.80   -18600.00
03043              -2.40   -18800.00
03044              -6.20   -18800.00
03045               5.40   -19200.00
03046               5.20   -19600.00
03047              -4.60   -19600.00
03048               1.80   -20000.00
03049               1.00   -20000.00
03050              -1.20   -20200.00
03051              -3.40   -20400.00
03052               3.60   -20800.00
03053               4.40   -20800.00
03054              -4.80   -21000.00
03055               3.60   -21200.00
03056               2.00   -21200.00
03057              -4.40   -21600.00
03058              -0.40   -21600.00
03059               3.20   -21800.00
03060               0.40   -21800.00
03061              -1.80   -21800.00
03062               2.80   -21800.00
03063               1.40   -22000.00
03064              -3.60   -22000.00
03065               0.40   -22400.00
03066               2.60   -22400.00
03067              -1.20   -22400.00
03068               0.40   -22600.00
03069               2.20   -22600.00
03070               0.20   -22600.00
03071              -2.20   -22600.00
03072               1.00   -22600.00
03073               2.00   -22400.00
03074              -2.00   -22400.00
03075               1.40   -22400.00
03076               2.60   -22600.00
03077              -0.20   -22400.00
03078              -1.20   -22600.00
03079               0.40   -22400.00
03080               1.40   -22400.00
03081              -1.00   -22400.00
03082               0.80   -22400.00
03083               1.80   -22400.00
03084              -0.40   -22200.00
03085              -0.20   -22000.00
03086               0.60   -22000.00
03087               0.60   -21800.00
03088              -1.00   -21600.00
03089               0.20   -21600.00
03090               1.80   -21600.00
03091              -0.20   -21400.00
03092               0.20   -21200.00
03093               1.20   -21200.00
03094              -0.20   -21000.00
03095              -0.40   -20800.00
03096               1.20   -20400.00
03097               0.40   -20400.00
03098              -0.60   -20000.00
03099               0.80   -20000.00
03100               1.20   -20000.00
03101              -0.60   -19600.00
03102              -0.40   -19400.00
03103               0.40   -19200.00
03104               0.60   -18800.00
03105               0.20   -18800.00
03106              -0.20   -18400.00
03107               0.80   -18400.00
03108               0.20   -17800.00
03109              -1.00   -17600.00
03110              -0.20   -17200.00
03111               0.60   -17000.00
03112              -0.20   -16800.00
03113              -0.40   -16400.00
03114               1.00   -16200.00
03115               0.00   -16000.00
03116              -0.80   -15600.00
03117               0.40   -15200.00
03118               0.20   -15000.00
03119              -0.40   -14800.00
03120              -0.20   -14400.00
03121               0.20   -14000.00
03122              -0.40   -13800.00
03123              -0.60   -13200.00
03124               0.20   -13000.00
03125              -0.20   -12800.00
03126              -0.60   -12200.00
03127               0.40   -12000.00
03128              -0.20   -11600.00
03129              -0.60   -11200.00
03130               0.20   -10800.00
03131              -0.20   -10400.00
03132              -0.20   -10000.00
03133              -0.20    -9600.00
03134              -0.60    -9200.00
03135               0.00    -8800.00
03136              -0.60    -8400.00
03137              -0.40    -8200.00
03138              -0.60    -7600.00
03139              -0.40    -7400.00
03140               0.40    -6800.00
03141              -0.60    -6400.00
03142              -1.20    -6000.00
03143               1.00    -5600.00
03144               1.00    -5200.00
03145              -2.20    -4800.00
03146              -0.60    -4400.00
03147               2.00    -4000.00
03148              -1.80    -3600.00
03149              -1.60    -3200.00
03150               2.00    -2800.00
03151              -0.60    -2400.00
03152              -2.60    -1800.00
03153               1.80    -1400.00
03154               0.20    -1000.00
03155              -2.60     -400.00
03156               0.20        0.00
03157               1.40      400.00
03158               0.40      800.00
03159               3.80     1200.00
03160              -2.20     1800.00
03161              -2.60     2000.00
03162               4.20     2400.00
03163               0.60     2600.00
03164              -3.80     3000.00
03165               3.80     3400.00
03166               9.00     3800.00
03167              21.80     4600.00
03168              -1.00     4800.00
03169             -25.00     5400.00
03170              -4.40     5600.00
03171              25.00     6200.00
03172             -22.20     6600.00
03173             -25.00     6800.00
03174              25.00     7400.00
03175              25.00     7800.00
03176             -25.00     8000.00
03177               3.40     8400.00
03178              25.00     8600.00
03179             -25.00     9200.00
03180             -25.00     9600.00
03181              25.00    10000.00
03182             -23.80    10400.00
03183             -25.00    10800.00
03184              25.00    11000.00
03185              15.00    11400.00
03186             -25.00    11800.00
03187             -11.80    12000.00
03188              25.00    12600.00
03189              -5.80    12800.00
03190             -25.00    13400.00
03191              18.60    13600.00
03192              14.00    14000.00
03193             -23.20    14400.00
03194             -10.20    14600.00
03195              22.80    15000.00
03196              -3.80    15400.00
03197             -19.00    15800.00
03198              18.20    15800.00
03199               4.60    16200.00
03200             -22.60    16400.00
03201               6.40    16800.00
03202              10.60    17000.00
03203             -14.60    17400.00
03204              -1.20    17600.00
03205              14.00    18000.00
03206              -6.60    18200.00
03207              -9.20    18400.00
03208               7.20    18800.00
03209              -1.80    19000.00
03210              -8.60    19200.00
03211               4.20    19400.00
03212               3.80    19800.00
03213              -5.20    20000.00
03214              -0.40    20000.00
03215               1.40    20200.00
03216              -3.40    20400.00
03217              -3.60    20600.00
03218               2.00    20800.00
03219               1.80    21000.00
03220              -4.40    21200.00
03221               0.40    21200.00
03222               1.20    21400.00
03223              -4.20    21400.00
03224              -2.20    21800.00
03225               2.00    21800.00
03226              -0.40    22000.00
03227              -3.00    22000.00
03228               1.00    22200.00
03229              -0.20    22200.00
03230              -4.40    22200.00
03231              -1.20    22200.00
03232               1.00    22200.00
03233              -2.00    22400.00
03234              -1.80    22400.00
03235               1.00    22400.00
03236              -0.40    22400.00
03237              -3.40    22600.00
03238              -1.00    22400.00
03239               0.60    22600.00
03240              -2.20    22400.00
03241              -1.20    22400.00
03242               0.40    22400.00
03243              -1.60    22400.00
03244              -2.20    22400.00
03245              -0.80    22400.00
03246              -1.00    22400.00
03247              -2.00    22200.00
03248              -1.00    22200.00
03249              -0.60    22000.00
03250              -1.00    22000.00
03251              -2.00    21800.00
03252              -1.00    21800.00
03253              -0.60    21800.00
03254              -1.20    21600.00
03255              -1.00    21400.00
03256              -0.60    21400.00
03257              -1.00    21200.00
03258              -1.40    21000.00
03259              -1.20    20800.00
03260              -1.00    20600.00
03261              -2.00    20600.00
03262              -1.00    20400.00
03263              -0.20    20000.00
03264              -1.00    20000.00
03265              -1.20    19800.00
03266              -0.40    19600.00
03267              -1.20    19400.00
03268              -1.40    19000.00
03269              -1.00    18800.00
03270              -0.60    18800.00
03271              -1.20    18400.00
03272              -0.80    18200.00
03273              -0.60    17800.00
03274              -1.20    17600.00
03275              -1.40    17200.00
03276              -0.60    16800.00
03277              -0.60    16600.00
03278              -1.00    16600.00
03279              -0.60    16200.00
03280              -0.60    15800.00
03281              -1.00    15600.00
03282              -1.00    15400.00
03283              -0.80    15000.00
03284              -0.60    14600.00
03285              -0.60    14400.00
03286              -1.00    14000.00
03287              -0.60    13600.00
03288              -1.00    13200.00
03289              -1.20    12800.00
03290              -0.60    12600.00
03291              -0.60    12200.00
03292              -1.20    11800.00
03293              -0.20    11600.00
03294              -0.60    11000.00
03295              -1.00    10800.00
03296              -0.60    10400.00
03297              -0.60    10000.00
03298              -0.60     9400.00
03299              -1.00     9200.00
03300              -0.60     8800.00
03301              -0.60     8400.00
03302              -0.60     8000.00
03303              -0.60     7600.00
03304              -0.60     7200.00
03305              -0.40     6800.00
03306              -0.60     6400.00
03307              -0.60     6000.00
03308              -0.80     5400.00
03309              -0.40     5200.00
03310              -1.00     4600.00
03311              -0.60     4200.00
03312              -0.60     3800.00
03313              -0.60     3400.00
03314              -0.60     3000.00
03315              -0.40     2600.00
03316              -0.40     2200.00
03317              -0.40     1800.00
03318              -0.60     1400.00
03319              -0.60      800.00
03320              -0.60      600.00
03321              -0.60        0.00
03322               0.20     -400.00
03323               0.60     -800.00
03324               3.40    -1000.00
03325              -1.60    -1600.00
03326              -2.00    -2000.00
03327               2.00    -2200.00
03328               0.40    -2800.00
03329              -2.60    -3200.00
03330               5.00    -3400.00
03331              23.80    -4000.00
03332              18.20    -4800.00
03333             -25.00    -5000.00
03334             -17.60    -5600.00
03335              25.00    -6000.00
03336             -16.60    -6200.00
03337             -25.00    -6000.00
03338              25.00    -6800.00
03339              25.00    -7400.00
03340             -25.00    -7200.00
03341              25.00    -8400.00
03342              25.00    -8600.00
03343             -25.00    -8800.00
03344              25.00    -9600.00
03345              25.00    -9400.00
03346             -25.00   -10000.00
03347              13.80   -10400.00
03348              16.40   -10600.00
03349              15.00   -11400.00
03350             -25.00   -11600.00
03351             -20.40   -12000.00
03352              25.00   -12400.00
03353             -24.40   -12400.00
03354             -22.80   -13000.00
03355              25.00   -13400.00
03356               3.80   -13600.00
03357             -25.00   -14400.00
03358              -3.80   -14400.00
03359              25.00   -14800.00
03360             -21.20   -15200.00
03361             -15.60   -15600.00
03362              25.00   -15600.00
03363             -12.60   -16000.00
03364             -19.00   -16400.00
03365              17.00   -16600.00
03366               3.60   -17000.00
03367             -14.80   -17200.00
03368               7.00   -17400.00
03369              13.20   -17600.00
03370             -10.80   -18000.00
03371              -2.00   -18400.00
03372               7.40   -18600.00
03373              -4.40   -18800.00
03374              -5.00   -19200.00
03375               7.40   -19400.00
03376               2.80   -19600.00
03377              -3.80   -19600.00
03378               2.80   -20000.00
03379               0.40   -20000.00
03380              -1.80   -20400.00
03381              -3.60   -20400.00
03382               4.20   -20800.00
03383               3.40   -20800.00
03384              -4.40   -21000.00
03385               4.20   -21200.00
03386               0.60   -21400.00
03387              -3.80   -21400.00
03388               0.40   -21600.00
03389               3.40   -21600.00
03390              -0.60   -21800.00
03391              -1.40   -22000.00
03392               4.00   -22000.00
03393               0.20   -22200.00
03394              -4.20   -22200.00
03395               1.80   -22400.00
03396               2.00   -22400.00
03397              -1.20   -22400.00
03398               1.00   -22400.00
03399               2.60   -22600.00
03400              -0.40   -22400.00
03401              -2.20   -22600.00
03402               2.20   -22600.00
03403               1.00   -22400.00
03404              -2.20   -22600.00
03405               2.20   -22600.00
03406               2.20   -22600.00
03407              -0.80   -22600.00
03408              -0.60   -22400.00
03409               1.00   -22400.00
03410               0.60   -22400.00
03411              -1.00   -22400.00
03412               1.20   -22400.00
03413               1.00   -22400.00
03414              -0.20   -22000.00
03415               0.00   -22000.00
03416               0.40   -22000.00
03417               0.60   -21800.00
03418              -0.60   -21800.00
03419               0.40   -21600.00
03420               1.80   -21600.00
03421               0.00   -21200.00
03422              -0.20   -21200.00
03423               1.00   -21000.00
03424               0.40   -21000.00
03425              -1.00   -20800.00
03426               1.20   -20600.00
03427               0.60   -20400.00
03428               0.00   -20200.00
03429               0.80   -20000.00
03430               0.40   -19800.00
03431              -1.00   -19600.00
03432               0.40   -19400.00
03433              -0.40   -19200.00
03434               0.60   -18800.00
03435               1.00   -18600.00
03436              -0.40   -18200.00
03437               0.40   -18000.00
03438               0.60   -17800.00
03439              -0.40   -17400.00
03440              -0.60   -17200.00
03441               0.60   -17000.00
03442               0.20   -16800.00
03443              -0.60   -16400.00
03444               1.00   -16200.00
03445              -0.40   -16000.00
03446              -1.20   -15600.00
03447               0.60   -15200.00
03448               0.20   -15000.00
03449              -0.60   -14600.00
03450              -0.20   -14200.00
03451               1.00   -14000.00
03452              -0.60   -13600.00
03453              -0.80   -13200.00
03454               0.80   -12800.00
03455              -0.40   -12600.00
03456              -1.00   -12200.00
03457               1.00   -12000.00
03458              -0.40   -11400.00
03459              -1.20   -11000.00
03460               0.00   -10600.00
03461              -0.20   -10400.00
03462              -0.60    -9800.00
03463              -0.60    -9600.00
03464               0.20    -9200.00
03465              -0.20    -8800.00
03466              -0.20    -8400.00
03467              -0.40    -8000.00
03468              -0.40    -7600.00
03469              -0.20    -7200.00
03470              -0.60    -6800.00
03471              -0.60    -6400.00
03472               0.20    -6000.00
03473              -0.20    -5600.00
03474              -1.20    -5000.00
03475               0.20    -4600.00
03476              -0.20    -4200.00
03477              -1.20    -4000.00
03478              -0.40    -3400.00
03479               0.40    -3000.00
03480              -0.60    -2600.00
03481              -0.60    -2000.00
03482               0.20    -1800.00
03483              -0.60    -1200.00
03484              -1.20     -800.00
03485              -0.20     -400.00
03486               0.20     -200.00
03487               0.20      400.00
03488               1.80      800.00
03489               3.00     1200.00
03490              -2.40     1800.00
03491              -1.20     2000.00
03492               2.60     2200.00
03493              -0.20     2800.00
03494              -2.80     3000.00
03495               4.20     3600.00
03496              10.80     4000.00
03497              23.80     4600.00
03498             -13.00     5000.00
03499             -25.00     5600.00
03500               8.40     6000.00
03501              25.00     6200.00
03502             -25.00     6400.00
03503             -25.00     6800.00
03504              25.00     7400.00
03505              25.00     7800.00
03506             -25.00     8000.00
03507              25.00     8600.00
03508              25.00     8600.00
03509             -25.00     9200.00
03510              -0.60     9600.00
03511              25.00    10000.00
03512             -25.00    10400.00
03513             -23.00    10800.00
03514              25.00    11000.00
03515               5.00    11400.00
03516             -25.00    11800.00
03517              -0.20    12200.00
03518              25.00    12600.00
03519             -17.20    13200.00
03520             -19.80    13400.00
03521              24.40    13600.00
03522               5.80    14000.00
03523             -25.00    14400.00
03524              -2.80    14800.00
03525              22.20    15000.00
03526             -11.60    15600.00
03527             -12.40    15800.00
03528              21.20    16000.00
03529              -3.00    16200.00
03530             -19.60    16600.00
03531              10.80    16800.00
03532               5.80    17200.00
03533             -15.60    17400.00
03534               3.60    17600.00
03535              11.60    18000.00
03536              -9.40    18200.00
03537              -6.20    18400.00
03538               7.40    18800.00
03539              -3.80    19000.00
03540              -6.80    19200.00
03541               5.40    19600.00
03542               2.00    19600.00
03543              -5.00    19600.00
03544               0.20    20000.00
03545               0.80    20400.00
03546              -3.60    20400.00
03547              -3.00    20600.00
03548               2.80    21000.00
03549               1.00    21000.00
03550              -4.40    21200.00
03551               1.20    21200.00
03552               0.40    21400.00
03553              -4.80    21600.00
03554              -1.60    21600.00
03555               1.80    21800.00
03556              -1.00    21800.00
03557              -2.40    22200.00
03558               1.20    22000.00
03559              -1.00    22200.00
03560              -3.80    22200.00
03561              -0.40    22400.00
03562               0.40    22400.00
03563              -2.20    22400.00
03564              -1.80    22400.00
03565               1.00    22400.00
03566              -1.20    22400.00
03567              -3.80    22400.00
03568              -0.40    22400.00
03569               0.20    22400.00
03570              -2.60    22400.00
03571              -0.80    22400.00
03572               0.00    22400.00
03573              -2.00    22400.00
03574              -2.20    22400.00
03575              -0.60    22400.00
03576              -1.00    22400.00
03577              -2.00    22400.00
03578              -0.40    22200.00
03579              -0.60    22200.00
03580              -1.40    22000.00
03581              -1.80    22000.00
03582              -1.20    22000.00
03583              -1.00    21600.00
03584              -1.80    21600.00
03585              -1.00    21400.00
03586              -0.60    21200.00
03587              -1.40    21200.00
03588              -1.00    21000.00
03589              -1.00    20800.00
03590              -1.40    20800.00
03591              -1.40    20600.00
03592              -0.60    20400.00
03593              -1.00    20000.00
03594              -1.40    19800.00
03595              -1.00    19800.00
03596              -0.60    19600.00
03597              -1.40    19200.00
03598              -1.00    19200.00
03599              -1.00    19000.00
03600              -0.60    18600.00
03601              -1.20    18400.00
03602              -1.00    18200.00
03603              -1.00    17800.00
03604              -1.40    17600.00
03605              -1.20    17200.00
03606              -0.60    17000.00
03607              -0.60    16800.00
03608              -0.60    16400.00
03609              -0.60    16000.00
03610              -0.60    15800.00
03611              -0.60    15600.00
03612              -1.20    15200.00
03613              -1.00    15000.00
03614              -0.60    14600.00
03615              -1.20    14400.00
03616              -0.80    14000.00
03617              -0.60    13600.00
03618              -1.00    13200.00
03619              -1.20    12800.00
03620              -0.40    12400.00
03621              -0.60    12200.00
03622              -1.40    11800.00
03623              -0.20    11400.00
03624              -0.60    11000.00
03625              -1.20    10600.00
03626              -0.60    10200.00
03627              -0.60    10000.00
03628              -0.60     9400.00
03629              -0.60     9200.00
03630              -0.60     8800.00
03631              -1.00     8400.00
03632              -0.80     8000.00
03633              -0.80     7600.00
03634              -1.00     7200.00
03635              -1.00     6800.00
03636              -0.60     6400.00
03637              -0.40     5800.00
03638              -0.60     5600.00
03639              -0.60     5200.00
03640              -0.40     4600.00
03641              -0.60     4200.00
03642              -1.00     3800.00
03643              -0.40     3200.00
03644              -1.00     3000.00
03645              -1.20     2600.00
03646               0.20     2000.00
03647              -0.40     1800.00
03648              -1.40     1200.00
03649              -0.60      800.00
03650               0.20      400.00
03651              -1.00        0.00
03652               0.20     -400.00
03653               1.80     -800.00
03654               2.60    -1200.00
03655              -2.20    -1600.00
03656              -1.20    -2000.00
03657               2.00    -2400.00
03658              -0.20    -2600.00
03659              -2.20    -3000.00
03660               7.40    -3400.00
03661              25.00    -4000.00
03662               4.80    -4800.00
03663             -25.00    -5200.00
03664              -2.20    -5600.00
03665              25.00    -5800.00
03666             -25.00    -6200.00
03667             -25.00    -6200.00
03668              25.00    -7000.00
03669              -3.80    -7400.00
03670             -25.00    -7400.00
03671              25.00    -8400.00
03672              25.00    -8400.00
03673             -25.00    -9000.00
03674              25.00    -9600.00
03675              25.00    -9600.00
03676             -25.00   -10000.00
03677              20.40   -10600.00
03678              14.00   -10800.00
03679              14.40   -11400.00
03680             -25.00   -11600.00
03681              -2.40   -12000.00
03682              25.00   -12400.00
03683             -25.00   -12600.00
03684              -7.80   -13200.00
03685              25.00   -13200.00
03686              -5.40   -14000.00
03687             -25.00   -14400.00
03688               6.80   -14400.00
03689              25.00   -14800.00
03690             -25.00   -15000.00
03691              -2.00   -15600.00
03692              25.00   -15800.00
03693             -21.80   -16000.00
03694             -11.60   -16400.00
03695              17.80   -16600.00
03696              -1.40   -17000.00
03697             -13.80   -17200.00
03698              11.00   -17400.00
03699               9.40   -17800.00
03700             -11.40   -18000.00
03701               1.40   -18400.00
03702               5.40   -18600.00
03703              -4.60   -18800.00
03704              -3.60   -19000.00
03705               7.40   -19400.00
03706               1.20   -19400.00
03707              -2.20   -19600.00
03708               2.20   -20000.00
03709               0.20   -20000.00
03710              -2.00   -20400.00
03711              -3.40   -20400.00
03712               6.40   -20800.00
03713               1.00   -20800.00
03714              -4.20   -21000.00
03715               5.20   -21000.00
03716              -0.40   -21400.00
03717              -4.40   -21600.00
03718               1.40   -21600.00
03719               3.80   -21800.00
03720              -1.40   -21800.00
03721              -0.60   -22000.00
03722               5.20   -22000.00
03723              -2.00   -22200.00
03724              -4.40   -22400.00
03725               3.40   -22400.00
03726               1.60   -22400.00
03727              -2.20   -22400.00
03728               2.00   -22400.00
03729               2.80   -22600.00
03730              -1.20   -22400.00
03731              -2.20   -22600.00
03732               2.80   -22600.00
03733               0.40   -22400.00
03734              -1.80   -22400.00
03735               2.80   -22600.00
03736               1.20   -22400.00
03737              -0.80   -22600.00
03738              -0.60   -22600.00
03739               1.00   -22400.00
03740               1.00   -22400.00
03741              -0.40   -22400.00
03742               0.40   -22200.00
03743               1.20   -22400.00
03744               1.00   -22200.00
03745              -1.20   -22000.00
03746               0.20   -21800.00
03747               2.00   -22000.00
03748              -0.80   -21600.00
03749              -0.20   -21600.00
03750               2.20   -21400.00
03751               0.60   -21400.00
03752              -1.00   -21200.00
03753              -0.60   -21000.00
03754               2.20   -21000.00
03755               0.60   -20600.00
03756              -3.00   -20600.00
03757               2.00   -20200.00
03758               3.40   -20000.00
03759              -3.40   -20000.00
03760               0.20   -19600.00
03761               3.40   -19600.00
03762              -2.80   -19400.00
03763              -1.20   -19200.00
03764               3.40   -18800.00
03765              -0.20   -18600.00
03766              -2.80   -18400.00
03767               2.60   -18000.00
03768               0.20   -17800.00
03769              -1.40   -17400.00
03770               0.40   -17200.00
03771               0.40   -17000.00
03772               0.60   -16600.00
03773              -1.00   -16200.00
03774              -0.40   -16200.00
03775               1.80   -15800.00
03776              -1.20   -15600.00
03777              -0.60   -15200.00
03778               0.60   -14800.00
03779              -0.40   -14600.00
03780              -1.20   -14400.00
03781               1.60   -13800.00
03782               0.20   -13600.00
03783              -2.20   -13200.00
03784               0.60   -12800.00
03785               0.40   -12600.00
03786              -1.20   -12200.00
03787              -0.40   -11600.00
03788               0.20   -11400.00
03789              -0.20   -11000.00
03790              -0.60   -10600.00
03791               0.40   -10200.00
03792               0.00   -10000.00
03793              -2.00    -9400.00
03794               0.40    -9200.00
03795               0.80    -8800.00
03796              -1.20    -8200.00
03797              -0.20    -8000.00
03798               0.20    -7600.00
03799              -0.20    -7200.00
03800              -0.60    -6800.00
03801              -0.60    -6200.00
03802               0.60    -5800.00
03803               0.20    -5600.00
03804              -1.80    -5000.00
03805               0.00    -4600.00
03806               0.60    -4200.00
03807              -2.60    -3600.00
03808              -0.60    -3400.00
03809               2.20    -3000.00
03810              -1.20    -2400.00
03811              -1.20    -2000.00
03812               1.20    -1800.00
03813              -0.40    -1200.00
03814              -2.60     -800.00
03815              -0.20     -400.00
03816               0.60        0.00
03817              -0.60      400.00
03818               2.00      800.00
03819               3.40     1400.00
03820              -2.60     1800.00
03821              -1.00     1800.00
03822               3.20     2400.00
03823               0.20     2800.00
03824              -3.40     3200.00
03825               5.20     3600.00
03826              14.00     4000.00
03827              22.00     4600.00
03828             -25.00     5200.00
03829             -25.00     5600.00
03830              19.60     6000.00
03831              19.40     6200.00
03832             -25.00     6400.00
03833             -18.80     6800.00
03834              25.00     7600.00
03835              10.60     7800.00
03836             -25.00     8200.00
03837              25.00     8600.00
03838              25.00     8800.00
03839             -25.00     9200.00
03840              25.00    10000.00
03841              25.00    10000.00
03842             -25.00    10400.00
03843              -7.60    10800.00
03844              25.00    11000.00
03845              -5.40    11600.00
03846             -25.00    12000.00
03847              10.60    12400.00
03848              25.00    12800.00
03849             -25.00    13200.00
03850             -11.40    13400.00
03851              25.00    13600.00
03852              -1.40    14400.00
03853             -25.00    14600.00
03854               4.40    14800.00
03855              19.80    15200.00
03856             -17.40    15400.00
03857              -5.40    15600.00
03858              21.40    16000.00
03859             -10.60    16400.00
03860             -15.00    16600.00
03861              14.00    16800.00
03862               1.00    17200.00
03863             -15.00    17600.00
03864               8.20    17600.00
03865               8.60    18200.00
03866             -11.60    18400.00
03867              -3.00    18400.00
03868               7.60    18800.00
03869              -6.20    19000.00
03870              -4.60    19200.00
03871               6.80    19600.00
03872              -0.60    19800.00
03873              -4.40    19800.00
03874               1.00    20000.00
03875               0.00    20000.00
03876              -4.40    20400.00
03877              -2.00    20600.00
03878               3.40    20800.00
03879              -1.20    21200.00
03880              -3.60    21200.00
03881               2.00    21200.00
03882              -0.40    21600.00
03883              -5.40    21400.00
03884               0.00    21600.00
03885               1.80    21800.00
03886              -2.60    22000.00
03887              -1.80    22000.00
03888               2.00    22200.00
03889              -2.20    22000.00
03890              -3.80    22200.00
03891               1.20    22400.00
03892              -0.60    22200.00
03893              -3.00    22400.00
03894              -0.20    22400.00
03895               1.00    22400.00
03896              -3.00    22400.00
03897              -3.00    22400.00
03898               1.00    22400.00
03899              -1.40    22400.00
03900              -2.20    22400.00
03901               0.60    22400.00
03902              -0.40    22400.00
03903              -2.20    22400.00
03904              -1.20    22400.00
03905              -0.60    22400.00
03906              -1.80    22400.00
03907              -1.80    22200.00
03908              -0.40    22200.00
03909              -1.20    22000.00
03910              -1.40    22000.00
03911              -2.00    22000.00
03912              -1.20    21800.00
03913              -0.20    21600.00
03914              -2.20    21600.00
03915              -1.20    21400.00
03916               0.00    21200.00
03917              -1.80    21200.00
03918              -1.60    20800.00
03919               0.20    20800.00
03920              -1.20    20600.00
03921              -2.60    20400.00
03922               1.00    20200.00
03923              -0.40    20200.00
03924              -2.80    19800.00
03925              -1.00    19800.00
03926               0.20    19400.00
03927              -2.20    19200.00
03928              -1.80    19000.00
03929               0.40    18800.00
03930              -0.60    18400.00
03931              -2.00    18400.00
03932               0.20    18000.00
03933              -0.40    17600.00
03934              -1.80    17400.00
03935              -1.00    17200.00
03936              -0.40    17000.00
03937              -1.00    16600.00
03938              -1.20    16400.00
03939              -0.60    16000.00
03940              -0.60    15800.00
03941              -0.60    15600.00
03942              -1.20    15200.00
03943              -0.60    14800.00
03944              -0.60    14400.00
03945              -0.60    14200.00
03946              -1.00    13800.00
03947              -1.00    13600.00
03948              -0.60    13200.00
03949              -1.00    12800.00
03950              -1.20    12400.00
03951              -0.20    12200.00
03952              -0.60    11600.00
03953              -1.20    11200.00
03954              -0.20    10800.00
03955              -1.20    10400.00
03956              -1.00    10200.00
03957              -1.00     9800.00
03958              -0.60     9400.00
03959              -0.40     9000.00
03960              -1.20     8600.00
03961              -0.60     8400.00
03962              -0.40     7800.00
03963              -1.20     7400.00
03964              -0.60     7000.00
03965              -0.40     6600.00
03966              -1.20     6200.00
03967              -0.60     5800.00
03968               0.40     5400.00
03969              -2.20     4800.00
03970              -1.00     4400.00
03971               0.40     4200.00
03972              -2.20     3600.00
03973              -1.20     3200.00
03974               1.40     2800.00
03975              -1.80     2400.00
03976              -1.60     2000.00
03977               1.00     1600.00
03978              -1.00     1200.00
03979              -2.20      800.00
03980               0.60      400.00
03981               0.40        0.00
03982              -1.80     -400.00
03983               2.60     -800.00
03984               3.00    -1400.00
03985              -4.40    -1600.00
03986              -0.20    -2000.00
03987               3.00    -2200.00
03988              -2.20    -2800.00
03989              -1.20    -3000.00
03990              11.00    -3400.00
03991              25.00    -4200.00
03992             -11.00    -5000.00
03993             -25.00    -5400.00
03994              12.40    -5600.00
03995              25.00    -6000.00
03996             -25.00    -6000.00
03997             -13.80    -6200.00
03998              25.00    -7200.00
03999             -25.00    -7200.00
04000             -25.00    -7800.00
04001              25.00    -8400.00
04002             -12.40    -8600.00
04003             -25.00    -9200.00
04004              25.00    -9600.00
04005              -4.20    -9600.00
04006             -25.00   -10200.00
04007              23.60   -10400.00
04008              11.80   -11000.00
04009              10.60   -11400.00
04010             -25.00   -11600.00
04011              16.40   -12200.00
04012              25.00   -12400.00
04013             -25.00   -12600.00
04014               7.00   -13400.00
04015              25.00   -13200.00
04016             -13.80   -14000.00
04017             -25.00   -14400.00
04018              16.80   -14600.00
04019              22.80   -15000.00
04020             -25.00   -15200.00
04021              12.60   -15600.00
04022              25.00   -15600.00
04023             -25.00   -16000.00
04024              -2.80   -16600.00
04025              17.40   -16800.00
04026              -6.80   -17000.00
04027             -10.80   -17200.00
04028              14.60   -17600.00
04029               4.20   -17800.00
04030             -11.60   -18200.00
04031               4.40   -18400.00
04032               3.80   -18600.00
04033              -7.40   -19000.00
04034              -1.00   -19200.00
04035               9.00   -19200.00
04036              -2.00   -19600.00
04037              -1.40   -19800.00
04038               3.40   -20000.00
04039              -0.40   -20200.00
04040              -2.80   -20400.00
04041              -1.80   -20400.00
04042               7.00   -20800.00
04043              -1.60   -20800.00
04044              -2.20   -21000.00
04045               5.40   -21200.00
04046              -2.40   -21200.00
04047              -3.40   -21600.00
04048               2.60   -21600.00
04049               2.60   -21600.00
04050              -2.60   -22000.00
04051               1.20   -22000.00
04052               4.60   -22000.00
04053              -3.00   -22200.00
04054              -2.60   -22400.00
04055               3.60   -22400.00
04056               0.00   -22400.00
04057              -1.40   -22400.00
04058               2.60   -22400.00
04059               1.80   -22600.00
04060              -2.20   -22400.00
04061              -0.60   -22600.00
04062               2.80   -22600.00
04063              -1.20   -22400.00
04064              -0.60   -22600.00
04065               3.00   -22400.00
04066               0.40   -22600.00
04067              -0.80   -22600.00
04068              -0.20   -22600.00
04069               1.00   -22400.00
04070              -0.20   -22400.00
04071               0.00   -22200.00
04072               1.80   -22200.00
04073               0.40   -22400.00
04074               0.40   -22000.00
04075               0.40   -22000.00
04076              -0.20   -21800.00
04077               0.20   -21800.00
04078              -0.40   -21600.00
04079               0.80   -21600.00
04080               0.40   -21600.00
04081               0.40   -21200.00
04082               1.00   -21200.00
04083               0.40   -21000.00
04084              -0.60   -20800.00
04085               0.60   -20800.00
04086               1.00   -20400.00
04087              -1.20   -20200.00
04088               0.40   -20200.00
04089               2.00   -20000.00
04090              -1.40   -19600.00
04091              -0.40   -19600.00
04092               1.80   -19200.00
04093              -1.20   -19200.00
04094              -0.60   -18800.00
04095               2.60   -18400.00
04096              -0.60   -18400.00
04097              -2.60   -18000.00
04098               1.20   -17800.00
04099               1.20   -17400.00
04100              -1.40   -17200.00
04101               0.20   -17000.00
04102               0.60   -16800.00
04103              -0.20   -16200.00
04104               0.60   -16200.00
04105               0.20   -15600.00
04106              -1.20   -15400.00
04107               0.00   -15200.00
04108               0.60   -14800.00
04109              -0.40   -14400.00
04110              -0.60   -14200.00
04111               0.20   -13800.00
04112               0.20   -13600.00
04113              -0.40   -13200.00
04114              -0.60   -12800.00
04115              -0.20   -12400.00
04116               1.20   -12200.00
04117              -0.40   -11600.00
04118              -1.20   -11400.00
04119               1.20   -11000.00
04120              -0.40   -10600.00
04121              -1.20   -10200.00
04122               0.80    -9800.00
04123               0.20    -9400.00
04124              -1.20    -9000.00
04125               0.40    -8800.00
04126               0.20    -8200.00
04127              -1.00    -8000.00
04128              -1.00    -7400.00
04129               0.40    -7000.00
04130              -0.40    -6600.00
04131              -1.00    -6400.00
04132               0.20    -5800.00
04133               1.00    -5600.00
04134              -1.20    -4800.00
04135              -0.60    -4400.00
04136              -0.20    -4200.00
04137              -0.60    -3600.00
04138              -0.60    -3200.00
04139              -0.40    -2800.00
04140              -0.20    -2600.00
04141              -0.60    -2000.00
04142              -0.60    -1600.00
04143              -0.40    -1200.00
04144              -0.60     -800.00
04145              -0.60     -200.00
04146               0.40        0.00
04147               0.60      400.00
04148               2.60      800.00
04149               0.60     1400.00
04150              -2.20     1800.00
04151               0.60     2000.00
04152               2.20     2400.00
04153              -1.20     2800.00
04154              -1.60     3200.00
04155               6.00     3600.00
04156              16.20     4000.00
04157              18.60     4800.00
04158             -25.00     5200.00
04159             -25.00     5600.00
04160              25.00     6000.00
04161               8.80     6200.00
04162             -25.00     6600.00
04163              -2.20     7000.00
04164              25.00     7600.00
04165             -20.40     7800.00
04166             -25.00     8400.00
04167              25.00     8600.00
04168              20.40     8800.00
04169             -25.00     9400.00
04170              25.00     9800.00
04171              25.00    10000.00
04172             -25.00    10400.00
04173               5.80    10800.00
04174              25.00    11200.00
04175             -13.00    11600.00
04176             -25.00    12000.00
04177              19.60    12400.00
04178              25.00    12800.00
04179             -25.00    13200.00
04180              -4.40    13400.00
04181              25.00    14000.00
04182              -7.80    14400.00
04183             -24.60    14600.00
04184              10.60    14800.00
04185              16.60    15200.00
04186             -21.40    15600.00
04187               0.20    15800.00
04188              20.40    16200.00
04189             -15.60    16400.00
04190             -10.80    16800.00
04191              15.40    16800.00
04192              -3.60    17200.00
04193             -13.40    17400.00
04194              11.80    17800.00
04195               5.80    18200.00
04196             -13.00    18200.00
04197               0.20    18400.00
04198               6.60    18800.00
04199              -8.40    19200.00
04200              -3.00    19200.00
04201               7.40    19600.00
04202              -2.20    19800.00
04203              -4.20    20000.00
04204               1.80    20000.00
04205              -0.60    20400.00
04206              -4.60    20400.00
04207              -1.40    21000.00
04208               3.60    20800.00
04209              -1.80    21000.00
04210              -3.40    21200.00
04211               2.00    21200.00
04212              -1.00    21400.00
04213              -4.60    21600.00
04214              -0.20    21800.00
04215               2.20    21800.00
04216              -2.00    21800.00
04217              -2.20    22000.00
04218               1.40    22000.00
04219              -2.20    22200.00
04220              -4.20    22200.00
04221               0.40    22200.00
04222               0.40    22400.00
04223              -2.60    22400.00
04224              -1.00    22400.00
04225               1.40    22400.00
04226              -2.20    22400.00
04227              -3.60    22400.00
04228               0.60    22400.00
04229              -0.60    22400.00
04230              -2.60    22400.00
04231              -0.40    22400.00
04232              -0.20    22400.00
04233              -2.20    22400.00
04234              -1.80    22200.00
04235               0.00    22400.00
04236              -1.60    22200.00
04237              -1.80    22200.00
04238               0.00    22000.00
04239              -0.60    22200.00
04240              -2.00    22000.00
04241              -1.40    22000.00
04242              -1.00    22000.00
04243              -1.20    21600.00
04244              -1.60    21600.00
04245              -0.60    21400.00
04246              -0.40    21200.00
04247              -1.40    21200.00
04248              -1.20    20800.00
04249              -1.00    20800.00
04250              -1.80    20600.00
04251              -2.00    20400.00
04252               0.40    20400.00
04253              -1.00    20000.00
04254              -1.80    20000.00
04255              -0.40    19600.00
04256              -1.00    19400.00
04257              -2.00    19200.00
04258              -0.80    19000.00
04259              -0.40    18800.00
04260              -1.20    18600.00
04261              -1.20    18200.00
04262              -0.40    18000.00
04263              -1.20    17800.00
04264              -1.80    17400.00
04265              -0.60    17200.00
04266              -0.60    16800.00
04267              -1.00    16600.00
04268              -0.60    16400.00
04269              -0.60    16000.00
04270              -1.00    15600.00
04271              -1.00    15600.00
04272              -1.20    15200.00
04273              -1.00    14800.00
04274               0.00    14600.00
04275              -1.20    14200.00
04276              -1.00    13600.00
04277               0.40    13400.00
04278              -2.00    13200.00
04279              -1.20    12800.00
04280               0.40    12400.00
04281              -1.60    12200.00
04282              -1.40    11600.00
04283               0.40    11200.00
04284              -0.60    10800.00
04285              -1.80    10400.00
04286              -0.20    10000.00
04287              -0.40     9800.00
04288              -1.40     9400.00
04289              -0.60     9000.00
04290              -0.60     8600.00
04291              -1.20     8200.00
04292              -0.60     7600.00
04293              -0.40     7600.00
04294              -1.00     7000.00
04295              -0.80     6600.00
04296              -0.60     6200.00
04297              -1.00     5600.00
04298              -0.60     5400.00
04299              -1.20     4800.00
04300              -0.80     4400.00
04301              -0.60     4000.00
04302              -0.60     3600.00
04303              -1.00     3200.00
04304              -0.60     2800.00
04305              -0.20     2400.00
04306              -0.60     2000.00
04307              -0.40     1400.00
04308              -0.60     1000.00
04309              -1.20      800.00
04310              -0.20      400.00
04311              -0.20     -200.00
04312              -0.20     -600.00
04313               2.60    -1000.00
04314               1.80    -1400.00
04315              -2.80    -1800.00
04316              -0.60    -2200.00
04317               2.60    -2600.00
04318              -1.60    -3000.00
04319              -0.40    -3200.00
04320              13.20    -3600.00
04321              25.00    -4400.00
04322             -25.00    -5000.00
04323             -25.00    -5400.00
04324              25.00    -5800.00
04325              22.60    -6000.00
04326             -25.00    -6200.00
04327              17.20    -6400.00
04328              25.00    -7400.00
04329             -25.00    -7200.00
04330             -25.00    -8000.00
04331              25.00    -8400.00
04332             -25.00    -8600.00
04333             -25.00    -9200.00
04334              25.00    -9600.00
04335             -25.00    -9600.00
04336             -23.40   -10400.00
04337              23.60   -10600.00
04338              11.40   -11200.00
04339               3.40   -11600.00
04340             -25.00   -11600.00
04341              25.00   -12200.00
04342              25.00   -12600.00
04343             -25.00   -12800.00
04344              18.60   -13200.00
04345              25.00   -13600.00
04346             -18.80   -14200.00
04347             -24.60   -14400.00
04348              25.00   -14600.00
04349              13.40   -15000.00
04350             -25.00   -15200.00
04351              24.40   -15600.00
04352              18.80   -16000.00
04353             -25.00   -16200.00
04354               3.80   -16600.00
04355              15.40   -16800.00
04356             -10.20   -17000.00
04357              -7.40   -17400.00
04358              17.00   -17600.00
04359              -0.40   -18000.00
04360             -10.00   -18200.00
04361               5.80   -18400.00
04362               2.00   -18800.00
04363              -7.00   -19000.00
04364               1.00   -19200.00
04365               8.40   -19400.00
04366              -2.80   -19600.00
04367              -0.60   -20000.00
04368               2.20   -20000.00
04369              -0.20   -20400.00
04370              -3.60   -20200.00
04371              -0.40   -20600.00
04372               7.00   -20800.00
04373              -3.40   -21000.00
04374              -0.60   -21000.00
04375               5.00   -21200.00
04376              -2.80   -21600.00
04377              -2.20   -21600.00
04378               2.60   -21600.00
04379               2.40   -21800.00
04380              -2.00   -22000.00
04381               1.40   -22000.00
04382               3.60   -22000.00
04383              -3.40   -22400.00
04384              -1.60   -22400.00
04385               3.80   -22400.00
04386              -0.40   -22400.00
04387              -1.00   -22400.00
04388               2.60   -22400.00
04389               1.00   -22600.00
04390              -2.00   -22600.00
04391              -0.20   -22400.00
04392               2.20   -22600.00
04393              -0.60   -22400.00
04394              -0.20   -22600.00
04395               2.00   -22400.00
04396               0.60   -22600.00
04397              -0.60   -22400.00
04398              -0.40   -22400.00
04399               1.80   -22600.00
04400              -0.40   -22400.00
04401               0.20   -22400.00
04402               2.00   -22200.00
04403               0.20   -22200.00
04404              -0.40   -22000.00
04405               0.40   -22000.00
04406               0.60   -21800.00
04407              -0.20   -22000.00
04408               0.20   -21600.00
04409               1.80   -21600.00
04410               0.40   -21600.00
04411              -0.40   -21200.00
04412               0.60   -21200.00
04413               0.20   -21000.00
04414              -0.40   -20800.00
04415               0.20   -20600.00
04416               1.00   -20400.00
04417              -0.40   -20200.00
04418               0.20   -20200.00
04419               0.60   -20000.00
04420              -0.20   -19600.00
04421              -0.80   -19600.00
04422               0.40   -19400.00
04423               0.20   -19000.00
04424              -0.20   -18800.00
04425               0.40   -18600.00
04426               0.40   -18400.00
04427               0.20   -18000.00
04428              -0.40   -17800.00
04429               0.20   -17400.00
04430               0.00   -17200.00
04431               0.40   -17000.00
04432              -0.40   -16600.00
04433              -0.20   -16400.00
04434               0.40   -16000.00
04435              -0.40   -15600.00
04436              -0.60   -15400.00
04437               0.40   -15200.00
04438               0.20   -14800.00
04439              -0.60   -14600.00
04440               0.20   -14200.00
04441               0.40   -13800.00
04442              -0.60   -13400.00
04443               0.20   -13000.00
04444               0.20   -12800.00
04445              -0.20   -12400.00
04446              -0.20   -12000.00
04447              -0.20   -11600.00
04448               0.00   -11200.00
04449              -0.20   -10800.00
04450              -1.00   -10400.00
04451               0.20   -10000.00
04452               0.40    -9800.00
04453              -1.80    -9400.00
04454               0.40    -9000.00
04455               0.60    -8600.00
04456              -1.00    -8200.00
04457              -0.20    -8000.00
04458               0.20    -7400.00
04459              -0.60    -7000.00
04460              -0.60    -6400.00
04461              -0.40    -6200.00
04462               0.40    -5600.00
04463              -0.60    -5600.00
04464              -0.60    -4800.00
04465               0.20    -4400.00
04466              -0.20    -4000.00
04467              -1.00    -3600.00
04468              -0.20    -3200.00
04469              -0.20    -2800.00
04470              -0.40    -2400.00
04471              -0.60    -2000.00
04472              -0.20    -1600.00
04473              -0.60    -1000.00
04474              -0.60     -800.00
04475              -0.40     -200.00
04476               0.40      400.00
04477               0.60      600.00
04478               3.20      800.00
04479              -0.60     1400.00
04480              -2.20     1800.00
04481               1.20     2000.00
04482               1.00     2600.00
04483              -2.20     2800.00
04484               0.00     3200.00
04485               6.80     3600.00
04486              18.80     4400.00
04487              13.20     4800.00
04488             -25.00     5400.00
04489             -22.20     5600.00
04490              25.00     6200.00
04491              -2.80     6200.00
04492             -25.00     6400.00
04493              15.80     7200.00
04494              25.00     7800.00
04495             -25.00     7800.00
04496             -25.00     8400.00
04497              25.00     8600.00
04498             -17.40     8800.00
04499             -25.00     9400.00
04500              25.00     9600.00
04501              15.60    10200.00
04502             -25.00    10600.00
04503              18.60    10800.00
04504              25.00    11200.00
04505             -22.40    11600.00
04506             -25.00    12000.00
04507              25.00    12400.00
04508              14.80    12800.00
04509             -25.00    13400.00
04510               6.00    13600.00
04511              24.80    13800.00
04512             -17.00    14400.00
04513             -20.20    14600.00
04514              18.60    15000.00
04515               7.80    15200.00
04516             -23.00    15800.00
04517              10.20    15800.00
04518              15.80    16000.00
04519             -21.60    16400.00
04520              -3.00    16800.00
04521              15.60    17000.00
04522              -9.40    17200.00
04523              -9.20    17600.00
04524              14.00    18000.00
04525              -0.20    18200.00
04526             -12.40    18400.00
04527               4.20    18600.00
04528               3.60    19000.00
04529              -9.20    19200.00
04530               0.60    19200.00
04531               6.60    19600.00
04532              -4.40    19800.00
04533              -2.60    20000.00
04534               1.80    20200.00
04535              -1.40    20400.00
04536              -5.00    20600.00
04537               0.40    20800.00
04538               3.80    21000.00
04539              -3.60    21000.00
04540              -2.00    21200.00
04541               2.60    21400.00
04542              -3.00    21400.00
04543              -4.40    21600.00
04544               1.20    21600.00
04545               1.00    21800.00
04546              -3.40    22000.00
04547              -0.40    22000.00
04548               1.40    22000.00
04549              -3.60    22200.00
04550              -2.80    22200.00
04551               1.40    22400.00
04552              -1.20    22200.00
04553              -2.80    22400.00
04554               0.20    22400.00
04555               0.60    22400.00
04556              -3.40    22400.00
04557              -2.20    22400.00
04558               1.00    22400.00
04559              -1.80    22600.00
04560              -1.20    22400.00
04561              -0.20    22400.00
04562              -1.20    22400.00
04563              -1.80    22400.00
04564              -1.20    22400.00
04565              -0.80    22400.00
04566              -1.80    22400.00
04567              -0.80    22200.00
04568              -0.20    22200.00
04569              -1.00    22000.00
04570              -1.40    22000.00
04571              -1.40    21600.00
04572              -1.00    21600.00
04573              -0.60    21600.00
04574              -1.80    21400.00
04575              -1.00    21400.00
04576               0.40    21200.00
04577              -1.40    21200.00
04578              -1.80    21000.00
04579              -0.20    20800.00
04580              -1.20    20600.00
04581              -2.00    20600.00
04582               0.60    20200.00
04583              -0.60    20000.00
04584              -2.00    19800.00
04585               0.00    19600.00
04586              -0.60    19600.00
04587              -2.20    19200.00
04588              -0.40    19000.00
04589              -0.60    18800.00
04590              -1.60    18400.00
04591              -0.40    18200.00
04592              -0.40    17800.00
04593              -1.80    17800.00
04594              -1.00    17400.00
04595              -0.60    17200.00
04596              -1.00    16800.00
04597              -0.40    16600.00
04598              -0.40    16400.00
04599              -1.00    16000.00
04600              -0.60    15600.00
04601              -1.20    15600.00
04602              -1.40    15000.00
04603              -0.60    14800.00
04604              -0.80    14400.00
04605              -1.20    14200.00
04606              -0.60    13600.00
04607              -0.60    13400.00
04608              -1.20    13000.00
04609              -0.60    12800.00
04610              -0.20    12400.00
04611              -1.20    12000.00
04612              -1.00    11600.00
04613              -0.40    11200.00
04614              -1.00    10800.00
04615              -0.60    10400.00
04616              -1.20    10000.00
04617              -1.40     9600.00
04618               0.20     9400.00
04619               0.40     8800.00
04620              -2.60     8600.00
04621              -1.00     8200.00
04622               0.40     7800.00
04623              -2.00     7400.00
04624              -1.20     7000.00
04625               0.40     6800.00
04626              -1.40     6200.00
04627              -1.00     5600.00
04628               0.80     5200.00
04629              -1.00     4800.00
04630              -1.40     4400.00
04631              -0.20     4000.00
04632              -0.80     3600.00
04633              -0.60     3200.00
04634               0.40     2800.00
04635              -2.20     2200.00
04636              -1.20     2000.00
04637               1.80     1600.00
04638              -1.20      800.00
04639              -1.40      600.00
04640               1.20      400.00
04641              -0.20     -200.00
04642              -0.60     -600.00
04643               3.80    -1000.00
04644               0.20    -1400.00
04645              -4.00    -1800.00
04646               1.80    -2200.00
04647               2.60    -2600.00
04648              -3.20    -2800.00
04649               1.80    -3200.00
04650              17.20    -3600.00
04651              25.00    -4400.00
04652             -25.00    -5000.00
04653             -25.00    -5600.00
04654              25.00    -5800.00
04655               9.00    -6200.00
04656             -25.00    -6000.00
04657              25.00    -6600.00
04658              25.00    -7400.00
04659             -25.00    -7000.00
04660              22.00    -8000.00
04661              25.00    -8400.00
04662             -25.00    -8800.00
04663             -16.00    -9400.00
04664              25.00    -9200.00
04665             -25.00    -9800.00
04666              -6.60   -10400.00
04667              22.20   -10600.00
04668              12.80   -11200.00
04669              -8.40   -11600.00
04670             -25.00   -11600.00
04671              25.00   -12400.00
04672               7.40   -12400.00
04673             -25.00   -13000.00
04674              25.00   -13400.00
04675              18.60   -13600.00
04676             -24.40   -14200.00
04677             -17.40   -14400.00
04678              25.00   -14800.00
04679              -0.20   -15200.00
04680             -25.00   -15200.00
04681              25.00   -15600.00
04682               6.20   -16000.00
04683             -25.00   -16400.00
04684              10.20   -16600.00
04685              11.40   -16800.00
04686             -13.80   -17000.00
04687              -1.40   -17200.00
04688              16.40   -17600.00
04689              -4.60   -17800.00
04690              -7.40   -18400.00
04691               7.80   -18600.00
04692              -0.20   -18800.00
04693              -7.80   -19000.00
04694               3.80   -19200.00
04695               6.80   -19400.00
04696              -4.40   -19600.00
04697               1.20   -20000.00
04698               2.00   -20000.00
04699              -1.00   -20200.00
04700              -3.40   -20200.00
04701               1.80   -20600.00
04702               6.00   -20800.00
04703              -4.40   -21000.00
04704               2.00   -21000.00
04705               3.60   -21200.00
04706              -3.80   -21400.00
04707              -1.40   -21600.00
04708               3.60   -21600.00
04709               1.20   -21800.00
04710              -2.60   -22000.00
04711               3.60   -22000.00
04712               3.00   -22000.00
04713              -4.60   -22200.00
04714               0.40   -22400.00
04715               3.40   -22400.00
04716              -1.40   -22400.00
04717               0.40   -22400.00
04718               3.00   -22600.00
04719               0.60   -22600.00
04720              -2.20   -22600.00
04721               1.20   -22600.00
04722               2.20   -22600.00
04723              -2.00   -22400.00
04724               0.60   -22600.00
04725               3.00   -22600.00
04726              -0.40   -22600.00
04727              -1.00   -22600.00
04728               0.40   -22600.00
04729               1.80   -22400.00
04730              -1.00   -22400.00
04731               0.60   -22400.00
04732               1.80   -22200.00
04733               0.40   -22200.00
04734              -0.40   -22000.00
04735               0.20   -22000.00
04736               1.20   -21800.00
04737              -0.60   -21800.00
04738              -0.60   -21600.00
04739               2.60   -21400.00
04740               0.40   -21600.00
04741              -1.00   -21200.00
04742               1.00   -21000.00
04743               0.40   -21000.00
04744              -0.40   -20800.00
04745              -0.40   -20800.00
04746               1.20   -20400.00
04747               0.40   -20200.00
04748              -0.40   -20200.00
04749               0.60   -19600.00
04750               1.00   -19600.00
04751              -1.00   -19400.00
04752              -0.40   -19200.00
04753               1.20   -19000.00
04754               0.40   -18600.00
04755              -0.40   -18400.00
04756               0.80   -18400.00
04757              -0.20   -18000.00
04758              -0.20   -17600.00
04759              -0.40   -17400.00
04760               0.20   -17200.00
04761               0.60   -16800.00
04762              -0.40   -16400.00
04763              -0.20   -16200.00
04764               0.40   -16000.00
04765              -1.20   -15600.00
04766              -0.20   -15400.00
04767               1.00   -15000.00
04768              -0.60   -14800.00
04769               0.00   -14400.00
04770               1.00   -14000.00
04771               0.20   -13600.00
04772              -0.60   -13400.00
04773               0.40   -13000.00
04774              -0.60   -12800.00
04775              -0.60   -12200.00
04776               0.40   -11800.00
04777              -0.20   -11400.00
04778              -0.40   -11400.00
04779               0.20   -10800.00
04780              -0.20   -10400.00
04781              -0.40   -10000.00
04782               0.40    -9800.00
04783              -0.60    -9200.00
04784              -0.20    -9000.00
04785               0.20    -8400.00
04786              -0.40    -8200.00
04787              -0.40    -7600.00
04788              -0.40    -7400.00
04789               0.20    -6800.00
04790              -0.60    -6600.00
04791              -0.40    -6000.00
04792               1.00    -5800.00
04793              -1.40    -5200.00
04794              -0.60    -4600.00
04795               0.00    -4200.00
04796              -0.60    -4000.00
04797              -0.40    -3400.00
04798               0.40    -3200.00
04799              -0.40    -2800.00
04800               0.20    -2400.00
04801              -0.40    -1800.00
04802              -0.60    -1400.00
04803              -1.00    -1000.00
04804              -0.40     -400.00
04805              -1.20     -200.00
04806               0.20      400.00
04807               0.80      600.00
04808               3.00     1200.00
04809              -1.20     1400.00
04810              -2.60     1600.00
04811               2.60     2200.00
04812               1.20     2600.00
04813              -2.80     2800.00
04814               0.60     3200.00
04815               9.00     3800.00
04816              21.80     4600.00
04817               3.40     4800.00
04818             -25.00     5400.00
04819             -10.20     5600.00
04820              25.00     6200.00
04821             -14.80     6400.00
04822             -25.00     6600.00
04823              25.00     7200.00
04824              25.00     7600.00
04825             -25.00     7800.00
04826             -18.20     8400.00
04827              25.00     8600.00
04828             -25.00     9000.00
04829             -25.00     9600.00
04830              25.00    10000.00
04831              -8.60    10400.00
04832             -25.00    10800.00
04833              25.00    10800.00
04834              21.40    11200.00
04835             -25.00    11600.00
04836             -18.80    12000.00
04837              25.00    12600.00
04838               2.20    12800.00
04839             -25.00    13400.00
04840              14.60    13600.00
04841              19.40    14000.00
04842             -21.80    14400.00
04843             -14.60    14600.00
04844              22.60    15000.00
04845               0.80    15400.00
04846             -21.80    15600.00
04847              15.60    16000.00
04848               9.80    16200.00
04849             -23.40    16600.00
04850               3.60    16800.00
04851              13.40    17000.00
04852             -13.80    17200.00
04853              -4.20    17600.00
04854              14.80    18000.00
04855              -5.20    18200.00
04856             -10.80    18400.00
04857               6.80    18800.00
04858               0.40    19000.00
04859              -8.60    19200.00
04860               3.40    19600.00
04861               4.60    19600.00
04862              -5.00    19800.00
04863              -1.00    20000.00
04864               1.40    20000.00
04865              -2.80    20400.00
04866              -3.60    20600.00
04867               1.20    20800.00
04868               2.00    21000.00
04869              -3.60    21200.00
04870              -1.00    21200.00
04871               1.40    21200.00
04872              -3.40    21400.00
04873              -3.00    21600.00
04874               1.20    21600.00
04875              -0.20    22000.00
04876              -3.00    22000.00
04877               0.20    22200.00
04878               0.00    22000.00
04879              -3.60    22000.00
04880              -1.40    22400.00
04881               0.80    22400.00
04882              -1.40    22400.00
04883              -2.20    22400.00
04884               0.40    22400.00
04885              -0.20    22400.00
04886              -3.40    22400.00
04887              -1.80    22400.00
04888               0.80    22600.00
04889              -1.80    22400.00
04890              -1.40    22600.00
04891               0.60    22400.00
04892              -1.20    22400.00
04893              -2.40    22400.00
04894              -0.60    22400.00
04895              -0.60    22400.00
04896              -2.20    22200.00
04897              -1.00    22200.00
04898               0.20    22200.00
04899              -1.20    22000.00
04900              -1.60    22000.00
04901              -1.00    21800.00
04902              -1.00    21600.00
04903              -1.20    21600.00
04904              -1.20    21400.00
04905              -0.60    21400.00
04906              -0.80    21200.00
04907              -1.20    21000.00
04908              -1.20    21000.00
04909              -0.60    20800.00
04910              -0.60    20600.00
04911              -2.00    20400.00
04912               0.40    20200.00
04913              -0.40    20000.00
04914              -2.00    19600.00
04915              -0.60    19600.00
04916              -0.60    19400.00
04917              -1.80    19200.00
04918              -1.20    19000.00
04919              -0.20    18800.00
04920              -0.40    18400.00
04921              -0.80    18200.00
04922              -1.00    18000.00
04923              -0.60    17600.00
04924              -1.00    17400.00
04925              -1.20    17200.00
04926              -1.00    16800.00
04927              -0.20    16400.00
04928              -0.60    16200.00
04929              -1.40    16000.00
04930              -0.20    15600.00
04931              -0.60    15400.00
04932              -2.00    15000.00
04933              -0.60    14600.00
04934              -0.20    14400.00
04935              -1.20    14000.00
04936              -1.20    13600.00
04937              -0.40    13400.00
04938              -1.20    13000.00
04939              -1.20    12600.00
04940              -0.40    12200.00
04941              -0.60    11800.00
04942              -0.60    11400.00
04943              -0.60    11000.00
04944              -1.20    10800.00
04945              -1.00    10400.00
04946              -0.60    10000.00
04947              -0.80     9600.00
04948              -1.00     9200.00
04949              -0.60     8800.00
04950              -0.40     8600.00
04951              -1.20     8200.00
04952              -0.60     7800.00
04953              -0.40     7200.00
04954              -1.20     7000.00
04955              -1.20     6400.00
04956              -0.60     6000.00
04957              -0.60     5800.00
04958              -0.80     5200.00
04959              -0.60     4800.00
04960              -0.60     4400.00
04961              -0.40     3800.00
04962              -0.60     3600.00
04963              -1.00     3200.00
04964              -0.60     2600.00
04965              -0.40     2200.00
04966              -0.80     2000.00
04967              -0.60     1400.00
04968              -0.40      800.00
04969              -0.60      600.00
04970              -0.40        0.00
04971               0.40     -200.00
04972               0.80     -800.00
04973               3.00    -1000.00
04974              -0.60    -1600.00
04975              -2.00    -2000.00
04976               1.20    -2000.00
04977               1.00    -2600.00
04978              -2.20    -3000.00
04979               2.80    -3200.00
04980              21.20    -4000.00
04981              25.00    -4600.00
04982             -25.00    -5200.00
04983             -25.00    -5600.00
04984              25.00    -5800.00
04985              -7.00    -6200.00
04986             -25.00    -6000.00
04987              25.00    -6600.00
04988              25.00    -7400.00
04989             -25.00    -7200.00
04990              25.00    -8400.00
04991              25.00    -8400.00
04992             -25.00    -8800.00
04993              25.00    -9600.00
04994              25.00    -9400.00
04995             -25.00    -9800.00
04996               7.80   -10400.00
04997              18.60   -10600.00
04998              14.00   -11200.00
04999             -21.20   -11600.00
05000             -25.00   -11800.00
