Unit:(mV)
                     CH1         CH2
Frequency              ? 303.171 kHz
00001              -0.60     9400.00
00002               0.40     9000.00
00003              -0.40     8600.00
00004              -1.20     8200.00
00005              -0.20     8000.00
00006               0.40     7400.00
00007              -0.40     7000.00
00008              -0.60     6400.00
00009              -0.40     6000.00
00010               0.20     5800.00
00011              -0.60     5400.00
00012              -0.60     4800.00
00013              -0.20     4400.00
00014              -0.20     4000.00
00015              -1.20     3600.00
00016               0.20     3200.00
00017               0.40     2800.00
00018              -1.00     2200.00
00019              -0.20     2000.00
00020               0.40     1400.00
00021              -1.00     1000.00
00022              -0.60      600.00
00023               0.40      400.00
00024               0.00     -200.00
00025               0.20     -600.00
00026               3.60    -1000.00
00027               0.00    -1600.00
00028              -3.00    -1800.00
00029               1.20    -2200.00
00030               2.00    -2600.00
00031              -3.00    -3000.00
00032               2.00    -3200.00
00033              21.00    -4000.00
00034              25.00    -4600.00
00035             -25.00    -5000.00
00036             -25.00    -5600.00
00037              25.00    -6000.00
00038              -4.60    -6000.00
00039             -25.00    -6000.00
00040              25.00    -6800.00
00041              25.00    -7400.00
00042             -25.00    -7200.00
00043              25.00    -8200.00
00044              25.00    -8600.00
00045             -25.00    -8800.00
00046              25.00    -9600.00
00047              25.00    -9600.00
00048             -25.00    -9800.00
00049              -9.20   -10800.00
00050              22.80   -10600.00
00051              25.00   -11400.00
00052             -25.00   -11600.00
00053             -25.00   -12000.00
00054              25.00   -12400.00
00055             -25.00   -12600.00
00056             -25.00   -13200.00
00057              25.00   -13400.00
00058               2.00   -13800.00
00059             -25.00   -14400.00
00060               7.00   -14400.00
00061              25.00   -15200.00
00062             -25.00   -15200.00
00063             -12.40   -15600.00
00064              25.00   -16000.00
00065             -17.60   -16200.00
00066             -19.00   -16600.00
00067              19.40   -16800.00
00068               3.40   -17000.00
00069             -18.00   -17200.00
00070               3.40   -17400.00
00071              17.80   -17800.00
00072             -11.80   -18000.00
00073              -7.60   -18400.00
00074              13.00   -18800.00
00075              -2.20   -19000.00
00076             -14.00   -19200.00
00077               9.00   -19400.00
00078               7.40   -19600.00
00079             -11.60   -20000.00
00080               2.80   -20000.00
00081               7.60   -20400.00
00082              -6.40   -20600.00
00083              -6.60   -20800.00
00084               7.80   -20800.00
00085               0.20   -21000.00
00086              -7.40   -21200.00
00087               6.60   -21400.00
00088               1.40   -21600.00
00089              -5.80   -21800.00
00090               0.20   -21800.00
00091               3.40   -22000.00
00092              -2.60   -22000.00
00093              -2.20   -22200.00
00094               3.60   -22400.00
00095              -0.60   -22400.00
00096              -3.80   -22400.00
00097               0.40   -22600.00
00098               1.40   -22800.00
00099              -2.00   -22800.00
00100              -1.20   -22600.00
00101               2.00   -22800.00
00102              -0.60   -22800.00
00103              -3.00   -22800.00
00104               1.40   -22800.00
00105               0.20   -22800.00
00106              -3.40   -22800.00
00107               1.20   -22800.00
00108               1.00   -22800.00
00109              -1.40   -22800.00
00110              -0.60   -22800.00
00111               0.40   -22800.00
00112              -1.00   -22600.00
00113              -1.20   -22600.00
00114               0.20   -22600.00
00115              -0.40   -22600.00
00116              -0.60   -22400.00
00117              -0.40   -22400.00
00118              -0.80   -22400.00
00119               0.20   -22200.00
00120              -1.20   -22000.00
00121              -1.00   -22000.00
00122               0.40   -21800.00
00123              -1.00   -21600.00
00124              -1.20   -21600.00
00125               0.60   -21400.00
00126              -0.60   -21200.00
00127              -1.20   -21200.00
00128               0.60   -20800.00
00129              -0.20   -20800.00
00130              -1.00   -20400.00
00131               0.40   -20200.00
00132              -0.40   -20200.00
00133              -1.20   -20000.00
00134              -0.20   -19600.00
00135              -0.60   -19400.00
00136              -0.60   -19200.00
00137              -0.20   -18800.00
00138              -0.60   -18600.00
00139              -0.20   -18200.00
00140              -0.20   -18400.00
00141              -0.60   -18000.00
00142              -1.00   -17400.00
00143              -0.20   -17200.00
00144              -0.20   -17000.00
00145              -1.00   -16800.00
00146              -0.20   -16400.00
00147              -0.40   -16200.00
00148              -1.20   -16000.00
00149               0.20   -15600.00
00150              -0.40   -15200.00
00151              -1.00   -14800.00
00152              -0.20   -14600.00
00153              -0.20   -14400.00
00154              -1.20   -13800.00
00155               0.00   -13400.00
00156              -0.40   -13200.00
00157              -1.00   -12800.00
00158               0.20   -12400.00
00159               0.20   -12200.00
00160              -1.20   -11600.00
00161               0.00   -11400.00
00162              -0.40   -11000.00
00163              -1.80   -10600.00
00164              -0.20   -10000.00
00165              -0.40    -9800.00
00166              -1.40    -9400.00
00167              -0.20    -9000.00
00168               0.00    -8400.00
00169              -1.20    -8200.00
00170              -0.40    -7800.00
00171               0.00    -7400.00
00172              -1.00    -6800.00
00173              -1.20    -6600.00
00174               0.40    -6000.00
00175              -1.40    -5800.00
00176              -1.00    -5200.00
00177               0.40    -4800.00
00178              -1.00    -4400.00
00179              -1.00    -4000.00
00180               0.40    -3400.00
00181              -1.00    -3200.00
00182              -0.40    -2800.00
00183              -0.40    -2400.00
00184              -1.00    -2000.00
00185              -0.40    -1200.00
00186              -0.20    -1000.00
00187              -1.20     -600.00
00188               0.00     -200.00
00189               1.00      400.00
00190               0.20      600.00
00191               3.60     1000.00
00192              -1.00     1400.00
00193              -2.80     2000.00
00194               2.20     2200.00
00195               1.40     2800.00
00196              -2.80     3000.00
00197               2.20     3400.00
00198              10.00     3600.00
00199              23.40     4400.00
00200              -4.40     5000.00
00201             -25.00     5400.00
00202              -0.60     5600.00
00203              25.00     6200.00
00204             -25.00     6400.00
00205             -25.00     6800.00
00206              25.00     7400.00
00207              25.00     8000.00
00208             -25.00     8200.00
00209              17.80     8400.00
00210              25.00     8800.00
00211             -25.00     9200.00
00212             -20.60     9600.00
00213              25.00    10000.00
00214             -25.00    10400.00
00215             -25.00    10800.00
00216              25.00    11200.00
00217              15.60    11600.00
00218             -25.00    12000.00
00219              -1.80    12200.00
00220              25.00    12600.00
00221             -19.60    13200.00
00222             -24.20    13400.00
00223              25.00    14000.00
00224               8.40    14200.00
00225             -25.00    14600.00
00226              -0.20    14800.00
00227              25.00    15200.00
00228             -16.00    15600.00
00229             -12.40    15800.00
00230              25.00    16000.00
00231              -4.40    16400.00
00232             -19.60    16600.00
00233              14.20    16800.00
00234               5.40    17200.00
00235             -16.60    17600.00
00236               4.40    17800.00
00237              12.20    18000.00
00238              -8.40    18400.00
00239              -6.00    18800.00
00240               8.60    19000.00
00241              -2.00    19200.00
00242              -8.20    19400.00
00243               4.20    19600.00
00244               3.80    19800.00
00245              -5.20    20200.00
00246              -0.40    20200.00
00247               3.60    20600.00
00248              -3.20    20800.00
00249              -4.20    21000.00
00250               4.20    21000.00
00251               1.00    21200.00
00252              -4.60    21400.00
00253               2.60    21400.00
00254               1.80    21600.00
00255              -4.20    21600.00
00256              -1.00    21600.00
00257               2.40    22200.00
00258              -1.40    22200.00
00259              -2.00    22400.00
00260               2.60    22400.00
00261              -0.60    22400.00
00262              -2.60    22400.00
00263               1.00    22400.00
00264               0.40    22600.00
00265              -1.40    22800.00
00266              -0.60    22800.00
00267               1.00    22800.00
00268               0.00    22800.00
00269              -1.40    22800.00
00270               0.20    22800.00
00271               1.00    22800.00
00272              -1.20    22800.00
00273               0.20    22800.00
00274               0.40    22800.00
00275              -0.80    22800.00
00276              -0.40    22800.00
00277               0.40    22800.00
00278              -0.40    22600.00
00279              -1.20    22400.00
00280               0.60    22400.00
00281              -0.20    22400.00
00282              -0.40    22400.00
00283              -0.20    22200.00
00284              -0.60    22000.00
00285              -0.20    22000.00
00286              -0.60    21600.00
00287              -0.60    21600.00
00288              -0.20    21400.00
00289               0.40    21400.00
00290              -1.00    21400.00
00291              -0.20    21000.00
00292               0.00    21000.00
00293              -1.20    20800.00
00294              -0.40    20600.00
00295               0.80    20600.00
00296              -1.40    20400.00
00297              -0.40    20000.00
00298               0.40    19800.00
00299              -1.00    19600.00
00300              -0.60    19400.00
00301               0.40    19200.00
00302              -0.60    19000.00
00303              -0.60    18800.00
00304              -0.20    18400.00
00305              -0.60    18200.00
00306              -1.20    18000.00
00307              -0.20    17400.00
00308              -0.40    17200.00
00309              -1.00    16800.00
00310               0.20    16800.00
00311              -0.60    16600.00
00312              -0.60    16000.00
00313               0.20    15600.00
00314              -0.80    15600.00
00315              -0.60    15200.00
00316              -0.20    15000.00
00317              -0.40    14400.00
00318              -0.60    14200.00
00319              -0.20    13800.00
00320              -0.60    13400.00
00321              -0.60    13200.00
00322              -0.20    12600.00
00323              -0.20    12400.00
00324              -0.60    12000.00
00325              -0.60    11800.00
00326              -0.20    11200.00
00327              -0.20    11000.00
00328              -0.60    10400.00
00329              -0.20    10000.00
00330               0.00     9600.00
00331              -0.60     9400.00
00332              -0.20     8800.00
00333              -0.20     8600.00
00334              -0.60     8200.00
00335              -0.60     7800.00
00336              -0.40     7400.00
00337              -0.60     7000.00
00338              -0.40     6400.00
00339              -0.20     6200.00
00340              -0.20     5800.00
00341              -0.20     5200.00
00342              -0.40     4800.00
00343              -0.20     4400.00
00344               0.00     3800.00
00345              -0.60     3400.00
00346              -0.20     3200.00
00347              -0.60     2800.00
00348              -0.60     2200.00
00349              -0.20     1800.00
00350              -0.20     1400.00
00351              -0.80     1000.00
00352               0.00      400.00
00353               0.20        0.00
00354              -0.20     -200.00
00355               0.60     -800.00
00356               3.40    -1000.00
00357              -1.20    -1600.00
00358              -2.40    -2000.00
00359               1.40    -2400.00
00360               1.40    -2800.00
00361              -2.80    -3000.00
00362               3.80    -3400.00
00363              25.00    -4000.00
00364              17.00    -4800.00
00365             -25.00    -5200.00
00366             -17.20    -5600.00
00367              25.00    -6000.00
00368             -19.80    -6200.00
00369             -25.00    -6200.00
00370              25.00    -7000.00
00371              25.00    -7400.00
00372             -25.00    -7400.00
00373              25.00    -8400.00
00374              25.00    -8600.00
00375             -25.00    -9000.00
00376              25.00    -9600.00
00377              25.00    -9600.00
00378             -25.00   -10000.00
00379              -1.60   -10600.00
00380              25.00   -10600.00
00381              25.00   -11400.00
00382             -25.00   -11600.00
00383              -7.40   -12200.00
00384              25.00   -12600.00
00385             -25.00   -12600.00
00386             -16.80   -13200.00
00387              25.00   -13600.00
00388             -11.40   -14000.00
00389             -25.00   -14400.00
00390              16.60   -14600.00
00391              25.00   -14800.00
00392             -25.00   -15200.00
00393               1.20   -15600.00
00394              25.00   -16000.00
00395             -25.00   -16000.00
00396             -11.60   -16600.00
00397              20.40   -16800.00
00398              -2.00   -17000.00
00399             -17.40   -17400.00
00400               8.40   -17600.00
00401              14.60   -17800.00
00402             -14.00   -18200.00
00403              -3.00   -18600.00
00404              12.40   -18800.00
00405              -5.40   -19000.00
00406             -11.60   -19200.00
00407              10.80   -19600.00
00408               3.40   -19600.00
00409             -10.60   -20000.00
00410               5.00   -20000.00
00411               5.80   -20400.00
00412              -7.20   -20600.00
00413              -4.40   -20800.00
00414               8.40   -21000.00
00415              -2.00   -21000.00
00416              -6.00   -21200.00
00417               7.00   -21600.00
00418              -0.20   -21600.00
00419              -6.00   -21600.00
00420               1.00   -21800.00
00421               3.60   -22000.00
00422              -3.60   -22000.00
00423              -1.80   -22000.00
00424               4.80   -22400.00
00425              -2.00   -22400.00
00426              -4.60   -22600.00
00427               2.00   -22600.00
00428               1.00   -22600.00
00429              -3.80   -22600.00
00430               0.20   -22800.00
00431               3.00   -22800.00
00432              -2.60   -22800.00
00433              -2.00   -22800.00
00434               3.00   -22800.00
00435              -1.80   -22800.00
00436              -2.80   -22800.00
00437               2.20   -22800.00
00438              -0.60   -22800.00
00439              -1.80   -22800.00
00440              -0.20   -22800.00
00441              -0.20   -22600.00
00442              -1.00   -22800.00
00443              -1.20   -22600.00
00444              -0.40   -22600.00
00445              -0.40   -22400.00
00446              -0.60   -22600.00
00447              -0.40   -22400.00
00448              -0.80   -22400.00
00449               0.40   -22200.00
00450              -1.00   -22000.00
00451              -0.40   -21800.00
00452               0.60   -21800.00
00453              -1.00   -21800.00
00454              -1.00   -21600.00
00455               0.00   -21200.00
00456              -0.40   -21200.00
00457              -1.40   -21000.00
00458              -0.40   -20800.00
00459               0.20   -20800.00
00460              -0.60   -20400.00
00461              -0.20   -20200.00
00462              -0.20   -20000.00
00463              -0.60   -19800.00
00464              -0.40   -19600.00
00465              -0.60   -19400.00
00466               0.20   -19000.00
00467              -0.60   -18800.00
00468              -0.60   -18600.00
00469              -0.20   -18400.00
00470              -0.40   -18400.00
00471              -1.20   -18000.00
00472              -0.60   -17400.00
00473               0.20   -17200.00
00474              -0.40   -17000.00
00475              -1.00   -16800.00
00476               0.40   -16400.00
00477              -0.60   -16200.00
00478              -1.40   -15600.00
00479               0.20   -15400.00
00480              -0.40   -15200.00
00481              -0.80   -14800.00
00482              -0.20   -14400.00
00483              -0.20   -14200.00
00484              -0.60   -13800.00
00485              -0.60   -13400.00
00486              -0.60   -13000.00
00487              -0.60   -12800.00
00488              -0.60   -12400.00
00489              -0.40   -12000.00
00490              -1.00   -11600.00
00491              -0.40   -11400.00
00492              -0.60   -10800.00
00493              -0.60   -10400.00
00494              -0.20   -10000.00
00495              -1.00    -9600.00
00496              -1.00    -9200.00
00497              -0.20    -9000.00
00498              -0.60    -8400.00
00499              -1.20    -8200.00
00500              -0.60    -7600.00
00501              -0.40    -7200.00
00502              -1.00    -6800.00
00503              -0.60    -6400.00
00504               0.20    -6200.00
00505              -1.40    -5600.00
00506              -0.60    -5200.00
00507              -0.20    -4800.00
00508              -1.20    -4200.00
00509              -1.20    -4000.00
00510              -0.20    -3600.00
00511              -0.40    -3200.00
00512              -0.60    -2600.00
00513              -0.60    -2200.00
00514              -0.40    -1800.00
00515              -0.40    -1200.00
00516              -0.60     -800.00
00517              -0.60     -400.00
00518              -0.20        0.00
00519               0.20      200.00
00520               1.00      800.00
00521               3.20     1200.00
00522              -2.00     1400.00
00523              -1.40     2000.00
00524               2.80     2400.00
00525               1.00     2800.00
00526              -2.20     3000.00
00527               3.60     3400.00
00528              11.60     4000.00
00529              24.20     4600.00
00530             -14.20     5000.00
00531             -25.00     5600.00
00532              10.00     5800.00
00533              25.00     6200.00
00534             -25.00     6400.00
00535             -25.00     6800.00
00536              25.00     7600.00
00537              25.00     7800.00
00538             -25.00     8200.00
00539              25.00     8600.00
00540              25.00     8800.00
00541             -25.00     9200.00
00542               7.60     9800.00
00543              25.00    10000.00
00544             -25.00    10600.00
00545             -24.00    11000.00
00546              25.00    11200.00
00547               2.80    11600.00
00548             -25.00    12000.00
00549              11.00    12400.00
00550              25.00    12800.00
00551             -25.00    13200.00
00552             -14.20    13600.00
00553              25.00    14000.00
00554              -1.20    14200.00
00555             -25.00    14600.00
00556               7.40    14800.00
00557              21.80    15200.00
00558             -21.40    15600.00
00559              -5.00    15800.00
00560              25.00    16200.00
00561             -12.00    16400.00
00562             -14.80    16600.00
00563              16.80    16800.00
00564               0.00    17400.00
00565             -15.60    17600.00
00566               8.40    18000.00
00567               9.20    18200.00
00568             -10.20    18400.00
00569              -2.80    18800.00
00570               8.80    19000.00
00571              -4.40    19200.00
00572              -6.60    19400.00
00573               6.80    19600.00
00574               1.80    20000.00
00575              -6.20    20000.00
00576               2.00    20200.00
00577               3.60    20600.00
00578              -5.40    20800.00
00579              -2.20    21000.00
00580               5.20    21000.00
00581              -1.80    21200.00
00582              -3.40    21600.00
00583               4.60    21400.00
00584               0.20    21600.00
00585              -3.80    21600.00
00586               0.60    21800.00
00587               1.20    22000.00
00588              -2.00    22200.00
00589              -1.00    22400.00
00590               2.40    22400.00
00591              -1.20    22400.00
00592              -2.00    22400.00
00593               1.00    22800.00
00594               0.20    22600.00
00595              -1.40    22600.00
00596               0.00    22800.00
00597               1.80    22800.00
00598              -1.20    22800.00
00599              -1.80    22800.00
00600               0.60    22800.00
00601               0.00    22600.00
00602              -1.20    22800.00
00603               0.80    22800.00
00604               0.20    22800.00
00605              -0.60    22800.00
00606               0.40    22800.00
00607               0.00    22800.00
00608              -1.00    22400.00
00609              -0.20    22400.00
00610              -0.60    22600.00
00611              -0.40    22200.00
00612              -0.20    22400.00
00613              -1.00    22200.00
00614              -0.40    22000.00
00615               0.40    22000.00
00616              -1.20    22000.00
00617              -0.40    21600.00
00618               0.20    21600.00
00619              -0.40    21400.00
00620              -0.60    21200.00
00621               0.00    21200.00
00622              -0.60    20800.00
00623              -1.20    20800.00
00624               0.20    20600.00
00625               0.20    20400.00
00626              -1.20    20400.00
00627              -0.40    20000.00
00628              -0.20    19800.00
00629              -1.00    19600.00
00630              -0.40    19400.00
00631              -0.20    19000.00
00632              -0.60    18800.00
00633              -0.40    18600.00
00634              -0.20    18200.00
00635              -0.40    18000.00
00636              -0.40    17600.00
00637              -0.60    17400.00
00638              -0.60    17200.00
00639              -0.40    17000.00
00640              -0.40    16600.00
00641              -0.60    16400.00
00642              -0.60    16000.00
00643              -0.40    15800.00
00644              -0.60    15600.00
00645              -0.40    15200.00
00646              -0.20    14800.00
00647               0.00    14600.00
00648              -1.00    14200.00
00649              -0.20    14000.00
00650              -0.20    13400.00
00651              -1.00    13200.00
00652              -0.20    12600.00
00653              -0.40    12400.00
00654              -0.40    12000.00
00655              -0.40    11600.00
00656              -0.60    11000.00
00657              -0.20    10800.00
00658               0.00    10400.00
00659              -1.20    10000.00
00660              -0.40     9600.00
00661               0.40     9400.00
00662              -1.00     9000.00
00663              -0.40     8600.00
00664               1.00     8000.00
00665              -0.60     7600.00
00666              -1.00     7400.00
00667               0.40     6800.00
00668               0.00     6400.00
00669              -1.40     6000.00
00670              -0.40     5600.00
00671              -0.40     5200.00
00672              -1.20     4800.00
00673              -0.20     4400.00
00674               0.20     4000.00
00675              -1.00     3400.00
00676               0.20     3000.00
00677              -0.20     2600.00
00678              -0.60     2200.00
00679              -0.40     1800.00
00680              -0.60     1400.00
00681              -0.20      800.00
00682              -0.20      400.00
00683              -1.00        0.00
00684               0.40     -400.00
00685               1.20     -800.00
00686               2.20    -1200.00
00687              -1.40    -1600.00
00688              -1.20    -2000.00
00689               1.20    -2400.00
00690               0.40    -2800.00
00691              -2.20    -3000.00
00692               5.20    -3400.00
00693              25.00    -4000.00
00694               5.80    -4800.00
00695             -25.00    -5400.00
00696              -2.80    -5800.00
00697              25.00    -6000.00
00698             -25.00    -6200.00
00699             -25.00    -6200.00
00700              25.00    -7200.00
00701              -9.80    -7400.00
00702             -25.00    -7400.00
00703              25.00    -8800.00
00704              25.00    -8400.00
00705             -25.00    -9000.00
00706              25.00    -9800.00
00707              25.00    -9400.00
00708             -25.00   -10200.00
00709               5.00   -10600.00
00710              25.00   -10800.00
00711              20.40   -11400.00
00712             -25.00   -11600.00
00713              13.00   -12200.00
00714              25.00   -12600.00
00715             -25.00   -12800.00
00716               0.60   -13400.00
00717              25.00   -13600.00
00718             -22.20   -13800.00
00719             -25.00   -14400.00
00720              25.00   -14800.00
00721              21.00   -15200.00
00722             -25.00   -15200.00
00723              14.80   -15600.00
00724              25.00   -16000.00
00725             -25.00   -16200.00
00726              -3.00   -16800.00
00727              20.20   -16800.00
00728              -7.00   -17200.00
00729             -15.40   -17400.00
00730              13.00   -17800.00
00731               9.80   -18000.00
00732             -16.00   -18200.00
00733               1.60   -18600.00
00734              11.20   -18800.00
00735              -8.60   -19200.00
00736              -8.60   -19400.00
00737              13.00   -19600.00
00738               0.20   -19600.00
00739              -9.80   -20000.00
00740               7.00   -20000.00
00741               4.40   -20400.00
00742              -9.20   -20600.00
00743              -2.00   -20800.00
00744               9.20   -20800.00
00745              -5.00   -21200.00
00746              -3.60   -21200.00
00747               7.40   -21200.00
00748              -2.20   -21600.00
00749              -5.40   -21800.00
00750               1.80   -21800.00
00751               2.60   -22000.00
00752              -3.80   -22000.00
00753              -1.00   -22200.00
00754               4.20   -22200.00
00755              -1.80   -22400.00
00756              -3.80   -22400.00
00757               2.60   -22600.00
00758               1.80   -22600.00
00759              -5.00   -22600.00
00760               0.60   -22800.00
00761               3.40   -22800.00
00762              -4.20   -22800.00
00763              -2.00   -22800.00
00764               4.20   -22800.00
00765              -2.60   -22800.00
00766              -2.80   -22800.00
00767               3.00   -22800.00
00768              -0.60   -22800.00
00769              -2.20   -22800.00
00770               0.40   -22800.00
00771               0.40   -22800.00
00772              -2.20   -22800.00
00773              -0.20   -22600.00
00774               0.60   -22600.00
00775              -1.20   -22600.00
00776               0.20   -22400.00
00777              -0.40   -22400.00
00778              -0.80   -22400.00
00779              -0.60   -22000.00
00780              -1.00   -22200.00
00781              -0.40   -22000.00
00782               0.20   -21600.00
00783              -0.60   -21600.00
00784              -0.20   -21600.00
00785              -0.20   -21200.00
00786              -0.40   -21200.00
00787              -0.60   -21000.00
00788              -0.40   -20800.00
00789               0.40   -20600.00
00790              -1.00   -20400.00
00791              -0.60   -20200.00
00792               0.20   -20000.00
00793              -1.00   -20000.00
00794              -1.20   -19600.00
00795               0.20   -19200.00
00796              -0.20   -19200.00
00797              -1.40   -18800.00
00798               0.40   -18600.00
00799               0.20   -18400.00
00800              -1.80   -18000.00
00801              -0.20   -17600.00
00802              -0.20   -17400.00
00803              -1.20   -17200.00
00804               0.40   -17000.00
00805              -0.20   -16600.00
00806              -0.60   -16400.00
00807              -0.40   -16000.00
00808              -0.60   -15800.00
00809              -0.20   -15400.00
00810              -0.20   -15000.00
00811              -0.60   -14800.00
00812              -0.60   -14600.00
00813              -0.60   -14000.00
00814              -0.80   -13800.00
00815              -0.40   -13200.00
00816              -0.60   -13000.00
00817              -1.00   -12800.00
00818              -0.20   -12400.00
00819              -0.60   -12000.00
00820              -1.80   -11400.00
00821               0.40   -11000.00
00822              -0.40   -10800.00
00823              -2.00   -10400.00
00824               0.20   -10000.00
00825              -0.40    -9600.00
00826              -2.00    -9200.00
00827              -0.20    -9000.00
00828               0.20    -8600.00
00829              -2.00    -8000.00
00830              -0.20    -7600.00
00831               0.40    -7200.00
00832              -2.00    -7000.00
00833              -0.40    -6400.00
00834               0.40    -6000.00
00835              -1.40    -5600.00
00836              -0.60    -5200.00
00837               0.40    -4600.00
00838              -1.40    -4400.00
00839              -1.20    -4000.00
00840               0.40    -3400.00
00841              -0.60    -2800.00
00842              -1.00    -2600.00
00843               0.20    -2000.00
00844              -0.60    -1800.00
00845              -0.80    -1200.00
00846              -0.20    -1000.00
00847              -0.40     -400.00
00848              -0.60        0.00
00849               0.40      400.00
00850               1.80      800.00
00851               2.60     1200.00
00852              -2.20     1800.00
00853              -1.20     2000.00
00854               2.60     2400.00
00855               0.20     2800.00
00856              -2.60     3000.00
00857               5.00     3600.00
00858              13.80     4200.00
00859              23.00     4600.00
00860             -23.80     5200.00
00861             -25.00     5600.00
00862              19.40     5800.00
00863              22.20     6200.00
00864             -25.00     6400.00
00865             -19.40     6800.00
00866              25.00     7800.00
00867               7.60     7800.00
00868             -25.00     8400.00
00869              25.00     8600.00
00870              25.00     8800.00
00871             -25.00     9200.00
00872              25.00     9600.00
00873              25.00    10000.00
00874             -25.00    10800.00
00875              -8.40    10800.00
00876              25.00    11200.00
00877             -10.20    11600.00
00878             -25.00    12000.00
00879              23.60    12400.00
00880              25.00    12800.00
00881             -25.00    13200.00
00882              -3.80    13600.00
00883              25.00    14000.00
00884             -11.00    14200.00
00885             -24.20    14600.00
00886              14.20    15000.00
00887              14.80    15200.00
00888             -23.00    15600.00
00889               2.80    15800.00
00890              21.60    16000.00
00891             -16.40    16600.00
00892              -9.00    16800.00
00893              16.60    17000.00
00894              -4.20    17400.00
00895             -13.40    17600.00
00896              10.60    18000.00
00897               6.60    18200.00
00898             -10.60    18400.00
00899               0.00    18800.00
00900               7.40    19000.00
00901              -6.00    19200.00
00902              -5.40    19600.00
00903               6.60    19800.00
00904               0.00    19800.00
00905              -4.20    20000.00
00906               2.60    20400.00
00907               2.20    20600.00
00908              -5.00    20600.00
00909              -1.40    21000.00
00910               4.20    21200.00
00911              -2.40    21200.00
00912              -2.20    21400.00
00913               3.60    21600.00
00914              -0.60    21600.00
00915              -3.60    21800.00
00916               0.60    21800.00
00917               1.80    22200.00
00918              -2.00    22200.00
00919              -0.20    22400.00
00920               2.00    22400.00
00921              -1.40    22400.00
00922              -2.20    22400.00
00923               1.40    22600.00
00924               0.20    22600.00
00925              -2.00    22600.00
00926               0.40    22800.00
00927               2.60    22800.00
00928              -2.00    22800.00
00929              -1.40    22800.00
00930               2.00    22800.00
00931              -1.20    22800.00
00932              -1.20    22800.00
00933               1.80    22800.00
00934              -0.60    22800.00
00935              -1.40    22800.00
00936               0.40    22800.00
00937               0.20    22800.00
00938              -1.20    22600.00
00939               0.20    22600.00
00940               0.60    22400.00
00941              -1.20    22200.00
00942              -0.20    22400.00
00943              -0.20    22200.00
00944              -1.20    22000.00
00945               0.20    22000.00
00946              -0.40    21800.00
00947              -0.60    21600.00
00948               0.20    21600.00
00949              -0.60    21400.00
00950              -0.60    21200.00
00951               0.40    21000.00
00952              -0.60    20800.00
00953              -1.60    20600.00
00954               0.60    20800.00
00955               0.20    20600.00
00956              -1.20    20000.00
00957               0.40    20000.00
00958              -0.20    19800.00
00959              -1.20    19600.00
00960              -0.20    19400.00
00961              -0.60    19000.00
00962              -0.60    19000.00
00963              -0.40    18800.00
00964              -0.40    18200.00
00965              -1.00    18200.00
00966              -0.40    17800.00
00967              -0.40    17400.00
00968              -0.40    17200.00
00969               0.20    16800.00
00970              -0.20    16600.00
00971              -0.60    16400.00
00972               0.00    16000.00
00973               0.00    15800.00
00974              -1.20    15600.00
00975              -0.60    15200.00
00976               0.40    14800.00
00977              -1.00    14400.00
00978              -0.20    14000.00
00979               0.20    13600.00
00980              -0.60    13400.00
00981              -0.60    13000.00
00982               0.40    12600.00
00983              -0.60    12400.00
00984              -0.60    11800.00
00985               0.40    11600.00
00986              -0.60    11200.00
00987              -0.40    10800.00
00988               0.20    10400.00
00989              -0.60    10000.00
00990              -0.40     9600.00
00991               0.20     9200.00
00992              -0.60     8800.00
00993              -0.60     8400.00
00994              -0.20     8200.00
00995              -0.40     7800.00
00996              -0.60     7200.00
00997               0.20     6800.00
00998              -0.40     6400.00
00999              -0.60     6000.00
01000              -0.20     5600.00
01001              -0.20     5000.00
01002              -0.60     4600.00
01003              -0.40     4200.00
01004              -0.40     3800.00
01005              -0.60     3400.00
01006              -0.60     3000.00
01007              -0.20     2600.00
01008              -0.60     2200.00
01009              -0.20     1800.00
01010              -0.60     1200.00
01011              -0.60      800.00
01012              -0.60      400.00
01013              -0.40        0.00
01014               0.20     -400.00
01015               1.00    -1000.00
01016               2.80    -1200.00
01017              -2.20    -1600.00
01018              -1.20    -2000.00
01019               2.00    -2400.00
01020               0.00    -2800.00
01021              -2.20    -3200.00
01022               8.40    -3600.00
01023              25.00    -4200.00
01024              -8.80    -5000.00
01025             -25.00    -5400.00
01026              10.20    -5800.00
01027              25.00    -6200.00
01028             -25.00    -6200.00
01029             -15.60    -6400.00
01030              25.00    -7200.00
01031             -25.00    -7400.00
01032             -25.00    -7600.00
01033              25.00    -8800.00
01034             -12.20    -8600.00
01035             -25.00    -9200.00
01036              25.00    -9600.00
01037               3.40    -9600.00
01038             -25.00   -10400.00
01039              10.20   -10600.00
01040              25.00   -10800.00
01041              10.00   -11600.00
01042             -25.00   -11800.00
01043              25.00   -12400.00
01044              25.00   -12400.00
01045             -25.00   -12800.00
01046              18.00   -13600.00
01047              25.00   -13600.00
01048             -25.00   -14000.00
01049             -25.00   -14400.00
01050              25.00   -14600.00
01051               9.40   -15000.00
01052             -25.00   -15200.00
01053              25.00   -15600.00
01054              22.20   -16000.00
01055             -25.00   -16200.00
01056               4.20   -16600.00
01057              17.40   -16800.00
01058             -11.00   -17200.00
01059             -12.40   -17400.00
01060              16.60   -17800.00
01061               4.80   -17800.00
01062             -15.80   -18400.00
01063               5.80   -18600.00
01064               9.00   -18800.00
01065             -11.40   -19200.00
01066              -5.20   -19200.00
01067              13.20   -19400.00
01068              -3.60   -19600.00
01069              -7.40   -20000.00
01070               7.20   -20200.00
01071               2.20   -20400.00
01072              -9.40   -20600.00
01073              -0.60   -20800.00
01074               8.40   -21000.00
01075              -6.80   -21000.00
01076              -2.00   -21400.00
01077               7.60   -21200.00
01078              -3.40   -21600.00
01079              -4.80   -21800.00
01080               3.40   -22000.00
01081               1.40   -22000.00
01082              -4.60   -22000.00
01083               1.20   -22400.00
01084               3.00   -22400.00
01085              -3.60   -22400.00
01086              -2.20   -22400.00
01087               2.20   -22600.00
01088              -0.40   -22600.00
01089              -2.40   -22600.00
01090               1.20   -22600.00
01091               2.00   -22800.00
01092              -3.00   -22800.00
01093              -1.00   -22800.00
01094               2.00   -22800.00
01095              -2.60   -22800.00
01096              -1.40   -22800.00
01097               1.80   -22800.00
01098              -0.60   -22800.00
01099              -1.20   -22800.00
01100              -0.20   -22600.00
01101               0.20   -22800.00
01102              -1.00   -22600.00
01103              -0.60   -22600.00
01104               0.20   -22600.00
01105              -0.60   -22600.00
01106              -0.40   -22600.00
01107              -0.60   -22400.00
01108              -0.20   -22200.00
01109              -0.20   -22000.00
01110              -1.20   -21800.00
01111               0.40   -22000.00
01112               0.20   -21600.00
01113              -1.00   -21600.00
01114              -0.40   -21400.00
01115               0.00   -21400.00
01116              -0.60   -21200.00
01117              -1.00   -21000.00
01118               0.40   -20800.00
01119              -0.60   -20600.00
01120              -0.60   -20400.00
01121               0.40   -20000.00
01122              -1.00   -20000.00
01123              -0.80   -19800.00
01124              -0.20   -19600.00
01125              -0.40   -19400.00
01126              -0.20   -19200.00
01127              -0.40   -18800.00
01128              -0.40   -18600.00
01129              -0.40   -18200.00
01130              -0.40   -18000.00
01131              -0.60   -17800.00
01132              -0.60   -17400.00
01133               0.20   -17200.00
01134              -0.60   -16800.00
01135              -0.40   -16800.00
01136              -0.20   -16400.00
01137              -1.20   -16200.00
01138              -0.40   -15600.00
01139               0.00   -15200.00
01140              -1.00   -15200.00
01141              -0.40   -14800.00
01142              -0.20   -14400.00
01143              -0.60   -14000.00
01144              -1.20   -13600.00
01145              -0.60   -13400.00
01146              -0.40   -13000.00
01147              -1.00   -12600.00
01148              -0.40   -12400.00
01149              -0.20   -12000.00
01150              -1.20   -11600.00
01151              -0.40   -11000.00
01152              -0.40   -10800.00
01153              -0.60   -10400.00
01154              -0.60   -10000.00
01155              -0.60    -9600.00
01156              -0.60    -9200.00
01157              -0.60    -8800.00
01158              -0.60    -8400.00
01159              -0.40    -8000.00
01160              -0.40    -7600.00
01161              -1.80    -7200.00
01162              -0.60    -6800.00
01163              -0.60    -6400.00
01164              -0.80    -5800.00
01165              -1.20    -5600.00
01166              -1.00    -5000.00
01167              -0.20    -4600.00
01168              -0.60    -4200.00
01169              -1.20    -4000.00
01170               0.40    -3400.00
01171              -0.20    -2800.00
01172              -1.20    -2400.00
01173              -0.20    -2200.00
01174              -0.60    -1600.00
01175              -1.40    -1200.00
01176              -0.40    -1000.00
01177              -0.40     -400.00
01178              -0.60        0.00
01179               0.20      400.00
01180               2.60      800.00
01181               1.80     1400.00
01182              -2.60     1600.00
01183               0.20     2000.00
01184               2.80     2400.00
01185              -0.60     2800.00
01186              -2.20     3200.00
01187               5.80     3600.00
01188              16.20     4200.00
01189              20.00     4800.00
01190             -25.00     5200.00
01191             -25.00     5600.00
01192              25.00     6000.00
01193              13.00     6400.00
01194             -25.00     6600.00
01195              -4.40     7000.00
01196              25.00     7800.00
01197             -22.20     7800.00
01198             -25.00     8200.00
01199              25.00     8800.00
01200              24.20     8800.00
01201             -25.00     9600.00
01202              25.00     9800.00
01203              25.00    10200.00
01204             -25.00    10800.00
01205               6.80    10800.00
01206              25.00    11200.00
01207             -21.80    11800.00
01208             -25.00    12200.00
01209              25.00    12400.00
01210              21.00    12800.00
01211             -25.00    13200.00
01212               5.60    13600.00
01213              25.00    14000.00
01214             -17.40    14400.00
01215             -21.20    14600.00
01216              19.20    15000.00
01217               8.60    15400.00
01218             -24.60    15600.00
01219               9.80    15800.00
01220              18.60    16400.00
01221             -20.60    16600.00
01222              -3.40    16800.00
01223              16.20    17200.00
01224              -8.40    17400.00
01225             -10.40    17600.00
01226              12.60    18200.00
01227               3.40    18400.00
01228             -11.00    18800.00
01229               2.40    18800.00
01230               6.80    19000.00
01231              -7.40    19200.00
01232              -3.40    19600.00
01233               7.80    19600.00
01234              -1.80    20000.00
01235              -4.40    20400.00
01236               3.40    20400.00
01237               1.20    20600.00
01238              -6.00    21000.00
01239               0.20    20800.00
01240               4.60    21200.00
01241              -3.60    21400.00
01242              -1.20    21400.00
01243               4.20    21400.00
01244              -2.00    21600.00
01245              -3.60    21800.00
01246               2.20    22000.00
01247               1.00    22000.00
01248              -2.60    22200.00
01249               0.60    22200.00
01250               2.00    22400.00
01251              -2.20    22400.00
01252              -1.00    22400.00
01253               1.20    22600.00
01254              -0.60    22600.00
01255              -1.20    22800.00
01256               0.20    22800.00
01257               1.00    22800.00
01258              -1.20    22800.00
01259              -1.00    22800.00
01260               1.20    22800.00
01261              -0.60    22800.00
01262              -0.80    22800.00
01263               0.60    22800.00
01264               0.40    22800.00
01265              -1.20    22800.00
01266              -0.20    22800.00
01267               0.40    22800.00
01268              -1.20    22400.00
01269              -0.60    22400.00
01270               0.40    22400.00
01271              -0.40    22400.00
01272              -0.40    22200.00
01273              -0.40    22200.00
01274              -0.40    22000.00
01275              -0.40    22000.00
01276              -0.60    21800.00
01277              -0.20    21600.00
01278              -0.20    21600.00
01279              -0.40    21400.00
01280              -0.20    21200.00
01281              -0.20    21200.00
01282              -0.60    20800.00
01283              -1.00    21000.00
01284              -0.20    20600.00
01285              -0.40    20400.00
01286              -1.00    20000.00
01287              -0.40    20000.00
01288              -0.20    19800.00
01289              -0.40    19600.00
01290              -0.60    19200.00
01291              -0.40    19200.00
01292               0.40    18800.00
01293              -0.40    18400.00
01294              -0.60    18200.00
01295              -0.40    18000.00
01296              -0.40    17600.00
01297              -0.60    17400.00
01298              -0.60    17200.00
01299              -0.40    16800.00
01300              -0.20    16600.00
01301              -0.40    16400.00
01302              -0.20    16000.00
01303              -0.40    15800.00
01304              -0.20    15200.00
01305              -0.60    15000.00
01306              -0.60    14600.00
01307               0.40    14400.00
01308              -1.20    14000.00
01309              -0.60    13600.00
01310               0.40    13400.00
01311              -1.00    12800.00
01312              -0.60    12600.00
01313               0.40    12400.00
01314              -0.40    12000.00
01315              -1.20    11400.00
01316               0.20    11200.00
01317              -0.20    10800.00
01318              -1.00    10200.00
01319              -0.20    10000.00
01320              -0.20     9600.00
01321              -0.60     9200.00
01322               0.20     8800.00
01323              -0.20     8400.00
01324              -0.60     8000.00
01325              -0.20     7600.00
01326              -0.40     7200.00
01327              -0.80     6800.00
01328              -0.20     6400.00
01329              -0.40     6000.00
01330              -0.60     5400.00
01331              -0.40     5000.00
01332              -0.20     4600.00
01333              -0.60     4000.00
01334              -0.40     3600.00
01335              -0.40     3200.00
01336              -0.60     3000.00
01337              -0.40     2400.00
01338              -0.60     2000.00
01339              -0.40     1600.00
01340              -0.20     1200.00
01341              -0.60      800.00
01342              -0.40      400.00
01343               0.20        0.00
01344               0.20     -400.00
01345               1.40     -800.00
01346               2.20    -1200.00
01347              -2.80    -1600.00
01348              -1.60    -2000.00
01349               2.80    -2400.00
01350              -1.00    -2800.00
01351              -2.20    -3200.00
01352              12.20    -3600.00
01353              25.00    -4200.00
01354             -22.40    -5000.00
01355             -25.00    -5400.00
01356              22.20    -5800.00
01357              25.00    -6000.00
01358             -25.00    -6400.00
01359              11.40    -6400.00
01360              25.00    -7400.00
01361             -25.00    -7400.00
01362             -25.00    -7800.00
01363              25.00    -8800.00
01364             -25.00    -8400.00
01365             -25.00    -9200.00
01366              25.00    -9600.00
01367             -22.60    -9800.00
01368             -25.00   -10400.00
01369              14.20   -10600.00
01370              25.00   -11000.00
01371              -2.60   -11800.00
01372             -25.00   -11600.00
01373              25.00   -12400.00
01374              25.00   -12400.00
01375             -25.00   -13000.00
01376              25.00   -13600.00
01377              25.00   -13600.00
01378             -25.00   -14200.00
01379             -18.60   -14400.00
01380              25.00   -14800.00
01381              -3.60   -15200.00
01382             -25.00   -15400.00
01383              25.00   -15800.00
01384              10.80   -16000.00
01385             -25.00   -16400.00
01386              10.80   -16800.00
01387              14.60   -17000.00
01388             -15.00   -17200.00
01389              -8.80   -17600.00
01390              19.00   -17800.00
01391              -0.40   -18000.00
01392             -15.00   -18400.00
01393               9.00   -18800.00
01394               6.80   -18800.00
01395             -13.40   -19000.00
01396              -1.40   -19400.00
01397              13.20   -19600.00
01398              -7.00   -19800.00
01399              -5.20   -20000.00
01400               8.80   -20200.00
01401              -0.40   -20400.00
01402              -9.80   -20800.00
01403               2.60   -20800.00
01404               6.60   -21000.00
01405              -8.20   -21000.00
01406               1.40   -21400.00
01407               5.80   -21600.00
01408              -5.40   -21600.00
01409              -2.80   -21800.00
01410               3.00   -22000.00
01411              -0.20   -22000.00
01412              -3.20   -22000.00
01413               2.00   -22400.00
01414               2.00   -22400.00
01415              -3.00   -22600.00
01416              -1.80   -22600.00
01417               1.80   -22600.00
01418              -0.20   -22800.00
01419              -3.20   -22600.00
01420               0.60   -22800.00
01421               2.00   -22800.00
01422              -3.20   -22800.00
01423              -0.80   -22800.00
01424               2.40   -23000.00
01425              -2.20   -22800.00
01426              -1.20   -22800.00
01427               1.40   -22800.00
01428              -0.60   -22800.00
01429              -1.40   -22800.00
01430              -0.40   -22800.00
01431               0.60   -22800.00
01432              -1.00   -22800.00
01433              -0.80   -22600.00
01434               0.40   -22400.00
01435              -0.40   -22600.00
01436              -0.60   -22400.00
01437              -0.60   -22200.00
01438              -0.20   -22200.00
01439              -0.40   -22000.00
01440              -1.20   -22000.00
01441               0.20   -21800.00
01442               0.20   -21600.00
01443              -0.60   -21600.00
01444              -0.40   -21600.00
01445               0.20   -21200.00
01446              -1.00   -21000.00
01447              -0.80   -21000.00
01448               0.40   -20800.00
01449               0.00   -20400.00
01450              -0.60   -20400.00
01451               0.20   -20200.00
01452              -1.00   -20000.00
01453              -0.60   -19800.00
01454              -0.20   -19600.00
01455              -0.60   -19200.00
01456               0.20   -19000.00
01457              -0.60   -18800.00
01458              -0.60   -18400.00
01459              -0.20   -18400.00
01460              -0.60   -18000.00
01461              -1.00   -17600.00
01462              -0.40   -17400.00
01463               0.40   -17000.00
01464              -0.60   -16800.00
01465              -0.60   -16600.00
01466              -0.40   -16400.00
01467              -1.40   -16000.00
01468              -0.60   -15800.00
01469              -0.60   -15200.00
01470              -1.00   -15000.00
01471              -0.60   -14800.00
01472              -0.20   -14400.00
01473              -0.60   -14200.00
01474              -1.20   -13600.00
01475              -0.40   -13200.00
01476              -0.40   -13000.00
01477              -1.20   -12600.00
01478               0.00   -12200.00
01479              -0.60   -12000.00
01480              -1.20   -11600.00
01481              -0.40   -10800.00
01482              -0.60   -10600.00
01483              -1.00   -10200.00
01484              -0.60    -9800.00
01485              -0.60    -9600.00
01486              -0.60    -9200.00
01487              -1.20    -8800.00
01488              -0.20    -8400.00
01489              -0.40    -8000.00
01490              -1.40    -7600.00
01491               0.20    -7000.00
01492               0.20    -6600.00
01493              -1.40    -6200.00
01494               0.00    -5800.00
01495              -0.20    -5600.00
01496              -1.60    -4800.00
01497              -0.20    -4600.00
01498              -0.40    -4200.00
01499              -1.80    -3600.00
01500              -0.20    -3400.00
01501               0.40    -2800.00
01502              -1.20    -2400.00
01503              -0.20    -2000.00
01504               0.20    -1600.00
01505              -1.00    -1200.00
01506              -0.60     -800.00
01507               0.20     -200.00
01508              -0.20        0.00
01509               0.20      600.00
01510               2.80      800.00
01511               0.60     1400.00
01512              -2.80     1800.00
01513               1.00     2000.00
01514               2.60     2600.00
01515              -1.40     2800.00
01516              -1.20     3200.00
01517               7.20     3800.00
01518              18.40     4400.00
01519              14.80     4800.00
01520             -25.00     5200.00
01521             -25.00     5600.00
01522              25.00     6200.00
01523               2.40     6400.00
01524             -25.00     6600.00
01525              12.80     7000.00
01526              25.00     7800.00
01527             -25.00     8000.00
01528             -25.00     8200.00
01529              25.00     8800.00
01530             -10.40     9000.00
01531             -25.00     9600.00
01532              25.00     9800.00
01533              23.40    10200.00
01534             -25.00    10800.00
01535              21.40    11000.00
01536              25.00    11200.00
01537             -25.00    11600.00
01538             -25.00    12200.00
01539              25.00    12600.00
01540               9.20    13000.00
01541             -25.00    13400.00
01542              14.80    13600.00
01543              25.00    14200.00
01544             -23.60    14400.00
01545             -15.60    14600.00
01546              23.60    15200.00
01547               0.80    15200.00
01548             -23.80    15800.00
01549              17.00    16000.00
01550              12.40    16400.00
01551             -23.60    16600.00
01552               2.80    16800.00
01553              15.00    17200.00
01554             -13.00    17400.00
01555              -6.00    17800.00
01556              15.00    18200.00
01557              -2.20    18400.00
01558             -10.40    18400.00
01559               6.40    18800.00
01560               3.00    19000.00
01561              -8.60    19400.00
01562               0.20    19800.00
01563               6.60    19800.00
01564              -3.60    20000.00
01565              -2.40    20400.00
01566               3.40    20400.00
01567               0.20    20600.00
01568              -5.00    21000.00
01569               0.60    21000.00
01570               3.80    21200.00
01571              -3.80    21200.00
01572              -0.40    21400.00
01573               3.80    21600.00
01574              -2.20    21800.00
01575              -2.80    21800.00
01576               2.00    22000.00
01577               0.40    22200.00
01578              -2.60    22200.00
01579               1.40    22400.00
01580               0.80    22400.00
01581              -2.60    22600.00
01582              -0.20    22400.00
01583               1.40    22600.00
01584              -1.20    22800.00
01585              -0.60    22800.00
01586               0.60    22800.00
01587               0.80    22800.00
01588              -1.80    22800.00
01589              -0.60    22800.00
01590               1.00    22800.00
01591              -1.20    22800.00
01592              -0.60    22800.00
01593               1.00    22800.00
01594              -0.40    22600.00
01595              -1.00    22800.00
01596               0.40    22800.00
01597               0.40    22600.00
01598              -1.40    22600.00
01599               0.00    22400.00
01600               0.20    22400.00
01601              -0.60    22200.00
01602              -0.40    22200.00
01603              -0.60    22200.00
01604              -0.40    22000.00
01605              -0.20    22000.00
01606              -1.00    21800.00
01607              -0.40    21600.00
01608               0.20    21600.00
01609              -1.20    21400.00
01610              -0.40    21200.00
01611               0.20    21000.00
01612              -1.20    21000.00
01613              -0.40    20600.00
01614               1.20    20400.00
01615              -1.00    20400.00
01616              -0.60    20000.00
01617               0.20    20000.00
01618              -0.60    19600.00
01619              -0.80    19600.00
01620              -0.40    19200.00
01621              -0.20    19000.00
01622              -0.40    18800.00
01623              -0.60    18600.00
01624               0.40    18200.00
01625              -0.20    18000.00
01626              -1.80    17600.00
01627               1.40    17400.00
01628              -0.60    17200.00
01629              -2.00    16800.00
01630               1.80    16400.00
01631              -0.40    16200.00
01632              -2.80    15800.00
01633               1.20    15800.00
01634              -0.20    15200.00
01635              -1.80    15000.00
01636               0.80    14800.00
01637               0.80    14400.00
01638              -2.00    14000.00
01639              -0.60    13600.00
01640               0.80    13200.00
01641              -2.00    12800.00
01642              -0.20    12600.00
01643               0.20    12200.00
01644              -0.60    11800.00
01645              -0.20    11600.00
01646              -0.20    11000.00
01647               0.60    10800.00
01648              -1.20    10200.00
01649              -0.20    10000.00
01650               0.20     9400.00
01651              -1.20     9200.00
01652              -0.20     8800.00
01653               0.20     8400.00
01654              -0.60     8000.00
01655              -0.60     7600.00
01656               0.20     7200.00
01657              -0.40     6600.00
01658              -1.20     6200.00
01659               0.20     5800.00
01660               0.20     5400.00
01661              -1.20     4800.00
01662              -0.60     4400.00
01663               0.20     4000.00
01664              -0.60     3600.00
01665              -1.20     3200.00
01666               0.40     3000.00
01667               0.20     2400.00
01668              -1.80     2000.00
01669               0.40     1600.00
01670              -0.40     1000.00
01671              -2.00      800.00
01672               0.00      400.00
01673               0.40        0.00
01674              -0.60     -600.00
01675               2.60     -800.00
01676               2.00    -1600.00
01677              -3.40    -1800.00
01678              -0.60    -2000.00
01679               2.60    -2600.00
01680              -2.00    -3000.00
01681              -0.40    -3200.00
01682              15.00    -3600.00
01683              25.00    -4400.00
01684             -25.00    -5200.00
01685             -25.00    -5600.00
01686              25.00    -6000.00
01687              15.60    -6000.00
01688             -25.00    -6000.00
01689              25.00    -6400.00
01690              25.00    -7400.00
01691             -25.00    -7200.00
01692               8.60    -8000.00
01693              25.00    -8800.00
01694             -25.00    -8400.00
01695             -25.00    -9400.00
01696              25.00    -9600.00
01697             -25.00    -9800.00
01698             -23.80   -10600.00
01699              17.20   -10400.00
01700              25.00   -11200.00
01701             -18.40   -11600.00
01702             -25.00   -11800.00
01703              25.00   -12400.00
01704               4.40   -12600.00
01705             -25.00   -13000.00
01706              25.00   -13600.00
01707              22.20   -13600.00
01708             -25.00   -14200.00
01709              -9.40   -14400.00
01710              25.00   -15000.00
01711             -15.80   -15200.00
01712             -25.00   -15400.00
01713              25.00   -16000.00
01714              -2.00   -16000.00
01715             -25.00   -16400.00
01716              16.40   -16800.00
01717               9.40   -17000.00
01718             -16.40   -17200.00
01719              -2.80   -17600.00
01720              18.20   -17800.00
01721              -6.00   -18000.00
01722             -11.40   -18400.00
01723              10.60   -18800.00
01724               2.60   -19000.00
01725             -13.40   -19200.00
01726               2.60   -19400.00
01727              10.60   -19600.00
01728              -9.20   -20000.00
01729              -1.80   -20000.00
01730               8.00   -20200.00
01731              -2.80   -20400.00
01732              -8.60   -20800.00
01733               5.20   -20800.00
01734               4.20   -21000.00
01735              -8.40   -21200.00
01736               4.00   -21200.00
01737               4.20   -21600.00
01738              -6.00   -21600.00
01739              -1.40   -21800.00
01740               3.80   -22000.00
01741              -1.40   -22000.00
01742              -3.80   -22000.00
01743               3.40   -22400.00
01744               1.00   -22400.00
01745              -4.40   -22400.00
01746              -0.60   -22400.00
01747               2.20   -22800.00
01748              -1.80   -22600.00
01749              -2.20   -22800.00
01750               2.20   -22600.00
01751               0.40   -22800.00
01752              -3.80   -22800.00
01753               1.00   -22800.00
01754               1.80   -22800.00
01755              -3.80   -22800.00
01756               0.40   -22800.00
01757               2.00   -22800.00
01758              -1.40   -22800.00
01759              -1.20   -22800.00
01760               0.40   -22800.00
01761               0.20   -22600.00
01762              -1.80   -22800.00
01763               0.20   -22600.00
01764               0.80   -22600.00
01765              -1.20   -22400.00
01766              -0.20   -22400.00
01767               0.20   -22400.00
01768               0.00   -22200.00
01769              -1.00   -22000.00
01770              -0.60   -22000.00
01771               0.40   -21800.00
01772              -1.00   -21600.00
01773              -1.00   -21600.00
01774               0.20   -21200.00
01775               0.20   -21200.00
01776              -1.00   -21000.00
01777              -0.60   -20800.00
01778               1.00   -20800.00
01779              -1.40   -20400.00
01780              -0.20   -20200.00
01781               1.00   -20200.00
01782              -1.40   -19800.00
01783              -0.60   -19600.00
01784               0.40   -19400.00
01785              -0.60   -19200.00
01786              -0.20   -19000.00
01787               0.20   -18800.00
01788              -1.00   -18400.00
01789              -0.40   -18400.00
01790              -0.60   -17800.00
01791              -1.00   -17800.00
01792              -0.40   -17400.00
01793              -0.20   -17200.00
01794              -1.00   -16800.00
01795              -0.20   -16400.00
01796              -0.20   -16200.00
01797              -1.20   -16000.00
01798               0.00   -15600.00
01799              -0.40   -15200.00
01800              -1.20   -14800.00
01801              -0.60   -14600.00
01802              -0.60   -14400.00
01803              -1.00   -14000.00
01804              -1.00   -13600.00
01805              -0.80   -13200.00
01806              -0.80   -12800.00
01807              -0.40   -12400.00
01808              -0.20   -12000.00
01809              -1.00   -11800.00
01810              -1.00   -11400.00
01811               0.20   -11000.00
01812              -1.20   -10600.00
01813              -1.00   -10000.00
01814              -0.20    -9800.00
01815              -1.00    -9600.00
01816              -1.00    -9000.00
01817              -0.20    -8400.00
01818              -0.60    -8200.00
01819              -1.00    -8000.00
01820              -0.20    -7600.00
01821              -0.40    -7000.00
01822              -1.20    -6600.00
01823              -0.20    -6200.00
01824              -0.40    -6000.00
01825              -1.20    -5400.00
01826              -0.40    -4800.00
01827               0.40    -4600.00
01828              -1.00    -4000.00
01829              -0.60    -3800.00
01830               0.20    -3400.00
01831              -0.40    -2800.00
01832              -1.20    -2400.00
01833               0.20    -2000.00
01834              -0.40    -1600.00
01835              -1.20    -1200.00
01836              -0.40     -600.00
01837               0.20     -200.00
01838              -0.20        0.00
01839               0.40      600.00
01840               3.60     1000.00
01841              -0.40     1400.00
01842              -2.60     2000.00
01843               1.80     2200.00
01844               2.00     2600.00
01845              -2.00     3000.00
01846               0.20     3200.00
01847               8.20     3800.00
01848              21.20     4400.00
01849               8.20     4800.00
01850             -25.00     5400.00
01851             -15.80     5600.00
01852              25.00     6000.00
01853              -9.80     6200.00
01854             -25.00     6800.00
01855              25.00     7200.00
01856              25.00     7800.00
01857             -25.00     8000.00
01858             -25.00     8600.00
01859              25.00     8600.00
01860             -25.00     9200.00
01861             -25.00     9600.00
01862              25.00     9800.00
01863              -1.40    10400.00
01864             -25.00    10800.00
01865              25.00    11000.00
01866              25.00    11600.00
01867             -25.00    11800.00
01868             -19.80    12200.00
01869              25.00    12600.00
01870              -2.60    12800.00
01871             -25.00    13400.00
01872              22.60    13600.00
01873              20.40    14000.00
01874             -25.00    14400.00
01875              -8.60    14800.00
01876              25.00    15200.00
01877              -8.80    15600.00
01878             -19.60    15800.00
01879              24.20    16000.00
01880               2.80    16200.00
01881             -23.60    16600.00
01882              11.60    16800.00
01883               9.00    17200.00
01884             -16.80    17600.00
01885               2.00    17800.00
01886              12.80    18000.00
01887              -7.00    18200.00
01888              -5.40    18600.00
01889               7.40    18800.00
01890              -1.00    19200.00
01891              -6.80    19400.00
01892               2.00    19600.00
01893               3.40    19800.00
01894              -2.60    20000.00
01895              -0.20    20200.00
01896               2.20    20400.00
01897              -1.20    20600.00
01898              -4.20    21000.00
01899               1.00    21000.00
01900               3.20    21200.00
01901              -3.00    21200.00
01902               0.20    21600.00
01903               3.40    21600.00
01904              -2.80    21600.00
01905              -2.60    21800.00
01906               2.80    22000.00
01907               0.20    22000.00
01908              -2.80    22000.00
01909               3.00    22200.00
01910               1.20    22400.00
01911              -4.20    22400.00
01912               0.20    22400.00
01913               1.60    22600.00
01914              -2.60    22800.00
01915              -0.40    22800.00
01916               2.60    22800.00
01917              -0.60    22800.00
01918              -2.00    22800.00
01919               1.20    22800.00
01920              -0.20    22600.00
01921              -2.00    22800.00
01922               1.00    22800.00
01923               0.00    22800.00
01924              -1.20    22600.00
01925               0.20    22800.00
01926               0.20    22800.00
01927              -1.20    22600.00
01928              -0.60    22400.00
01929               0.40    22400.00
01930              -0.60    22400.00
01931              -0.40    22400.00
01932               0.20    22200.00
01933              -1.20    22200.00
01934              -0.40    22000.00
01935               0.20    21800.00
01936              -1.00    21800.00
01937              -0.40    21600.00
01938               0.40    21600.00
01939              -0.60    21400.00
01940              -0.20    21200.00
01941              -0.20    21000.00
01942              -1.40    20800.00
01943              -0.60    20800.00
01944               0.40    20600.00
01945              -1.00    20200.00
01946              -0.20    20000.00
01947               0.40    19800.00
01948              -1.00    19800.00
01949              -0.40    19400.00
01950               0.00    19200.00
01951              -0.60    19000.00
01952               0.20    18800.00
01953               0.00    18400.00
01954              -0.80    18200.00
01955              -0.40    18000.00
01956              -0.20    17600.00
01957              -0.60    17400.00
01958              -0.20    17200.00
01959               0.20    16800.00
01960              -0.60    16600.00
01961              -0.20    16200.00
01962               0.20    16000.00
01963              -1.00    15600.00
01964              -0.40    15200.00
01965              -0.20    15000.00
01966              -0.40    14600.00
01967              -0.40    14200.00
01968               0.20    14000.00
01969              -0.40    13600.00
01970              -0.40    13200.00
01971               0.00    12800.00
01972              -0.60    12600.00
01973              -0.40    12000.00
01974              -0.20    11800.00
01975              -0.60    11400.00
01976              -0.60    11000.00
01977               0.20    10600.00
01978              -0.60    10200.00
01979              -0.40     9600.00
01980               0.20     9400.00
01981              -0.60     9000.00
01982              -0.40     8600.00
01983              -0.40     8200.00
01984              -1.00     7800.00
01985              -0.60     7400.00
01986              -0.40     7000.00
01987              -0.60     6600.00
01988              -0.60     6000.00
01989              -0.40     6000.00
01990              -0.40     5400.00
01991              -0.60     4800.00
01992              -0.60     4400.00
01993              -0.60     4000.00
01994              -0.60     3600.00
01995              -0.40     3200.00
01996              -0.60     2800.00
01997              -0.40     2400.00
01998              -0.40     2000.00
01999              -0.40     1400.00
02000              -0.40     1000.00
02001              -0.60      600.00
02002              -0.60      200.00
02003              -0.20     -200.00
02004               0.40     -600.00
02005               2.00    -1000.00
02006               0.40    -1400.00
02007              -2.80    -1800.00
02008               0.20    -2000.00
02009               2.00    -2600.00
02010              -1.80    -2800.00
02011               1.00    -3400.00
02012              19.20    -3800.00
02013              25.00    -4400.00
02014             -25.00    -5200.00
02015             -25.00    -5600.00
02016              25.00    -6000.00
02017               1.40    -6000.00
02018             -25.00    -6200.00
02019              25.00    -6600.00
02020              25.00    -7600.00
02021             -25.00    -7200.00
02022              25.00    -8200.00
02023              25.00    -8800.00
02024             -25.00    -8800.00
02025              12.20    -9600.00
02026              25.00    -9600.00
02027             -25.00    -9800.00
02028             -12.80   -10600.00
02029              21.80   -10600.00
02030              25.00   -11200.00
02031             -25.00   -11600.00
02032             -25.00   -11800.00
02033              25.00   -12600.00
02034             -21.00   -12400.00
02035             -25.00   -13200.00
02036              25.00   -13600.00
02037               8.40   -13800.00
02038             -25.00   -14400.00
02039               1.40   -14400.00
02040              25.00   -14800.00
02041             -25.00   -15200.00
02042             -19.00   -15600.00
02043              25.00   -16000.00
02044             -12.40   -16000.00
02045             -23.40   -16600.00
02046              18.80   -16800.00
02047               5.40   -17000.00
02048             -18.60   -17200.00
02049               1.40   -17400.00
02050              18.80   -17800.00
02051             -10.80   -18000.00
02052              -8.80   -18600.00
02053              12.80   -18600.00
02054              -1.00   -18800.00
02055             -14.00   -19200.00
02056               6.80   -19400.00
02057               8.20   -19600.00
02058             -10.80   -20000.00
02059               1.20   -20000.00
02060               7.60   -20400.00
02061              -5.00   -20400.00
02062              -7.60   -20800.00
02063               6.80   -20800.00
02064               1.80   -21000.00
02065              -7.60   -21200.00
02066               5.00   -21400.00
02067               3.00   -21600.00
02068              -6.60   -21800.00
02069              -1.20   -21800.00
02070               4.60   -21800.00
02071              -2.20   -22000.00
02072              -4.00   -22200.00
02073               4.60   -22400.00
02074               0.20   -22400.00
02075              -5.60   -22400.00
02076               1.00   -22600.00
02077               2.60   -22600.00
02078              -3.40   -22600.00
02079              -1.20   -22600.00
02080               3.60   -22600.00
02081              -1.00   -22800.00
02082              -3.60   -22800.00
02083               2.80   -22800.00
02084               0.00   -22800.00
02085              -4.20   -22800.00
02086               1.40   -22800.00
02087               1.40   -22800.00
02088              -1.80   -22800.00
02089              -0.40   -22800.00
02090               1.00   -22800.00
02091              -0.40   -22600.00
02092              -1.40   -22600.00
02093               0.40   -22400.00
02094               0.20   -22600.00
02095              -1.00   -22400.00
02096              -0.60   -22400.00
02097              -0.40   -22400.00
02098               0.00   -22000.00
02099              -1.40   -22000.00
02100              -0.40   -21800.00
02101               1.00   -21800.00
02102              -1.00   -21600.00
02103              -0.40   -21600.00
02104               0.60   -21200.00
02105              -0.40   -21200.00
02106              -1.00   -21000.00
02107              -0.20   -20800.00
02108               0.20   -20800.00
02109              -1.00   -20400.00
02110               0.20   -20200.00
02111               0.00   -20000.00
02112              -1.00   -20000.00
02113              -0.40   -19600.00
02114              -0.60   -19400.00
02115              -0.60   -19200.00
02116              -0.40   -19000.00
02117              -0.40   -18800.00
02118              -0.20   -18400.00
02119              -0.60   -18000.00
02120              -0.60   -17800.00
02121              -0.80   -17600.00
02122              -0.40   -17200.00
02123              -0.40   -17000.00
02124              -1.20   -16800.00
02125               0.20   -16400.00
02126              -0.60   -16200.00
02127              -2.00   -15800.00
02128               0.20   -15600.00
02129              -0.20   -15200.00
02130              -1.40   -14800.00
02131               0.00   -14600.00
02132               0.40   -14400.00
02133              -1.20   -14000.00
02134              -1.00   -13600.00
02135               0.20   -13200.00
02136              -1.00   -12800.00
02137              -1.00   -12400.00
02138               0.20   -12000.00
02139              -0.60   -11800.00
02140              -1.00   -11200.00
02141               0.00   -10800.00
02142              -0.60   -10600.00
02143              -0.60   -10200.00
02144              -0.60    -9600.00
02145              -0.60    -9600.00
02146              -0.40    -9000.00
02147              -0.60    -8600.00
02148              -1.00    -8400.00
02149              -0.60    -7600.00
02150              -0.40    -7200.00
02151              -0.40    -7000.00
02152              -0.60    -6600.00
02153               0.00    -6000.00
02154              -0.60    -5800.00
02155              -0.60    -5200.00
02156              -0.60    -4800.00
02157              -0.20    -4400.00
02158              -1.20    -4000.00
02159              -0.60    -3600.00
02160               0.20    -3200.00
02161               0.20    -2800.00
02162              -1.00    -2400.00
02163              -0.40    -2000.00
02164              -0.20    -1600.00
02165              -1.20    -1000.00
02166              -0.80     -800.00
02167               0.40     -200.00
02168              -0.20      400.00
02169               0.40      600.00
02170               3.80     1200.00
02171              -1.20     1600.00
02172              -2.40     2000.00
02173               2.60     2200.00
02174               1.20     2600.00
02175              -2.60     3000.00
02176               1.40     3200.00
02177               9.00     4000.00
02178              22.80     4600.00
02179              -0.20     5200.00
02180             -25.00     5400.00
02181              -5.40     5600.00
02182              25.00     6000.00
02183             -21.20     6400.00
02184             -25.00     6800.00
02185              25.00     7200.00
02186              25.00     7800.00
02187             -25.00     8000.00
02188               4.80     8600.00
02189              25.00     8600.00
02190             -25.00     9200.00
02191             -25.00     9600.00
02192              25.00     9800.00
02193             -25.00    10400.00
02194             -25.00    10800.00
02195              25.00    11000.00
02196              20.20    11600.00
02197             -25.00    12000.00
02198              -7.00    12000.00
02199              25.00    12800.00
02200             -15.00    13200.00
02201             -25.00    13400.00
02202              25.00    13800.00
02203              11.40    14200.00
02204             -25.00    14400.00
02205              -2.80    14800.00
02206              25.00    15200.00
02207             -13.40    15600.00
02208             -15.20    15800.00
02209              24.60    16000.00
02210              -1.00    16400.00
02211             -20.60    16800.00
02212              12.60    16800.00
02213               7.60    17200.00
02214             -16.40    17600.00
02215               2.00    17800.00
02216              13.20    18200.00
02217              -7.60    18400.00
02218              -7.00    18800.00
02219               8.40    19000.00
02220              -0.40    19200.00
02221              -8.60    19400.00
02222               3.80    19600.00
02223               5.20    19600.00
02224              -5.00    20000.00
02225              -0.40    20200.00
02226               4.20    20400.00
02227              -3.00    20600.00
02228              -4.20    21000.00
02229               3.80    21000.00
02230               1.80    21200.00
02231              -4.60    21400.00
02232               2.40    21400.00
02233               2.40    21600.00
02234              -4.00    21600.00
02235              -1.00    21800.00
02236               2.20    22000.00
02237              -0.60    22200.00
02238              -2.20    22200.00
02239               2.20    22400.00
02240               0.40    22400.00
02241              -2.80    22400.00
02242               0.40    22400.00
02243               1.00    22600.00
02244              -1.20    22600.00
02245              -1.40    22600.00
02246               0.60    22800.00
02247               0.60    22800.00
02248              -2.40    22800.00
02249              -0.60    22800.00
02250               1.80    22800.00
02251              -1.80    22800.00
02252              -1.00    22800.00
02253               1.20    22800.00
02254               0.00    22800.00
02255              -2.00    22600.00
02256               0.40    22600.00
02257               0.40    22600.00
02258              -2.60    22400.00
02259               0.60    22400.00
02260               0.20    22400.00
02261              -1.20    22200.00
02262               0.00    22200.00
02263               0.20    22200.00
02264              -0.60    22000.00
02265              -0.40    21800.00
02266              -0.60    21800.00
02267              -1.00    21600.00
02268              -0.40    21400.00
02269              -0.40    21200.00
02270              -0.60    21200.00
02271               0.40    21000.00
02272              -0.60    20800.00
02273              -0.40    20600.00
02274               0.80    20400.00
02275              -0.60    20400.00
02276              -0.40    20000.00
02277               0.40    19800.00
02278              -1.00    19600.00
02279              -1.00    19400.00
02280              -0.20    19200.00
02281              -0.60    19000.00
02282              -0.20    18800.00
02283               0.40    18400.00
02284              -0.60    18200.00
02285              -0.60    17800.00
02286               0.20    17600.00
02287              -0.60    17200.00
02288              -0.60    17200.00
02289               1.00    16600.00
02290              -0.60    16400.00
02291              -0.60    16200.00
02292               0.60    15800.00
02293              -0.60    15600.00
02294              -1.00    15200.00
02295               0.40    15000.00
02296              -0.60    14600.00
02297              -1.00    14200.00
02298               0.20    14000.00
02299              -0.20    13600.00
02300              -1.00    13200.00
02301               0.40    12800.00
02302              -0.20    12400.00
02303              -0.60    12000.00
02304               0.20    11800.00
02305              -0.20    11400.00
02306              -0.60    10800.00
02307              -0.40    10600.00
02308              -0.60    10200.00
02309              -0.60     9600.00
02310               0.00     9400.00
02311              -0.40     8800.00
02312              -0.40     8600.00
02313              -0.40     8200.00
02314              -0.60     7800.00
02315              -1.00     7400.00
02316              -0.20     7200.00
02317              -0.60     6600.00
02318              -1.00     6200.00
02319               0.00     5600.00
02320              -0.20     5400.00
02321              -0.80     4600.00
02322              -0.40     4400.00
02323               0.20     3800.00
02324              -1.00     3400.00
02325              -0.60     3200.00
02326              -0.20     2600.00
02327              -1.00     2200.00
02328              -1.20     1800.00
02329               0.40     1600.00
02330              -1.00     1000.00
02331              -1.00      600.00
02332               0.40        0.00
02333               0.20     -200.00
02334              -0.20     -800.00
02335               3.60    -1000.00
02336              -0.40    -1600.00
02337              -3.00    -2000.00
02338               1.20    -2000.00
02339               1.20    -2600.00
02340              -2.80    -2800.00
02341               3.00    -3200.00
02342              23.00    -4000.00
02343              21.80    -4800.00
02344             -25.00    -5200.00
02345             -22.40    -5600.00
02346              25.00    -6000.00
02347             -13.00    -6200.00
02348             -25.00    -6000.00
02349              25.00    -6800.00
02350              25.00    -7400.00
02351             -25.00    -7200.00
02352              25.00    -8400.00
02353              25.00    -8400.00
02354             -25.00    -9000.00
02355              25.00    -9600.00
02356              25.00    -9600.00
02357             -25.00   -10000.00
02358              -4.20   -10600.00
02359              24.40   -10600.00
02360              25.00   -11400.00
02361             -25.00   -11600.00
02362             -16.40   -11800.00
02363              25.00   -12400.00
02364             -25.00   -12400.00
02365             -25.00   -13200.00
02366              25.00   -13600.00
02367              -5.20   -13800.00
02368             -25.00   -14400.00
02369              11.80   -14600.00
02370              25.00   -15000.00
02371             -25.00   -15200.00
02372              -5.40   -15600.00
02373              25.00   -16000.00
02374             -22.60   -16200.00
02375             -15.60   -16600.00
02376              20.20   -16800.00
02377               0.00   -17000.00
02378             -18.40   -17400.00
02379               6.00   -17600.00
02380              16.40   -18000.00
02381             -13.80   -18400.00
02382              -5.00   -18400.00
02383              13.20   -18800.00
02384              -4.40   -19000.00
02385             -12.60   -19400.00
02386               9.80   -19400.00
02387               4.60   -19600.00
02388             -11.60   -20000.00
02389               3.80   -20200.00
02390               6.00   -20200.00
02391              -7.00   -20400.00
02392              -5.40   -20800.00
02393               8.40   -20800.00
02394              -1.80   -21000.00
02395              -6.00   -21200.00
02396               6.80   -21200.00
02397              -0.40   -21400.00
02398              -5.60   -21600.00
02399               0.80   -21800.00
02400               2.60   -22000.00
02401              -3.00   -22000.00
02402              -1.40   -22000.00
02403               3.60   -22400.00
02404              -1.00   -22400.00
02405              -3.60   -22400.00
02406               0.80   -22600.00
02407               1.20   -22600.00
02408              -2.80   -22600.00
02409              -1.00   -22600.00
02410               2.60   -22800.00
02411              -1.00   -22600.00
02412              -2.80   -22800.00
02413               2.60   -22800.00
02414               0.20   -22800.00
02415              -3.00   -22800.00
02416               1.40   -22800.00
02417               0.40   -22800.00
02418              -1.40   -22600.00
02419              -1.00   -22800.00
02420               0.40   -22800.00
02421              -0.60   -22600.00
02422              -1.40   -22600.00
02423               0.60   -22600.00
02424               0.20   -22400.00
02425              -0.40   -22600.00
02426              -0.40   -22400.00
02427              -0.20   -22200.00
02428              -0.20   -22000.00
02429              -1.20   -22000.00
02430              -0.20   -21800.00
02431               0.40   -21800.00
02432              -1.20   -21600.00
02433              -0.60   -21600.00
02434               0.40   -21400.00
02435              -0.20   -21200.00
02436              -1.20   -21000.00
02437               0.20   -20800.00
02438               0.20   -20800.00
02439              -1.20   -20400.00
02440              -0.20   -20200.00
02441               0.20   -20200.00
02442              -1.00   -19800.00
02443              -0.40   -19600.00
02444              -0.40   -19400.00
02445              -0.20   -19200.00
02446              -0.80   -19000.00
02447              -1.00   -18600.00
02448               0.20   -18400.00
02449              -1.40   -18200.00
02450              -1.00   -17800.00
02451              -0.20   -17400.00
02452              -1.20   -17200.00
02453              -0.40   -17000.00
02454               0.20   -16800.00
02455              -0.60   -16400.00
02456              -0.80   -16200.00
02457              -0.60   -15800.00
02458              -0.40   -15600.00
02459              -1.20   -15200.00
02460              -0.60   -14800.00
02461              -0.40   -14600.00
02462              -0.80   -14000.00
02463              -0.20   -13800.00
02464              -0.60   -13600.00
02465              -0.60   -13200.00
02466              -0.40   -12800.00
02467              -0.60   -12400.00
02468              -0.60   -12000.00
02469              -0.80   -11600.00
02470              -0.40   -11200.00
02471              -0.60   -11000.00
02472              -1.00   -10400.00
02473               0.00   -10000.00
02474              -1.00    -9800.00
02475              -0.40    -9200.00
02476               0.00    -9000.00
02477              -0.60    -8800.00
02478              -1.00    -8200.00
02479              -0.40    -7600.00
02480              -0.60    -7400.00
02481              -0.40    -6800.00
02482              -0.60    -6400.00
02483               0.00    -6000.00
02484              -0.60    -5800.00
02485              -0.60    -5200.00
02486              -0.40    -4800.00
02487              -0.40    -4400.00
02488              -1.20    -4000.00
02489              -0.60    -3600.00
02490              -0.20    -3200.00
02491              -0.40    -2800.00
02492              -0.60    -2400.00
02493               0.20    -2000.00
02494              -0.20    -1600.00
02495              -1.00    -1000.00
02496              -0.60     -600.00
02497              -0.20        0.00
02498               0.00      400.00
02499               0.80      800.00
02500               3.40     1200.00
02501              -2.00     1600.00
02502              -2.00     1800.00
02503               2.80     2400.00
02504               1.00     2600.00
02505              -2.60     3000.00
02506               2.80     3200.00
02507              10.60     3800.00
02508              23.40     4400.00
02509             -10.40     5000.00
02510             -25.00     5600.00
02511               5.20     5600.00
02512              25.00     6200.00
02513             -25.00     6400.00
02514             -25.00     6800.00
02515              25.00     7400.00
02516              25.00     7600.00
02517             -25.00     8000.00
02518              25.00     8600.00
02519              25.00     8600.00
02520             -25.00     9200.00
02521              -3.80     9800.00
02522              25.00    10000.00
02523             -25.00    10400.00
02524             -25.00    10800.00
02525              25.00    11200.00
02526               7.80    11600.00
02527             -25.00    11800.00
02528               6.00    12400.00
02529              25.00    12800.00
02530             -25.00    13200.00
02531             -18.00    13600.00
02532              25.00    13800.00
02533               2.40    14200.00
02534             -25.00    14600.00
02535               4.60    14800.00
02536              22.80    15200.00
02537             -19.00    15600.00
02538              -8.40    15800.00
02539              25.00    16000.00
02540              -8.60    16400.00
02541             -17.40    16800.00
02542              15.60    16800.00
02543               2.80    17200.00
02544             -16.60    17600.00
02545               7.00    18000.00
02546              11.60    18000.00
02547              -9.80    18400.00
02548              -4.40    18600.00
02549               9.00    19000.00
02550              -3.20    19200.00
02551              -7.60    19400.00
02552               5.80    19800.00
02553               3.00    19800.00
02554              -5.20    20000.00
02555               0.80    20200.00
02556               3.60    20600.00
02557              -3.80    20600.00
02558              -3.80    20800.00
02559               4.20    21200.00
02560               0.60    21200.00
02561              -4.40    21400.00
02562               3.00    21400.00
02563               2.00    21600.00
02564              -4.20    21800.00
02565              -0.60    22000.00
02566               2.80    22000.00
02567              -2.00    22000.00
02568              -1.80    22200.00
02569               2.60    22200.00
02570              -1.00    22400.00
02571              -2.20    22400.00
02572               1.00    22400.00
02573               0.20    22600.00
02574              -1.80    22800.00
02575              -0.40    22800.00
02576               1.00    22800.00
02577              -0.40    22800.00
02578              -1.80    22800.00
02579               0.40    22800.00
02580              -0.20    22800.00
02581              -1.80    22800.00
02582               0.20    22800.00
02583               0.20    22800.00
02584              -0.80    22600.00
02585              -0.20    22800.00
02586               0.20    22800.00
02587              -0.80    22400.00
02588              -1.00    22600.00
02589               0.00    22400.00
02590              -0.60    22400.00
02591              -0.60    22400.00
02592              -0.40    22200.00
02593              -0.60    22000.00
02594               0.20    22000.00
02595              -0.40    21800.00
02596              -0.60    21600.00
02597               0.00    21600.00
02598               0.20    21400.00
02599              -0.80    21400.00
02600               0.20    21000.00
02601               0.20    21200.00
02602              -1.80    20800.00
02603              -0.40    20600.00
02604               0.60    20600.00
02605              -1.00    20200.00
02606              -0.60    20000.00
02607               0.20    19800.00
02608              -0.60    19600.00
02609              -0.60    19200.00
02610              -0.20    19200.00
02611              -0.20    18800.00
02612              -0.40    18600.00
02613              -0.20    18400.00
02614              -0.20    18000.00
02615              -0.40    17800.00
02616              -0.60    17600.00
02617              -0.20    17200.00
02618              -0.40    17000.00
02619              -0.40    16600.00
02620              -0.60    16400.00
02621              -0.20    16000.00
02622              -0.40    15800.00
02623              -0.60    15400.00
02624              -0.20    15000.00
02625               0.20    14800.00
02626              -0.20    14400.00
02627              -0.40    14400.00
02628               0.20    13800.00
02629              -0.60    13400.00
02630              -0.60    13000.00
02631              -0.20    12600.00
02632              -0.40    12400.00
02633              -0.60    12000.00
02634              -0.40    11600.00
02635              -0.60    11000.00
02636              -0.40    10800.00
02637              -0.20    10400.00
02638              -0.60    10000.00
02639              -0.60     9600.00
02640               0.40     9400.00
02641              -1.00     8800.00
02642              -0.60     8400.00
02643               0.40     8200.00
02644              -0.60     7600.00
02645              -1.20     7200.00
02646               0.60     7000.00
02647              -1.00     6600.00
02648              -1.00     6000.00
02649              -0.20     5800.00
02650              -0.60     5200.00
02651              -0.60     4800.00
02652              -0.40     4200.00
02653              -0.60     3800.00
02654              -0.20     3400.00
02655              -0.40     3000.00
02656              -0.80     2600.00
02657               0.20     2200.00
02658              -0.20     1800.00
02659              -1.00     1400.00
02660              -1.00      800.00
02661              -0.40      400.00
02662              -0.60        0.00
02663               0.00     -200.00
02664               1.00     -600.00
02665               3.40    -1200.00
02666              -1.20    -1600.00
02667              -2.00    -2000.00
02668               1.80    -2200.00
02669               0.40    -2800.00
02670              -2.20    -3000.00
02671               5.00    -3400.00
02672              25.00    -4000.00
02673              10.80    -4800.00
02674             -25.00    -5200.00
02675              -8.40    -5600.00
02676              25.00    -6000.00
02677             -25.00    -6200.00
02678             -25.00    -6200.00
02679              25.00    -7000.00
02680               5.00    -7400.00
02681             -25.00    -7400.00
02682              25.00    -8600.00
02683              25.00    -8600.00
02684             -25.00    -9000.00
02685              25.00    -9800.00
02686              25.00    -9600.00
02687             -25.00   -10000.00
02688               3.60   -10600.00
02689              25.00   -10800.00
02690              22.20   -11600.00
02691             -25.00   -11600.00
02692               5.00   -12200.00
02693              25.00   -12400.00
02694             -25.00   -12600.00
02695              -5.80   -13400.00
02696              25.00   -13400.00
02697             -19.00   -13800.00
02698             -25.00   -14400.00
02699              22.60   -14600.00
02700              24.20   -14800.00
02701             -25.00   -15200.00
02702               9.20   -15600.00
02703              25.00   -16000.00
02704             -25.00   -16200.00
02705              -6.20   -16600.00
02706              19.80   -16800.00
02707              -5.20   -17200.00
02708             -16.20   -17400.00
02709              10.60   -17600.00
02710              11.40   -17800.00
02711             -15.00   -18200.00
02712              -1.00   -18600.00
02713              11.40   -18800.00
02714              -7.20   -19200.00
02715              -9.80   -19200.00
02716              11.40   -19400.00
02717               1.20   -19600.00
02718              -9.80   -20000.00
02719               6.00   -20200.00
02720               4.20   -20400.00
02721              -8.20   -20800.00
02722              -3.40   -20800.00
02723               7.80   -20800.00
02724              -4.20   -21000.00
02725              -4.40   -21200.00
02726               6.80   -21400.00
02727              -2.00   -21600.00
02728              -4.60   -21800.00
02729               1.40   -21800.00
02730               2.20   -22000.00
02731              -3.40   -22000.00
02732              -1.00   -22000.00
02733               3.60   -22200.00
02734              -1.80   -22400.00
02735              -3.40   -22600.00
02736               1.80   -22600.00
02737               1.20   -22600.00
02738              -3.00   -22600.00
02739              -0.20   -22600.00
02740               2.60   -22800.00
02741              -2.20   -22800.00
02742              -2.20   -22800.00
02743               3.00   -22800.00
02744              -1.20   -22800.00
02745              -3.00   -22800.00
02746               2.60   -22800.00
02747               0.20   -22600.00
02748              -2.00   -22800.00
02749               0.20   -22800.00
02750               0.40   -22800.00
02751              -1.20   -22800.00
02752              -0.80   -22600.00
02753               0.40   -22600.00
02754              -1.00   -22600.00
02755              -1.00   -22400.00
02756              -0.60   -22400.00
02757              -0.40   -22200.00
02758               0.20   -22000.00
02759              -1.00   -22000.00
02760               0.60   -21800.00
02761               1.40   -21600.00
02762              -0.60   -21600.00
02763               0.20   -21400.00
02764               0.20   -21200.00
02765              -1.80   -21200.00
02766              -2.20   -21000.00
02767              -1.20   -20800.00
02768              -1.40   -20600.00
02769              -0.60   -20400.00
02770               1.80   -20000.00
02771               1.20   -20000.00
02772               0.40   -19800.00
02773               0.20   -19600.00
02774              -2.00   -19400.00
02775              -2.20   -19200.00
02776              -2.20   -18800.00
02777              -1.80   -18600.00
02778               0.20   -18400.00
02779               1.40   -18000.00
02780               1.00   -17800.00
02781               1.20   -17400.00
02782               0.60   -17200.00
02783              -2.20   -17000.00
02784              -3.00   -16800.00
02785              -2.20   -16400.00
02786              -2.60   -16000.00
02787              -0.40   -15600.00
02788               3.00   -15400.00
02789               2.00   -15200.00
02790               0.60   -14800.00
02791              -0.40   -14600.00
02792              -2.80   -14000.00
02793              -3.00   -13800.00
02794              -2.20   -13400.00
02795              -0.60   -13000.00
02796               1.20   -12800.00
02797               2.00   -12400.00
02798               1.40   -12000.00
02799              -0.20   -11400.00
02800              -1.80   -11400.00
02801              -2.80   -10800.00
02802              -2.60   -10400.00
02803              -1.00   -10000.00
02804              -0.40    -9800.00
02805               1.20    -9200.00
02806               1.20    -8800.00
02807               0.40    -8400.00
02808              -0.60    -8200.00
02809              -1.20    -7600.00
02810              -1.80    -7200.00
02811              -1.20    -6800.00
02812              -0.60    -6400.00
02813               0.20    -6000.00
02814               0.20    -5600.00
02815               1.00    -5200.00
02816              -0.60    -4800.00
02817              -1.20    -4400.00
02818              -1.20    -4000.00
02819              -1.20    -3600.00
02820              -0.60    -2800.00
02821               0.40    -2600.00
02822              -0.20    -2200.00
02823               0.20    -1800.00
02824               0.00    -1600.00
02825              -1.20     -800.00
02826              -1.00     -400.00
02827               0.20        0.00
02828              -0.20      400.00
02829               1.40      800.00
02830               3.80     1400.00
02831              -2.00     1400.00
02832              -2.20     2000.00
02833               2.80     2400.00
02834              -0.40     2800.00
02835              -3.40     3000.00
02836               4.40     3600.00
02837              13.00     4000.00
02838              23.20     4600.00
02839             -19.40     5200.00
02840             -25.00     5600.00
02841              15.00     5800.00
02842              25.00     6400.00
02843             -25.00     6600.00
02844             -25.00     6800.00
02845              25.00     7600.00
02846              18.60     7800.00
02847             -25.00     8200.00
02848              25.00     8800.00
02849              25.00     8800.00
02850             -25.00     9200.00
02851              23.60    10000.00
02852              25.00    10000.00
02853             -25.00    10400.00
02854             -14.80    11000.00
02855              25.00    11200.00
02856              -5.20    11600.00
02857             -25.00    12000.00
02858              17.80    12400.00
02859              25.00    12800.00
02860             -25.00    13200.00
02861              -8.60    13600.00
02862              25.00    13800.00
02863              -6.80    14200.00
02864             -25.00    14600.00
02865              11.00    14800.00
02866              18.40    15400.00
02867             -22.60    15600.00
02868              -0.40    16000.00
02869              24.20    16000.00
02870             -14.60    16400.00
02871             -12.20    16600.00
02872              17.20    17000.00
02873              -2.80    17200.00
02874             -14.60    17600.00
02875              10.60    17800.00
02876               8.20    18200.00
02877             -10.20    18400.00
02878              -1.40    18800.00
02879               8.20    19000.00
02880              -4.80    19200.00
02881              -6.20    19600.00
02882               6.20    19600.00
02883               2.00    19800.00
02884              -4.80    20000.00
02885               1.60    20200.00
02886               3.40    20600.00
02887              -4.80    20600.00
02888              -2.60    20800.00
02889               5.20    21200.00
02890              -1.20    21200.00
02891              -3.40    21200.00
02892               4.20    21600.00
02893               0.40    21600.00
02894              -4.40    21600.00
02895               0.60    21800.00
02896               1.80    22000.00
02897              -2.20    22000.00
02898              -0.60    22200.00
02899               2.00    22400.00
02900              -1.40    22400.00
02901              -1.80    22400.00
02902               1.00    22600.00
02903              -0.20    22600.00
02904              -1.40    22600.00
02905              -0.40    22800.00
02906               1.40    22600.00
02907              -1.00    22800.00
02908              -1.80    22800.00
02909               0.60    22800.00
02910              -0.20    22600.00
02911              -1.60    22800.00
02912               0.00    22800.00
02913               0.20    22800.00
02914              -1.00    22400.00
02915              -0.60    22600.00
02916               0.40    22600.00
02917              -0.80    22400.00
02918              -0.60    22400.00
02919               0.40    22400.00
02920              -0.20    22400.00
02921              -0.40    22200.00
02922              -0.40    22000.00
02923              -0.60    22200.00
02924              -0.20    22000.00
02925              -0.60    22000.00
02926              -0.40    21600.00
02927               0.20    21600.00
02928              -0.20    21400.00
02929              -0.20    21200.00
02930               0.40    21200.00
02931              -0.20    21000.00
02932              -1.20    20800.00
02933               0.40    20600.00
02934               0.20    20400.00
02935              -1.20    20000.00
02936               0.00    20000.00
02937               0.20    19800.00
02938              -0.80    19600.00
02939              -0.40    19200.00
02940               0.20    19200.00
02941              -0.60    18800.00
02942              -0.40    18600.00
02943               0.20    18200.00
02944              -0.40    18200.00
02945              -0.60    17800.00
02946              -0.20    17400.00
02947              -0.20    17200.00
02948               0.00    17000.00
02949               0.20    16600.00
02950              -0.60    16400.00
02951               0.20    16000.00
02952              -0.20    15800.00
02953              -1.00    15400.00
02954              -0.20    15200.00
02955              -0.20    14800.00
02956              -0.40    14400.00
02957              -0.40    14200.00
02958              -0.40    13600.00
02959              -0.60    13400.00
02960              -0.20    13000.00
02961              -0.20    12600.00
02962              -0.60    12400.00
02963              -0.40    12000.00
02964              -0.40    11600.00
02965              -1.00    11000.00
02966              -0.40    10800.00
02967              -0.40    10400.00
02968              -0.60    10000.00
02969              -0.60     9600.00
02970               0.00     9200.00
02971              -0.40     8800.00
02972              -0.60     8400.00
02973              -0.20     8200.00
02974              -0.60     7600.00
02975              -0.80     7200.00
02976              -0.40     6800.00
02977              -0.40     6400.00
02978              -0.60     6000.00
02979              -0.20     5600.00
02980               0.20     5200.00
02981              -0.60     4800.00
02982              -1.40     4200.00
02983               0.40     3800.00
02984               0.20     3400.00
02985              -2.20     3000.00
02986              -0.80     2400.00
02987               1.00     2200.00
02988              -0.60     1800.00
02989              -1.40     1400.00
02990               0.00      800.00
02991               0.20      400.00
02992              -0.60        0.00
02993               0.20     -400.00
02994               1.20     -800.00
02995               3.00    -1200.00
02996              -2.00    -1600.00
02997              -2.20    -2000.00
02998               2.20    -2400.00
02999               0.40    -2800.00
03000              -2.20    -3200.00
03001               7.80    -3400.00
03002              25.00    -4000.00
03003              -2.20    -5000.00
03004             -25.00    -5200.00
03005               4.20    -5600.00
03006              25.00    -6000.00
03007             -25.00    -6200.00
03008             -25.00    -6200.00
03009              25.00    -7200.00
03010             -25.00    -7400.00
03011             -25.00    -7400.00
03012              25.00    -8800.00
03013               6.00    -8600.00
03014             -25.00    -9000.00
03015              25.00    -9600.00
03016              14.20    -9600.00
03017             -25.00   -10200.00
03018               9.00   -10400.00
03019              25.00   -10800.00
03020              14.00   -11600.00
03021             -25.00   -11800.00
03022              25.00   -12400.00
03023              25.00   -12400.00
03024             -25.00   -12800.00
03025              11.80   -13200.00
03026              25.00   -13600.00
03027             -25.00   -14200.00
03028             -25.00   -14400.00
03029              25.00   -14600.00
03030              14.20   -15200.00
03031             -25.00   -15200.00
03032              21.20   -15600.00
03033              25.00   -16000.00
03034             -25.00   -16200.00
03035               0.60   -16600.00
03036              18.00   -17000.00
03037              -9.20   -17000.00
03038             -13.80   -17400.00
03039              14.40   -17600.00
03040               7.60   -18000.00
03041             -16.00   -18000.00
03042               3.00   -18800.00
03043              10.20   -18800.00
03044             -10.60   -19200.00
03045              -7.40   -19200.00
03046              13.00   -19600.00
03047              -2.20   -19600.00
03048              -8.60   -20000.00
03049               7.20   -20200.00
03050               2.80   -20400.00
03051              -9.00   -20600.00
03052              -1.20   -20800.00
03053               8.40   -20800.00
03054              -5.80   -21000.00
03055              -2.20   -21200.00
03056               7.00   -21400.00
03057              -3.40   -21600.00
03058              -4.60   -21600.00
03059               2.60   -21800.00
03060               1.40   -22000.00
03061              -4.40   -22000.00
03062               1.00   -22200.00
03063               3.60   -22400.00
03064              -3.00   -22400.00
03065              -2.20   -22600.00
03066               2.00   -22600.00
03067              -0.20   -22600.00
03068              -2.80   -22600.00
03069               1.20   -22600.00
03070               2.20   -22800.00
03071              -2.60   -22800.00
03072              -1.20   -22800.00
03073               2.60   -22800.00
03074              -2.40   -22800.00
03075              -2.00   -22600.00
03076               2.00   -22600.00
03077              -0.60   -22800.00
03078              -1.20   -22800.00
03079               0.00   -22600.00
03080               0.20   -22800.00
03081              -1.00   -22600.00
03082              -0.60   -22600.00
03083               0.20   -22600.00
03084              -0.40   -22400.00
03085              -0.40   -22400.00
03086              -1.00   -22200.00
03087               0.20   -22200.00
03088              -0.20   -22000.00
03089              -1.40   -22000.00
03090               0.60   -21800.00
03091               0.40   -21600.00
03092              -1.40   -21600.00
03093              -0.20   -21200.00
03094               0.40   -21200.00
03095              -1.20   -21000.00
03096              -1.40   -21000.00
03097               0.20   -20800.00
03098              -0.60   -20600.00
03099              -1.20   -20400.00
03100               0.40   -20200.00
03101              -0.60   -20000.00
03102              -1.00   -19800.00
03103              -0.20   -19600.00
03104              -0.40   -19200.00
03105              -0.40   -19200.00
03106              -0.60   -18800.00
03107              -0.60   -18600.00
03108              -0.60   -18400.00
03109              -0.60   -18000.00
03110              -0.60   -17600.00
03111              -0.60   -17400.00
03112               0.20   -17200.00
03113              -0.60   -17000.00
03114              -0.80   -16600.00
03115              -0.20   -16200.00
03116              -0.80   -16000.00
03117              -1.20   -15600.00
03118              -0.20   -15200.00
03119              -0.60   -15200.00
03120              -0.60   -14800.00
03121              -0.20   -14600.00
03122              -0.20   -14000.00
03123              -0.80   -13600.00
03124              -0.60   -13200.00
03125              -0.40   -13000.00
03126              -0.60   -12800.00
03127              -0.60   -12200.00
03128              -0.40   -12000.00
03129              -0.80   -11600.00
03130              -0.20   -11200.00
03131              -0.20   -10600.00
03132              -0.60   -10400.00
03133              -0.20   -10000.00
03134              -0.40    -9600.00
03135              -0.60    -9200.00
03136              -0.40    -8800.00
03137              -0.40    -8600.00
03138              -1.20    -8000.00
03139              -0.40    -7600.00
03140              -0.20    -7200.00
03141              -0.60    -6800.00
03142              -0.80    -6400.00
03143               0.60    -6000.00
03144              -1.00    -5600.00
03145              -1.20    -5000.00
03146               0.40    -4600.00
03147              -0.20    -4400.00
03148              -2.00    -3800.00
03149               0.20    -3400.00
03150               0.40    -3000.00
03151              -1.40    -2400.00
03152              -0.40    -2200.00
03153               0.40    -1600.00
03154              -1.00    -1400.00
03155              -1.40    -1000.00
03156               0.20     -400.00
03157               0.20        0.00
03158              -1.20      400.00
03159               2.00      800.00
03160               2.60     1200.00
03161              -3.00     1800.00
03162              -0.40     2000.00
03163               3.60     2400.00
03164              -0.60     2600.00
03165              -3.00     3200.00
03166               5.40     3600.00
03167              15.00     4000.00
03168              21.20     4800.00
03169             -25.00     5200.00
03170             -25.00     5600.00
03171              23.80     6000.00
03172              16.40     6200.00
03173             -25.00     6400.00
03174             -10.20     7000.00
03175              25.00     7800.00
03176             -10.20     7800.00
03177             -25.00     8400.00
03178              25.00     8600.00
03179              25.00     8800.00
03180             -25.00     9600.00
03181              25.00     9800.00
03182              25.00    10200.00
03183             -25.00    10800.00
03184               1.20    11000.00
03185              25.00    11200.00
03186             -17.20    11800.00
03187             -25.00    12000.00
03188              25.00    12400.00
03189              25.00    12800.00
03190             -25.00    13400.00
03191               1.20    13600.00
03192              25.00    14000.00
03193             -13.60    14400.00
03194             -22.80    14600.00
03195              17.00    14800.00
03196              12.20    15400.00
03197             -24.40    15600.00
03198               6.20    15800.00
03199              20.60    16200.00
03200             -19.00    16400.00
03201              -6.00    16800.00
03202              17.00    17200.00
03203              -6.40    17400.00
03204             -11.40    17600.00
03205              11.60    18000.00
03206               4.40    18200.00
03207              -9.80    18400.00
03208               0.60    18800.00
03209               6.40    19000.00
03210              -5.00    19200.00
03211              -5.00    19600.00
03212               6.20    19800.00
03213               1.40    20000.00
03214              -4.40    20400.00
03215               1.20    20200.00
03216               2.80    20800.00
03217              -4.60    20600.00
03218              -2.60    20800.00
03219               5.20    21200.00
03220              -1.80    21200.00
03221              -2.60    21400.00
03222               3.80    21600.00
03223              -0.60    21600.00
03224              -3.80    21800.00
03225               1.00    21800.00
03226               1.20    22000.00
03227              -1.80    22200.00
03228              -0.40    22200.00
03229               1.20    22400.00
03230              -1.20    22400.00
03231              -1.80    22400.00
03232               0.40    22400.00
03233               0.20    22800.00
03234              -1.40    22800.00
03235              -0.20    22800.00
03236               1.40    22800.00
03237              -1.20    22800.00
03238              -2.20    22800.00
03239               1.20    22600.00
03240               0.20    22800.00
03241              -2.00    22800.00
03242               0.60    22800.00
03243               0.40    22800.00
03244              -1.40    22800.00
03245              -0.40    22800.00
03246               0.20    22600.00
03247              -1.40    22400.00
03248              -1.20    22400.00
03249               0.60    22400.00
03250              -0.60    22200.00
03251              -0.80    22200.00
03252               0.40    22200.00
03253               0.20    22000.00
03254              -0.60    22000.00
03255              -0.60    21800.00
03256               0.20    21600.00
03257              -0.20    21400.00
03258              -1.00    21400.00
03259               0.00    21200.00
03260              -0.20    21200.00
03261              -0.40    21000.00
03262              -1.00    20800.00
03263               0.40    20600.00
03264              -0.20    20400.00
03265              -1.00    20000.00
03266               0.60    19800.00
03267               0.20    19600.00
03268              -1.40    19600.00
03269               0.40    19200.00
03270               0.00    19200.00
03271              -1.20    18800.00
03272               0.60    18600.00
03273               0.40    18400.00
03274              -1.20    18000.00
03275               0.20    17600.00
03276               0.00    17400.00
03277              -1.20    17200.00
03278               0.40    16800.00
03279               0.20    16600.00
03280              -1.40    16400.00
03281               0.40    16000.00
03282               0.40    15600.00
03283              -1.20    15400.00
03284              -0.40    15000.00
03285               0.20    14800.00
03286              -0.20    14400.00
03287              -0.60    14000.00
03288              -0.60    13800.00
03289              -0.40    13400.00
03290              -0.40    12800.00
03291              -0.60    12600.00
03292              -0.40    12400.00
03293               0.20    11800.00
03294              -0.60    11600.00
03295              -1.00    11000.00
03296               0.40    10800.00
03297              -0.80    10400.00
03298              -1.20    10000.00
03299              -0.20     9400.00
03300              -0.40     9200.00
03301              -0.60     8800.00
03302              -0.40     8400.00
03303              -0.20     8000.00
03304              -0.20     7600.00
03305              -0.80     7000.00
03306              -0.60     6800.00
03307              -0.40     6400.00
03308              -1.00     6000.00
03309              -1.00     5400.00
03310              -0.20     5000.00
03311              -0.20     4600.00
03312              -1.00     4200.00
03313              -0.40     3800.00
03314              -0.20     3400.00
03315              -0.60     3000.00
03316              -0.40     2400.00
03317               0.20     2000.00
03318              -0.60     1800.00
03319              -0.20     1200.00
03320               0.20      800.00
03321              -1.20      400.00
03322              -0.20        0.00
03323               1.00     -400.00
03324               1.00     -800.00
03325               2.60    -1200.00
03326              -1.80    -1600.00
03327              -1.40    -2000.00
03328               2.00    -2400.00
03329              -0.20    -2800.00
03330              -2.20    -3200.00
03331              10.20    -3600.00
03332              25.00    -4200.00
03333             -15.80    -5000.00
03334             -25.00    -5200.00
03335              17.80    -5800.00
03336              25.00    -6000.00
03337             -25.00    -6000.00
03338              -0.20    -6400.00
03339              25.00    -7200.00
03340             -25.00    -7200.00
03341             -25.00    -7600.00
03342              25.00    -8800.00
03343             -25.00    -8400.00
03344             -25.00    -9200.00
03345              25.00    -9600.00
03346             -11.80    -9600.00
03347             -25.00   -10400.00
03348              13.20   -10600.00
03349              25.00   -10800.00
03350               2.80   -11600.00
03351             -25.00   -11800.00
03352              25.00   -12400.00
03353              25.00   -12600.00
03354             -25.00   -13000.00
03355              25.00   -13600.00
03356              25.00   -13600.00
03357             -25.00   -14200.00
03358             -21.40   -14400.00
03359              25.00   -14800.00
03360               2.00   -15000.00
03361             -25.00   -15200.00
03362              25.00   -15800.00
03363              15.60   -16000.00
03364             -25.00   -16200.00
03365               7.80   -16800.00
03366              15.80   -16800.00
03367             -13.40   -17200.00
03368             -10.40   -17400.00
03369              17.40   -17600.00
03370               1.80   -17800.00
03371             -15.60   -18400.00
03372               7.00   -18800.00
03373               7.60   -18800.00
03374             -12.60   -19200.00
03375              -3.00   -19400.00
03376              13.40   -19600.00
03377              -5.80   -19600.00
03378              -6.20   -20000.00
03379               7.80   -20200.00
03380               0.40   -20200.00
03381              -9.40   -20600.00
03382               1.80   -20800.00
03383               7.60   -21000.00
03384              -7.60   -21000.00
03385               0.40   -21200.00
03386               6.80   -21400.00
03387              -5.20   -21600.00
03388              -3.60   -21800.00
03389               3.40   -21800.00
03390               0.20   -22000.00
03391              -3.80   -22000.00
03392               2.00   -22200.00
03393               2.20   -22400.00
03394              -3.00   -22400.00
03395              -1.00   -22400.00
03396               2.00   -22600.00
03397              -0.60   -22600.00
03398              -2.20   -22600.00
03399               1.00   -22800.00
03400               1.40   -22800.00
03401              -2.80   -22600.00
03402              -0.60   -22800.00
03403               2.60   -22600.00
03404              -2.60   -22800.00
03405              -1.40   -22800.00
03406               2.00   -22800.00
03407              -0.40   -22800.00
03408              -1.40   -22800.00
03409              -0.20   -22800.00
03410               0.40   -22600.00
03411              -1.20   -22600.00
03412              -0.60   -22600.00
03413               0.20   -22400.00
03414              -0.40   -22400.00
03415              -0.20   -22400.00
03416              -0.60   -22200.00
03417              -0.20   -22200.00
03418              -0.60   -22000.00
03419              -1.40   -21800.00
03420               0.40   -21800.00
03421              -0.40   -21600.00
03422              -1.80   -21600.00
03423               0.20   -21400.00
03424               0.20   -21200.00
03425              -1.00   -21200.00
03426              -0.60   -20800.00
03427              -0.20   -20800.00
03428              -0.40   -20600.00
03429              -1.20   -20400.00
03430              -0.60   -20200.00
03431              -0.40   -20000.00
03432              -1.20   -19600.00
03433              -1.00   -19600.00
03434              -0.20   -19400.00
03435              -0.20   -19000.00
03436              -1.20   -18800.00
03437               0.20   -18400.00
03438              -0.60   -18200.00
03439              -1.00   -18000.00
03440              -0.40   -17600.00
03441              -0.60   -17400.00
03442              -0.60   -17200.00
03443              -0.40   -16800.00
03444              -0.40   -16800.00
03445              -0.40   -16400.00
03446              -1.00   -16000.00
03447              -0.60   -15600.00
03448              -0.40   -15400.00
03449              -0.60   -15000.00
03450              -0.40   -14800.00
03451              -0.60   -14400.00
03452              -0.40   -14000.00
03453              -0.40   -13600.00
03454              -0.60   -13200.00
03455              -0.60   -12800.00
03456              -0.20   -12400.00
03457              -0.40   -12200.00
03458              -0.60   -11800.00
03459              -0.60   -11600.00
03460              -0.20   -11000.00
03461              -0.60   -10600.00
03462              -0.60   -10200.00
03463              -0.60   -10000.00
03464              -0.40    -9600.00
03465              -0.40    -9200.00
03466              -0.20    -8800.00
03467              -0.40    -8400.00
03468              -0.60    -8000.00
03469              -0.40    -7400.00
03470              -0.40    -7200.00
03471              -1.00    -6800.00
03472              -0.20    -6400.00
03473               0.00    -6000.00
03474              -1.00    -5600.00
03475              -0.40    -5000.00
03476               0.20    -4600.00
03477              -1.00    -4200.00
03478              -0.80    -3800.00
03479               0.20    -3200.00
03480              -0.40    -2800.00
03481              -1.00    -2600.00
03482              -0.40    -2200.00
03483              -0.60    -1600.00
03484              -1.00    -1200.00
03485              -0.60     -800.00
03486              -0.20     -400.00
03487              -0.20     -200.00
03488               0.20      400.00
03489               2.60      800.00
03490               0.60     1400.00
03491              -2.80     1800.00
03492               1.00     2000.00
03493               2.20     2400.00
03494              -1.40     2800.00
03495              -1.00     3200.00
03496               6.00     3600.00
03497              16.60     4200.00
03498              18.20     4800.00
03499             -25.00     5200.00
03500             -25.00     5600.00
03501              25.00     6000.00
03502               7.40     6400.00
03503             -25.00     6600.00
03504               5.40     7000.00
03505              25.00     7600.00
03506             -25.00     7800.00
03507             -25.00     8400.00
03508              25.00     8600.00
03509               4.40     8800.00
03510             -25.00     9400.00
03511              25.00     9800.00
03512              25.00    10200.00
03513             -25.00    10800.00
03514              16.20    11000.00
03515              25.00    11400.00
03516             -25.00    11600.00
03517             -25.00    12400.00
03518              25.00    12600.00
03519              14.00    13000.00
03520             -25.00    13400.00
03521              10.60    13600.00
03522              25.00    14000.00
03523             -20.80    14400.00
03524             -17.20    14800.00
03525              21.20    15000.00
03526               4.40    15400.00
03527             -23.40    15600.00
03528              13.20    16000.00
03529              14.60    16200.00
03530             -21.20    16600.00
03531               0.20    16800.00
03532              15.40    17200.00
03533              -9.80    17400.00
03534              -8.20    17600.00
03535              13.40    18000.00
03536               1.00    18200.00
03537             -10.20    18400.00
03538               3.80    18800.00
03539               5.20    19000.00
03540              -7.60    19200.00
03541              -1.60    19600.00
03542               6.60    19800.00
03543              -2.00    20000.00
03544              -2.60    20000.00
03545               1.80    20400.00
03546               1.40    20600.00
03547              -4.20    20800.00
03548              -1.20    21000.00
03549               5.20    21000.00
03550              -2.60    21200.00
03551              -3.60    21400.00
03552               4.20    21600.00
03553              -1.00    21600.00
03554              -4.60    21800.00
03555               2.00    21800.00
03556               2.00    22000.00
03557              -2.80    22200.00
03558              -0.40    22200.00
03559               3.00    22400.00
03560              -3.20    22400.00
03561              -1.20    22400.00
03562               2.00    22600.00
03563              -1.20    22600.00
03564              -1.20    22600.00
03565               0.20    22800.00
03566               1.20    22800.00
03567              -1.20    22600.00
03568              -1.60    22800.00
03569               1.20    22800.00
03570              -1.20    22800.00
03571              -1.00    22800.00
03572               0.40    22600.00
03573               0.20    22800.00
03574              -1.20    22800.00
03575              -0.40    22400.00
03576               0.60    22400.00
03577              -1.40    22400.00
03578              -0.60    22400.00
03579               1.00    22400.00
03580              -0.60    22400.00
03581              -1.00    22200.00
03582              -0.20    22000.00
03583              -0.40    22000.00
03584              -1.00    22000.00
03585              -0.60    21600.00
03586               1.00    21600.00
03587              -0.60    21400.00
03588              -0.60    21400.00
03589               0.60    21200.00
03590              -0.60    21000.00
03591              -1.00    20800.00
03592              -0.40    20800.00
03593               0.40    20400.00
03594              -0.60    20400.00
03595              -0.60    20000.00
03596               0.20    19800.00
03597              -0.20    19600.00
03598              -1.00    19600.00
03599              -0.20    19200.00
03600               0.00    19000.00
03601              -0.60    18800.00
03602              -0.40    18400.00
03603               0.20    18200.00
03604              -0.60    18000.00
03605              -0.60    17600.00
03606               0.20    17200.00
03607              -0.20    17200.00
03608              -0.20    16800.00
03609               0.40    16400.00
03610              -0.60    16200.00
03611              -0.40    16000.00
03612              -0.60    15600.00
03613              -0.40    15200.00
03614              -0.60    15000.00
03615              -0.20    14600.00
03616              -0.60    14400.00
03617              -0.60    14000.00
03618              -0.40    13600.00
03619              -0.60    13200.00
03620              -0.60    13000.00
03621              -0.20    12600.00
03622              -0.40    12200.00
03623              -0.80    11800.00
03624              -0.20    11200.00
03625              -0.60    11000.00
03626              -0.60    10600.00
03627              -0.20    10200.00
03628              -0.20     9800.00
03629              -0.60     9400.00
03630              -0.60     9200.00
03631              -0.20     8600.00
03632              -1.00     8400.00
03633              -1.00     7800.00
03634               0.20     7600.00
03635              -0.60     7200.00
03636              -1.20     6800.00
03637               0.40     6400.00
03638               0.00     6000.00
03639              -0.60     5600.00
03640               0.00     5200.00
03641              -0.40     4400.00
03642              -1.00     4000.00
03643              -0.40     3600.00
03644               0.00     3200.00
03645              -0.60     2800.00
03646              -0.40     2400.00
03647               0.20     2000.00
03648              -0.40     1600.00
03649              -0.40     1200.00
03650              -0.60      800.00
03651              -0.20      400.00
03652               0.20        0.00
03653               0.20     -600.00
03654               2.60     -800.00
03655               2.20    -1400.00
03656              -3.00    -1800.00
03657              -0.20    -2200.00
03658               3.00    -2400.00
03659              -1.00    -2800.00
03660              -1.20    -3200.00
03661              13.20    -3600.00
03662              25.00    -4400.00
03663             -25.00    -5000.00
03664             -25.00    -5400.00
03665              25.00    -5800.00
03666              22.00    -6000.00
03667             -25.00    -6200.00
03668              25.00    -6400.00
03669              25.00    -7400.00
03670             -25.00    -7200.00
03671             -11.00    -8000.00
03672              25.00    -8800.00
03673             -25.00    -8600.00
03674             -25.00    -9600.00
03675              25.00    -9600.00
03676             -25.00    -9800.00
03677             -25.00   -10400.00
03678              16.80   -10600.00
03679              25.00   -11200.00
03680             -12.60   -11600.00
03681             -25.00   -11600.00
03682              25.00   -12400.00
03683              13.00   -12400.00
03684             -25.00   -13000.00
03685              25.00   -13400.00
03686              25.00   -13600.00
03687             -25.00   -14400.00
03688             -12.60   -14400.00
03689              25.00   -14800.00
03690             -11.60   -15200.00
03691             -25.00   -15400.00
03692              25.00   -15800.00
03693               4.20   -16000.00
03694             -25.00   -16200.00
03695              13.60   -16600.00
03696              12.60   -17000.00
03697             -16.40   -17200.00
03698              -6.60   -17600.00
03699              20.40   -17800.00
03700              -3.40   -18200.00
03701             -15.40   -18400.00
03702              10.60   -18600.00
03703               5.40   -18800.00
03704             -15.60   -19200.00
03705               1.60   -19200.00
03706              13.20   -19600.00
03707             -10.00   -19800.00
03708              -3.00   -20000.00
03709               9.80   -20200.00
03710              -3.60   -20400.00
03711              -8.20   -20600.00
03712               5.20   -20800.00
03713               2.60   -21000.00
03714              -7.80   -21200.00
03715               4.60   -21200.00
03716               2.40   -21400.00
03717              -5.40   -21600.00
03718               1.00   -21800.00
03719               2.00   -21800.00
03720              -1.40   -22000.00
03721              -2.00   -22000.00
03722               1.80   -22200.00
03723               1.00   -22400.00
03724              -2.80   -22400.00
03725              -1.40   -22400.00
03726               2.20   -22400.00
03727              -0.60   -22600.00
03728              -3.00   -22600.00
03729               2.60   -22600.00
03730               1.80   -22800.00
03731              -4.20   -22800.00
03732               0.60   -22800.00
03733               2.80   -22800.00
03734              -4.40   -22800.00
03735              -0.60   -22800.00
03736               2.80   -22800.00
03737              -1.40   -22800.00
03738              -1.80   -22600.00
03739               1.40   -22800.00
03740               0.20   -22600.00
03741              -2.20   -22600.00
03742               0.20   -22600.00
03743               0.20   -22400.00
03744              -1.00   -22600.00
03745              -0.20   -22400.00
03746              -0.60   -22200.00
03747               0.20   -22000.00
03748              -0.60   -22000.00
03749              -0.80   -22000.00
03750               0.60   -21800.00
03751              -0.60   -21800.00
03752              -1.20   -21600.00
03753              -0.20   -21200.00
03754               0.20   -21200.00
03755              -1.60   -21000.00
03756              -0.60   -21000.00
03757               0.20   -20800.00
03758              -1.00   -20400.00
03759              -0.40   -20200.00
03760               0.40   -20200.00
03761              -1.00   -20000.00
03762              -1.00   -19600.00
03763              -0.40   -19600.00
03764              -0.60   -19200.00
03765              -0.60   -19000.00
03766              -0.80   -18800.00
03767               0.00   -18400.00
03768              -0.60   -18400.00
03769              -1.00   -18000.00
03770              -0.40   -17800.00
03771              -0.40   -17400.00
03772              -0.60   -17200.00
03773              -0.40   -16800.00
03774               0.20   -16400.00
03775              -1.20   -16200.00
03776              -0.60   -15800.00
03777               0.20   -15600.00
03778              -1.20   -15400.00
03779              -0.20   -15000.00
03780               0.40   -14600.00
03781              -1.80   -14400.00
03782               0.20   -14000.00
03783               0.20   -13600.00
03784              -1.80   -13200.00
03785              -0.20   -13000.00
03786               0.40   -12400.00
03787              -1.20   -12200.00
03788              -0.40   -11600.00
03789               0.40   -11400.00
03790              -0.80   -11000.00
03791              -0.60   -10600.00
03792               0.40   -10400.00
03793              -0.80    -9800.00
03794              -1.00    -9600.00
03795               0.20    -9000.00
03796              -0.60    -8800.00
03797              -1.00    -8400.00
03798               0.20    -8000.00
03799              -0.20    -7400.00
03800              -0.60    -7000.00
03801              -0.60    -6800.00
03802              -0.40    -6200.00
03803              -0.40    -5800.00
03804              -1.00    -5400.00
03805              -0.40    -5000.00
03806              -0.20    -4400.00
03807              -0.60    -4200.00
03808              -1.00    -3600.00
03809              -0.20    -3200.00
03810               0.40    -2800.00
03811              -1.20    -2400.00
03812              -1.20    -2200.00
03813               1.00    -1600.00
03814              -1.00    -1200.00
03815              -3.00     -800.00
03816               1.80     -200.00
03817               1.20        0.00
03818              -3.00      600.00
03819               4.20      800.00
03820               2.80     1400.00
03821              -5.80     1800.00
03822               0.40     2000.00
03823               5.40     2600.00
03824              -3.80     2800.00
03825              -2.20     3200.00
03826              10.60     3600.00
03827              19.40     4400.00
03828               9.20     4800.00
03829             -25.00     5400.00
03830             -20.60     5600.00
03831              25.00     6000.00
03832              -3.00     6400.00
03833             -25.00     6600.00
03834              21.20     7200.00
03835              25.00     7600.00
03836             -25.00     7800.00
03837             -25.00     8600.00
03838              25.00     8600.00
03839             -25.00     9000.00
03840             -25.00     9600.00
03841              25.00     9800.00
03842              11.40    10200.00
03843             -25.00    10800.00
03844              25.00    11000.00
03845              25.00    11400.00
03846             -25.00    11800.00
03847             -24.60    12200.00
03848              25.00    12600.00
03849               2.80    13000.00
03850             -25.00    13400.00
03851              19.40    13600.00
03852              23.00    14200.00
03853             -25.00    14400.00
03854             -12.00    14800.00
03855              25.00    15000.00
03856              -3.00    15400.00
03857             -21.40    15800.00
03858              19.20    16000.00
03859               9.20    16400.00
03860             -22.60    16600.00
03861               5.60    16800.00
03862              12.60    17200.00
03863             -13.20    17400.00
03864              -3.80    17800.00
03865              14.20    18000.00
03866              -2.20    18400.00
03867              -9.40    18400.00
03868               6.00    18800.00
03869               3.60    19000.00
03870              -8.40    19200.00
03871               0.20    19600.00
03872               6.80    19800.00
03873              -3.40    20000.00
03874              -2.80    20000.00
03875               3.40    20400.00
03876              -0.40    20600.00
03877              -5.40    20800.00
03878               1.80    21000.00
03879               3.80    21200.00
03880              -4.60    21200.00
03881               0.40    21400.00
03882               3.60    21600.00
03883              -3.40    21600.00
03884              -2.60    21600.00
03885               2.40    22000.00
03886              -0.20    22200.00
03887              -2.80    22200.00
03888               1.80    22200.00
03889               1.00    22400.00
03890              -2.60    22400.00
03891              -0.40    22600.00
03892               1.00    22400.00
03893              -1.20    22600.00
03894              -1.20    22800.00
03895               0.40    22600.00
03896               0.60    22800.00
03897              -2.00    22800.00
03898              -1.00    22800.00
03899               1.00    22800.00
03900              -1.00    22600.00
03901              -1.00    22800.00
03902               0.60    22800.00
03903               0.40    22800.00
03904              -1.20    22800.00
03905              -0.20    22400.00
03906               0.40    22400.00
03907              -1.20    22600.00
03908              -0.60    22400.00
03909               0.80    22400.00
03910              -0.80    22400.00
03911               0.20    22200.00
03912              -0.20    22000.00
03913              -1.00    22000.00
03914               0.60    22000.00
03915              -0.40    21800.00
03916              -1.20    21600.00
03917               1.00    21400.00
03918              -0.40    21400.00
03919              -1.00    21200.00
03920               1.20    21000.00
03921              -0.40    20800.00
03922              -2.00    21000.00
03923               1.20    20400.00
03924               0.20    20400.00
03925              -2.20    20000.00
03926               0.40    19800.00
03927               0.40    19800.00
03928              -1.80    19400.00
03929               0.40    19200.00
03930               0.60    19200.00
03931              -0.80    18800.00
03932               0.00    18400.00
03933               0.20    18200.00
03934              -1.00    17800.00
03935              -0.40    17600.00
03936              -0.20    17400.00
03937              -1.00    17000.00
03938              -0.20    16800.00
03939              -0.20    16600.00
03940              -1.00    16200.00
03941              -0.20    15800.00
03942              -0.20    15600.00
03943              -1.00    15200.00
03944              -0.60    14800.00
03945               0.20    14600.00
03946              -0.60    14200.00
03947              -0.60    13800.00
03948              -0.60    13600.00
03949               0.20    13200.00
03950              -0.60    12800.00
03951              -1.20    12600.00
03952               0.20    12000.00
03953              -0.40    11800.00
03954              -1.80    11200.00
03955              -0.20    11000.00
03956               0.40    10600.00
03957              -2.20    10200.00
03958              -0.60    10000.00
03959               1.00     9400.00
03960              -1.40     9200.00
03961              -0.60     8600.00
03962               0.60     8400.00
03963              -1.20     7800.00
03964              -0.60     7400.00
03965               0.40     7000.00
03966              -1.20     6600.00
03967              -0.60     6200.00
03968               0.40     5800.00
03969              -1.20     5400.00
03970              -1.00     4800.00
03971               1.00     4400.00
03972              -1.40     4000.00
03973              -1.00     3600.00
03974               1.00     3200.00
03975              -1.80     2800.00
03976              -0.60     2400.00
03977               0.60     2000.00
03978              -1.00     1400.00
03979              -0.20     1200.00
03980               0.40      800.00
03981              -1.20      200.00
03982              -0.20     -200.00
03983               1.00     -600.00
03984               2.00     -800.00
03985               1.20    -1400.00
03986              -2.60    -1800.00
03987              -0.40    -2000.00
03988               2.60    -2800.00
03989              -1.40    -2800.00
03990               0.00    -3200.00
03991              18.00    -3600.00
03992              25.00    -4400.00
03993             -25.00    -5200.00
03994             -25.00    -5600.00
03995              25.00    -5800.00
03996               8.00    -6000.00
03997             -25.00    -6000.00
03998              25.00    -6600.00
03999              25.00    -7400.00
04000             -25.00    -7200.00
04001              25.00    -8200.00
04002              25.00    -8800.00
04003             -25.00    -8600.00
04004              -6.00    -9600.00
04005              25.00    -9600.00
04006             -25.00    -9800.00
04007             -17.40   -10600.00
04008              19.60   -10600.00
04009              25.00   -11200.00
04010             -25.00   -11600.00
04011             -25.00   -12000.00
04012              25.00   -12600.00
04013              -9.80   -12400.00
04014             -25.00   -13200.00
04015              25.00   -13600.00
04016              14.60   -13800.00
04017             -25.00   -14400.00
04018              -3.20   -14400.00
04019              25.00   -14800.00
04020             -23.40   -15200.00
04021             -24.40   -15400.00
04022              25.00   -16000.00
04023              -8.20   -16200.00
04024             -25.00   -16400.00
04025              17.60   -16800.00
04026               7.00   -17000.00
04027             -17.80   -17200.00
04028              -1.20   -17400.00
04029              18.60   -17800.00
04030              -8.20   -18000.00
04031             -10.80   -18400.00
04032              11.80   -18600.00
04033               1.00   -19000.00
04034             -14.00   -19200.00
04035               5.00   -19400.00
04036              10.00   -19600.00
04037             -10.20   -19800.00
04038              -0.40   -20000.00
04039               8.20   -20200.00
04040              -3.80   -20400.00
04041              -8.20   -20600.00
04042               6.20   -20800.00
04043               2.80   -21000.00
04044              -8.40   -21200.00
04045               5.00   -21200.00
04046               2.80   -21600.00
04047              -6.20   -21800.00
04048              -1.00   -21600.00
04049               3.80   -22000.00
04050              -1.80   -22000.00
04051              -3.00   -22000.00
04052               4.20   -22200.00
04053               0.40   -22400.00
04054              -4.20   -22400.00
04055               0.40   -22400.00
04056               1.80   -22600.00
04057              -2.20   -22600.00
04058              -1.40   -22600.00
04059               2.20   -22600.00
04060              -0.20   -22800.00
04061              -3.40   -22800.00
04062               1.60   -22800.00
04063               1.20   -22800.00
04064              -3.60   -22800.00
04065               0.60   -22800.00
04066               1.40   -22800.00
04067              -1.80   -22600.00
04068              -1.20   -22600.00
04069               0.40   -22800.00
04070              -0.20   -22600.00
04071              -1.80   -22600.00
04072               0.40   -22400.00
04073              -0.40   -22600.00
04074              -1.20   -22600.00
04075              -0.20   -22200.00
04076              -0.60   -22400.00
04077              -0.60   -22200.00
04078              -1.00   -22000.00
04079              -0.60   -21800.00
04080               0.20   -21800.00
04081              -1.00   -21600.00
04082              -0.60   -21600.00
04083               0.20   -21200.00
04084              -0.60   -21200.00
04085              -1.00   -21000.00
04086              -0.40   -20800.00
04087              -0.40   -20800.00
04088              -1.00   -20400.00
04089              -0.20   -20200.00
04090              -0.40   -20000.00
04091              -1.20   -19800.00
04092              -0.40   -19600.00
04093              -0.60   -19400.00
04094              -0.40   -19200.00
04095              -0.40   -19000.00
04096              -0.60   -18600.00
04097              -0.20   -18400.00
04098              -0.60   -18400.00
04099              -0.80   -17800.00
04100              -0.60   -17600.00
04101              -0.40   -17200.00
04102              -0.20   -17200.00
04103              -0.60   -16800.00
04104              -0.20   -16400.00
04105              -0.60   -16200.00
04106              -1.20   -16000.00
04107              -0.20   -15400.00
04108              -0.60   -15200.00
04109              -0.60   -14800.00
04110              -0.20   -14600.00
04111              -0.60   -14400.00
04112              -0.40   -13800.00
04113              -0.40   -13600.00
04114              -0.60   -13200.00
04115              -0.40   -12800.00
04116              -0.60   -12600.00
04117              -0.40   -12000.00
04118              -0.60   -11600.00
04119              -1.00   -11400.00
04120              -0.20   -10800.00
04121              -0.80   -10600.00
04122              -0.20   -10000.00
04123              -0.40    -9800.00
04124              -0.60    -9400.00
04125              -0.40    -9200.00
04126              -0.40    -8800.00
04127              -1.00    -8200.00
04128              -0.60    -7800.00
04129              -0.20    -7400.00
04130              -0.60    -7000.00
04131              -0.60    -6600.00
04132               0.20    -6200.00
04133              -0.60    -5800.00
04134              -1.20    -5200.00
04135              -0.20    -4800.00
04136              -0.60    -4400.00
04137              -1.80    -4200.00
04138              -0.40    -3600.00
04139              -0.60    -3200.00
04140              -0.60    -2800.00
04141              -0.60    -2400.00
04142              -0.20    -2000.00
04143              -0.60    -1600.00
04144              -0.40    -1000.00
04145              -0.40     -600.00
04146              -0.40     -400.00
04147              -0.20      200.00
04148               0.40      600.00
04149               3.20     1000.00
04150              -0.80     1400.00
04151              -2.60     1800.00
04152               2.00     2200.00
04153               1.20     2400.00
04154              -2.20     2800.00
04155               0.60     3200.00
04156               8.20     3800.00
04157              22.20     4400.00
04158               3.60     5000.00
04159             -25.00     5400.00
04160             -10.20     5600.00
04161              25.00     6200.00
04162             -16.20     6400.00
04163             -25.00     6600.00
04164              25.00     7600.00
04165              25.00     7800.00
04166             -25.00     8000.00
04167              -9.80     8600.00
04168              25.00     8600.00
04169             -25.00     9200.00
04170             -25.00     9600.00
04171              25.00    10000.00
04172             -13.80    10400.00
04173             -25.00    10800.00
04174              25.00    11000.00
04175              25.00    11600.00
04176             -25.00    11800.00
04177             -13.20    12200.00
04178              25.00    12600.00
04179              -9.20    12800.00
04180             -25.00    13400.00
04181              25.00    13600.00
04182              15.80    14200.00
04183             -25.00    14600.00
04184              -6.00    14600.00
04185              25.00    15200.00
04186             -10.20    15600.00
04187             -17.60    15800.00
04188              23.40    16000.00
04189               2.20    16400.00
04190             -22.00    16400.00
04191              10.60    16800.00
04192               9.40    17200.00
04193             -15.60    17600.00
04194               0.80    18000.00
04195              14.00    18200.00
04196              -6.00    18400.00
04197              -7.80    18400.00
04198               7.80    18800.00
04199               0.20    19000.00
04200              -8.60    19400.00
04201               2.60    19600.00
04202               5.40    19800.00
04203              -4.60    20000.00
04204              -1.20    20200.00
04205               3.80    20400.00
04206              -2.20    20600.00
04207              -5.00    20800.00
04208               2.60    20800.00
04209               2.60    21200.00
04210              -5.00    21200.00
04211               1.60    21400.00
04212               3.00    21600.00
04213              -3.80    21600.00
04214              -1.80    21800.00
04215               2.20    22000.00
04216              -0.40    22000.00
04217              -2.80    22200.00
04218               2.00    22200.00
04219               0.40    22200.00
04220              -3.00    22400.00
04221               0.20    22400.00
04222               1.20    22600.00
04223              -1.60    22600.00
04224              -1.20    22800.00
04225               1.40    22800.00
04226               0.20    22800.00
04227              -2.20    22800.00
04228              -0.20    22800.00
04229               0.80    22800.00
04230              -2.00    22800.00
04231              -0.20    22800.00
04232               0.80    22600.00
04233              -0.60    22800.00
04234              -0.40    22600.00
04235               0.40    22600.00
04236              -0.40    22800.00
04237              -1.20    22400.00
04238               0.20    22400.00
04239               0.20    22400.00
04240              -0.60    22200.00
04241              -0.20    22200.00
04242              -0.60    22200.00
04243               0.20    22000.00
04244              -0.20    21800.00
04245              -0.80    21600.00
04246               0.00    21600.00
04247               0.40    21400.00
04248              -1.20    21200.00
04249               0.00    21200.00
04250               0.00    21000.00
04251              -1.20    20800.00
04252              -0.40    20600.00
04253               1.20    20400.00
04254              -0.60    20000.00
04255              -0.60    20000.00
04256               0.40    19600.00
04257              -0.40    19600.00
04258              -1.00    19600.00
04259              -0.20    19000.00
04260              -0.40    19000.00
04261              -0.40    18600.00
04262              -0.20    18400.00
04263               0.00    18200.00
04264              -0.20    17600.00
04265              -0.40    17600.00
04266              -0.20    17200.00
04267              -0.40    16800.00
04268              -0.20    16800.00
04269              -0.60    16400.00
04270              -0.40    16000.00
04271              -0.20    15800.00
04272              -0.80    15600.00
04273              -0.60    15200.00
04274              -0.40    15000.00
04275              -0.60    14400.00
04276              -0.60    14200.00
04277              -0.40    14000.00
04278              -0.60    13400.00
04279              -0.80    13200.00
04280              -0.40    12800.00
04281              -0.40    12400.00
04282              -0.60    12000.00
04283              -0.20    11800.00
04284              -0.40    11200.00
04285              -0.60    10800.00
04286              -0.40    10600.00
04287              -0.60    10000.00
04288              -0.60     9800.00
04289              -0.60     9200.00
04290              -0.60     9000.00
04291              -0.40     8600.00
04292              -0.60     8200.00
04293              -0.40     7800.00
04294              -0.40     7400.00
04295              -0.40     7000.00
04296              -0.60     6600.00
04297              -0.40     6000.00
04298              -0.40     5600.00
04299              -0.60     5400.00
04300              -0.60     4800.00
04301              -0.40     4400.00
04302              -0.60     4000.00
04303              -0.40     3600.00
04304              -0.20     3200.00
04305              -0.40     2800.00
04306              -0.20     2400.00
04307              -0.20     1600.00
04308              -0.40     1400.00
04309              -0.60      800.00
04310              -0.60      600.00
04311              -0.40        0.00
04312              -0.20     -400.00
04313               0.60     -600.00
04314               3.40    -1000.00
04315               0.20    -1400.00
04316              -2.20    -1800.00
04317               1.00    -2200.00
04318               1.80    -2600.00
04319              -2.40    -3000.00
04320               2.00    -3200.00
04321              21.00    -3600.00
04322              25.00    -4600.00
04323             -25.00    -5200.00
04324             -25.00    -5600.00
04325              25.00    -5800.00
04326              -5.40    -6400.00
04327             -25.00    -6000.00
04328              25.00    -6800.00
04329              25.00    -7600.00
04330             -25.00    -7200.00
04331              25.00    -8400.00
04332              25.00    -8400.00
04333             -25.00    -8800.00
04334              25.00    -9600.00
04335              25.00    -9400.00
04336             -25.00   -10000.00
04337              -8.40   -10600.00
04338              23.00   -10800.00
04339              25.00   -11200.00
04340             -25.00   -11600.00
04341             -25.00   -12000.00
04342              25.00   -12400.00
04343             -25.00   -12600.00
04344             -25.00   -13200.00
04345              25.00   -13400.00
04346               1.00   -13800.00
04347             -25.00   -14400.00
04348               7.40   -14600.00
04349              25.00   -14800.00
04350             -25.00   -15200.00
04351             -12.00   -15400.00
04352              25.00   -16000.00
04353             -19.00   -16000.00
04354             -18.80   -16400.00
04355              20.40   -16800.00
04356               1.60   -17000.00
04357             -17.80   -17200.00
04358               5.00   -17600.00
04359              16.20   -17800.00
04360             -11.60   -18200.00
04361              -6.00   -18400.00
04362              11.60   -18800.00
04363              -2.40   -18800.00
04364             -12.00   -19200.00
04365               7.40   -19400.00
04366               6.60   -19600.00
04367              -9.80   -19800.00
04368               2.00   -20000.00
04369               6.20   -20400.00
04370              -5.20   -20600.00
04371              -6.60   -20800.00
04372               7.00   -20800.00
04373               0.80   -21000.00
04374              -6.80   -21200.00
04375               6.20   -21400.00
04376               1.40   -21400.00
04377              -5.80   -21800.00
04378              -0.20   -21800.00
04379               3.40   -22000.00
04380              -2.20   -22000.00
04381              -2.60   -22200.00
04382               3.60   -22200.00
04383              -0.40   -22400.00
04384              -4.00   -22400.00
04385               0.60   -22600.00
04386               2.00   -22600.00
04387              -2.20   -22600.00
04388              -1.00   -22600.00
04389               2.60   -22800.00
04390              -0.60   -22800.00
04391              -3.20   -22800.00
04392               2.00   -22800.00
04393               0.40   -22800.00
04394              -3.40   -22800.00
04395               1.20   -22800.00
04396               0.80   -22800.00
04397              -1.40   -22600.00
04398              -1.00   -22600.00
04399               0.40   -22800.00
04400              -0.60   -22600.00
04401              -1.40   -22600.00
04402               0.20   -22600.00
04403              -0.40   -22600.00
04404              -0.60   -22400.00
04405              -0.40   -22200.00
04406              -0.40   -22400.00
04407              -0.20   -22000.00
04408              -1.40   -21800.00
04409              -0.20   -21800.00
04410              -0.20   -21600.00
04411              -1.20   -21600.00
04412              -0.40   -21400.00
04413              -0.20   -21200.00
04414              -0.80   -21200.00
04415              -0.80   -21000.00
04416              -0.40   -20800.00
04417              -0.40   -20800.00
04418              -0.60   -20400.00
04419              -0.20   -20200.00
04420              -0.60   -20000.00
04421              -1.20   -19800.00
04422              -0.40   -19600.00
04423              -0.60   -19400.00
04424              -0.40   -19200.00
04425              -0.20   -18800.00
04426              -0.20   -18600.00
04427              -0.40   -18400.00
04428              -0.60   -18200.00
04429              -0.60   -18000.00
04430              -1.20   -17400.00
04431              -0.60   -17400.00
04432              -0.40   -17000.00
04433              -0.60   -16800.00
04434              -0.20   -16400.00
04435              -0.40   -16200.00
04436              -0.60   -15600.00
04437              -0.20   -15400.00
04438               0.00   -15200.00
04439              -0.40   -14800.00
04440              -0.60   -14600.00
04441              -0.40   -14000.00
04442              -0.40   -14000.00
04443              -1.20   -13400.00
04444              -0.20   -13000.00
04445              -0.40   -12800.00
04446              -0.60   -12200.00
04447              -0.20   -12000.00
04448              -0.40   -11600.00
04449              -1.00   -11200.00
04450              -0.20   -11000.00
04451              -0.20   -10400.00
04452              -1.00   -10200.00
04453              -0.40    -9800.00
04454               0.00    -9600.00
04455              -0.20    -9000.00
04456              -1.80    -8400.00
04457               0.40    -8400.00
04458              -0.60    -8000.00
04459              -1.20    -7400.00
04460              -0.40    -6800.00
04461              -1.00    -6600.00
04462              -1.00    -6200.00
04463              -0.20    -5800.00
04464              -1.20    -5200.00
04465              -0.20    -4600.00
04466              -0.40    -4400.00
04467              -1.20    -4000.00
04468              -0.60    -3600.00
04469              -0.20    -3200.00
04470              -0.60    -2800.00
04471              -1.00    -2400.00
04472              -0.40    -1800.00
04473              -0.40    -1600.00
04474              -1.20    -1000.00
04475              -1.00     -600.00
04476               0.20     -200.00
04477              -0.20      400.00
04478               0.20      600.00
04479               3.60     1000.00
04480              -1.80     1600.00
04481              -2.80     1800.00
04482               2.80     2200.00
04483               1.20     2600.00
04484              -3.00     3000.00
04485               2.20     3200.00
04486               9.80     3800.00
04487              23.00     4600.00
04488              -5.00     5000.00
04489             -25.00     5600.00
04490              -0.20     5600.00
04491              25.00     6000.00
04492             -25.00     6400.00
04493             -25.00     6800.00
04494              25.00     7200.00
04495              25.00     7800.00
04496             -25.00     8000.00
04497              20.00     8600.00
04498              25.00     8800.00
04499             -25.00     9200.00
04500             -19.00     9600.00
04501              25.00    10000.00
04502             -25.00    10400.00
04503             -25.00    10800.00
04504              25.00    11000.00
04505              15.00    11600.00
04506             -25.00    11800.00
04507              -0.60    12400.00
04508              25.00    12800.00
04509             -21.00    13200.00
04510             -23.20    13600.00
04511              25.00    13800.00
04512               6.60    14200.00
04513             -25.00    14400.00
04514               1.20    14800.00
04515              23.80    15200.00
04516             -15.60    15600.00
04517             -10.80    15800.00
04518              23.80    16000.00
04519              -4.00    16400.00
04520             -18.60    16600.00
04521              13.40    16800.00
04522               5.80    17200.00
04523             -16.00    17600.00
04524               3.60    17800.00
04525              12.20    18000.00
04526              -9.00    18400.00
04527              -4.60    18600.00
04528               9.00    18800.00
04529              -2.60    19200.00
04530              -7.00    19600.00
04531               4.40    19600.00
04532               2.80    19800.00
04533              -4.40    20000.00
04534               0.40    20200.00
04535               2.60    20400.00
04536              -2.60    20600.00
04537              -3.60    20800.00
04538               2.60    21000.00
04539               1.40    21000.00
04540              -4.40    21200.00
04541               1.80    21600.00
04542               2.60    21600.00
04543              -3.80    21600.00
04544              -2.00    21800.00
04545               2.80    22000.00
04546              -0.60    22000.00
04547              -2.60    22200.00
04548               2.60    22200.00
04549               0.20    22400.00
04550              -3.20    22400.00
04551               0.20    22400.00
04552               1.00    22600.00
04553              -1.80    22800.00
04554              -1.20    22800.00
04555               1.60    22800.00
04556              -0.20    22800.00
04557              -2.00    22800.00
04558               0.60    22800.00
04559               0.60    22800.00
04560              -1.80    22800.00
04561              -0.20    22800.00
04562               0.40    22800.00
04563              -0.60    22600.00
04564              -0.60    22600.00
04565               0.20    22600.00
04566              -0.20    22400.00
04567              -0.80    22600.00
04568              -0.20    22400.00
04569               0.20    22400.00
04570               0.20    22400.00
04571              -1.00    22200.00
04572              -0.60    22000.00
04573               0.40    22000.00
04574              -0.80    21600.00
04575              -0.80    21600.00
04576               0.80    21600.00
04577              -0.20    21600.00
04578              -1.00    21200.00
04579               0.60    21200.00
04580              -0.20    21000.00
04581              -1.80    20800.00
04582              -0.20    20600.00
04583               1.00    20400.00
04584              -1.40    20200.00
04585              -0.40    20000.00
04586               0.60    19600.00
04587              -1.00    19600.00
04588              -0.80    19200.00
04589               0.40    19200.00
04590              -0.40    18800.00
04591              -0.40    18600.00
04592              -0.20    18400.00
04593              -0.40    18000.00
04594              -1.20    18000.00
04595              -0.40    17600.00
04596              -0.20    17200.00
04597              -0.60    17000.00
04598               0.20    16600.00
04599              -0.40    16400.00
04600              -0.60    16000.00
04601              -0.20    15800.00
04602              -1.20    15600.00
04603              -1.00    15000.00
04604               0.20    14800.00
04605              -0.60    14400.00
04606              -0.60    14200.00
04607              -0.20    13600.00
04608              -0.60    13400.00
04609              -0.60    13000.00
04610               0.20    12800.00
04611              -0.40    12400.00
04612              -1.00    12000.00
04613               0.00    11600.00
04614              -0.60    11200.00
04615              -1.00    10800.00
04616              -0.20    10600.00
04617              -0.20    10000.00
04618              -0.80     9600.00
04619               0.20     9400.00
04620               0.00     9000.00
04621              -0.60     8400.00
04622              -0.40     8200.00
04623              -0.40     7800.00
04624              -0.60     7200.00
04625              -0.60     7000.00
04626              -0.40     6600.00
04627               0.00     6000.00
04628              -0.40     5800.00
04629              -0.60     5000.00
04630               0.20     4800.00
04631              -0.40     4200.00
04632              -1.00     4000.00
04633              -0.20     3600.00
04634              -0.40     3000.00
04635              -1.00     2600.00
04636               0.00     2200.00
04637              -0.20     1800.00
04638              -0.40     1400.00
04639              -0.20     1000.00
04640              -0.40      400.00
04641              -0.40        0.00
04642               0.20     -200.00
04643               0.60     -800.00
04644               3.00    -1000.00
04645              -1.20    -1600.00
04646              -2.20    -2000.00
04647               1.40    -2400.00
04648               1.00    -2600.00
04649              -2.20    -3200.00
04650               4.40    -3400.00
04651              25.00    -4000.00
04652              17.00    -4800.00
04653             -25.00    -5200.00
04654             -15.80    -5600.00
04655              25.00    -6000.00
04656             -20.40    -6400.00
04657             -25.00    -6000.00
04658              25.00    -7000.00
04659              23.80    -7600.00
04660             -25.00    -7400.00
04661              25.00    -8600.00
04662              25.00    -8600.00
04663             -25.00    -9000.00
04664              25.00    -9600.00
04665              25.00    -9600.00
04666             -25.00   -10000.00
04667              -0.40   -10600.00
04668              25.00   -10800.00
04669              25.00   -11600.00
04670             -25.00   -11800.00
04671              -6.80   -12200.00
04672              25.00   -12600.00
04673             -25.00   -12400.00
04674             -16.20   -13200.00
04675              25.00   -13600.00
04676             -12.40   -14000.00
04677             -25.00   -14400.00
04678              17.40   -14600.00
04679              25.00   -15200.00
04680             -25.00   -15200.00
04681               1.80   -15600.00
04682              25.00   -16000.00
04683             -25.00   -16200.00
04684             -11.00   -16800.00
04685              20.40   -16800.00
04686              -2.60   -17000.00
04687             -17.20   -17200.00
04688               8.60   -17600.00
04689              14.60   -18000.00
04690             -14.80   -18200.00
04691              -2.80   -18600.00
04692              12.40   -18800.00
04693              -6.00   -19000.00
04694             -11.60   -19400.00
04695              11.00   -19400.00
04696               3.40   -19600.00
04697             -10.80   -20000.00
04698               5.00   -20200.00
04699               5.80   -20400.00
04700              -7.60   -20800.00
04701              -4.40   -20800.00
04702               8.60   -21000.00
04703              -2.40   -21000.00
04704              -5.60   -21200.00
04705               7.60   -21600.00
04706              -0.60   -21600.00
04707              -5.80   -21600.00
04708               1.80   -21800.00
04709               4.80   -22000.00
04710              -6.80   -22000.00
04711              -1.40   -22000.00
04712               7.40   -22400.00
04713              -9.00   -22400.00
04714              -3.00   -22600.00
04715               5.80   -22400.00
04716               7.00   -22600.00
04717              -5.40   -22600.00
04718               1.20   -22600.00
04719               0.80   -22800.00
04720              -4.20   -22800.00
04721              -3.80   -22800.00
04722               0.60   -23000.00
04723              -1.20   -22800.00
04724               0.20   -22800.00
04725               5.40   -22800.00
04726               1.20   -22800.00
04727              -0.40   -22800.00
04728              -3.80   -22800.00
04729              -2.20   -22600.00
04730              -4.40   -22600.00
04731              -1.20   -22600.00
04732               3.80   -22600.00
04733               3.40   -22400.00
04734              -1.60   -22400.00
04735              -0.60   -22400.00
04736               2.00   -22400.00
04737              -4.40   -22000.00
04738              -3.00   -22000.00
04739              -0.20   -22000.00
04740               1.00   -21800.00
04741              -2.60   -21600.00
04742               1.60   -21400.00
04743               4.00   -21200.00
04744              -1.00   -21000.00
04745              -3.60   -21000.00
04746              -2.00   -21000.00
04747              -1.00   -20600.00
04748              -1.20   -20400.00
04749               1.80   -20200.00
04750               0.40   -20000.00
04751              -1.40   -19800.00
04752              -1.00   -19600.00
04753               0.60   -19400.00
04754              -0.20   -19200.00
04755              -1.40   -18800.00
04756              -1.80   -18600.00
04757              -0.60   -18400.00
04758               0.20   -18000.00
04759              -0.60   -17800.00
04760               1.00   -17600.00
04761               0.40   -17200.00
04762              -0.60   -17200.00
04763              -1.00   -16800.00
04764              -0.20   -16400.00
04765              -1.40   -16000.00
04766              -1.80   -15800.00
04767               0.20   -15600.00
04768              -1.00   -15200.00
04769              -0.20   -14800.00
04770               0.60   -14600.00
04771               0.20   -14000.00
04772              -1.20   -13800.00
04773              -0.60   -13400.00
04774              -1.00   -13000.00
04775              -1.00   -12800.00
04776              -0.20   -12400.00
04777               0.60   -12000.00
04778              -0.40   -11600.00
04779              -1.00   -11400.00
04780               0.00   -10800.00
04781              -0.60   -10400.00
04782              -0.40   -10200.00
04783              -0.60    -9800.00
04784              -0.60    -9400.00
04785              -0.60    -9000.00
04786              -0.20    -8400.00
04787              -1.00    -8200.00
04788              -0.40    -7600.00
04789              -0.20    -7400.00
04790              -1.00    -6800.00
04791              -1.20    -6400.00
04792               0.00    -6000.00
04793              -1.20    -5800.00
04794              -1.00    -5200.00
04795               0.20    -4600.00
04796              -0.60    -4400.00
04797              -1.60    -4000.00
04798              -0.20    -3600.00
04799              -0.40    -3200.00
04800              -1.20    -2800.00
04801              -0.80    -2200.00
04802              -0.20    -1800.00
04803              -0.60    -1400.00
04804              -1.00    -1000.00
04805              -0.40     -600.00
04806              -0.20        0.00
04807              -0.40      400.00
04808               0.80      600.00
04809               3.40     1200.00
04810              -2.40     1600.00
04811              -1.20     2000.00
04812               2.80     2400.00
04813               0.40     2800.00
04814              -3.00     3000.00
04815               3.40     3600.00
04816              11.00     4000.00
04817              23.40     4800.00
04818             -14.60     5200.00
04819             -25.00     5600.00
04820              10.00     5800.00
04821              25.00     6200.00
04822             -25.00     6400.00
04823             -25.00     6800.00
04824              25.00     7600.00
04825              25.00     7800.00
04826             -25.00     8200.00
04827              25.00     8600.00
04828              25.00     8800.00
04829             -25.00     9200.00
04830               9.20     9800.00
04831              25.00    10000.00
04832             -25.00    10400.00
04833             -23.00    10800.00
04834              25.00    11000.00
04835               2.00    11600.00
04836             -25.00    11800.00
04837              11.60    12400.00
04838              25.00    12800.00
04839             -25.00    13200.00
04840             -14.00    13600.00
04841              25.00    13800.00
04842              -1.00    14200.00
04843             -25.00    14600.00
04844               7.00    14800.00
04845              22.00    15200.00
04846             -21.20    15600.00
04847              -6.00    15800.00
04848              25.00    16000.00
04849             -10.60    16400.00
04850             -15.80    16600.00
04851              17.00    16800.00
04852               1.80    17200.00
04853             -16.20    17600.00
04854               7.60    17800.00
04855              10.20    18200.00
04856             -10.20    18400.00
04857              -4.20    18800.00
04858               8.60    18800.00
04859              -3.80    19200.00
04860              -7.60    19600.00
04861               6.20    19800.00
04862               2.60    19800.00
04863              -6.00    20000.00
04864               1.20    20200.00
04865               3.60    20600.00
04866              -4.40    20600.00
04867              -2.80    20800.00
04868               4.40    21000.00
04869              -0.80    21200.00
04870              -3.60    21200.00
04871               3.60    21400.00
04872               0.40    21600.00
04873              -3.80    21600.00
04874               0.40    21800.00
04875               1.20    22000.00
04876              -2.00    22000.00
04877              -1.00    22200.00
04878               2.00    22400.00
04879              -1.20    22200.00
04880              -1.60    22400.00
04881               1.20    22400.00
04882              -0.20    22800.00
04883              -1.40    22400.00
04884              -0.40    22800.00
04885               1.00    22800.00
04886              -0.40    22800.00
04887              -1.60    22800.00
04888               0.40    22800.00
04889               0.40    22600.00
04890              -1.20    22800.00
04891              -0.20    22800.00
04892               1.00    22800.00
04893              -0.60    22600.00
04894              -0.40    22800.00
04895               0.60    22800.00
04896              -0.60    22400.00
04897              -1.00    22400.00
04898               0.40    22400.00
04899              -0.40    22400.00
04900               0.00    22200.00
04901               0.20    22200.00
04902              -0.60    22000.00
04903               0.40    22000.00
04904              -0.20    22000.00
04905              -1.00    21600.00
04906               0.20    21600.00
04907               0.40    21400.00
04908              -1.00    21200.00
04909              -0.40    21200.00
04910               0.20    20800.00
04911              -1.20    20600.00
04912              -0.20    20800.00
04913               1.00    20400.00
04914              -0.60    20200.00
04915              -0.60    19800.00
04916               0.60    19600.00
04917              -0.60    19600.00
04918              -1.40    19200.00
04919               0.40    19000.00
04920              -0.20    19000.00
04921              -1.20    18600.00
04922               0.40    18200.00
04923              -0.40    18000.00
04924              -2.00    18000.00
04925               0.20    17600.00
04926              -0.20    17200.00
04927              -1.20    17000.00
04928               0.00    16800.00
04929               0.20    16200.00
04930              -0.80    16000.00
04931              -0.40    15800.00
04932               0.00    15600.00
04933              -0.60    15200.00
04934              -0.60    14800.00
04935              -0.20    14400.00
04936              -0.40    14200.00
04937              -1.00    13800.00
04938              -1.00    13400.00
04939              -0.20    13000.00
04940              -0.40    12800.00
04941              -1.20    12400.00
04942              -0.40    11800.00
04943               0.20    11600.00
04944              -0.60    11200.00
04945              -0.20    10800.00
04946               0.20    10400.00
04947              -1.00    10000.00
04948              -1.00     9600.00
04949               0.20     9400.00
04950              -0.80     8800.00
04951              -1.00     8400.00
04952               0.20     8000.00
04953              -0.40     7600.00
04954              -1.00     7200.00
04955               0.00     6800.00
04956              -0.40     6400.00
04957              -1.00     6000.00
04958               0.00     5600.00
04959              -0.40     5200.00
04960              -0.80     4600.00
04961               0.40     4400.00
04962              -0.40     3800.00
04963              -1.00     3400.00
04964               0.20     3000.00
04965              -0.20     2400.00
04966              -0.60     2000.00
04967               0.00     1800.00
04968              -0.20     1400.00
04969              -0.60      800.00
04970              -0.40      600.00
04971              -0.20        0.00
04972              -0.20     -400.00
04973               1.00     -800.00
04974               3.40    -1200.00
04975              -1.80    -1600.00
04976              -1.40    -2000.00
04977               2.00    -2400.00
04978               0.20    -2600.00
04979              -2.20    -3200.00
04980               6.00    -3400.00
04981              25.00    -4000.00
04982               5.40    -4800.00
04983             -25.00    -5200.00
04984              -3.00    -5600.00
04985              25.00    -6000.00
04986             -25.00    -6200.00
04987             -25.00    -6200.00
04988              25.00    -7200.00
04989             -11.60    -7400.00
04990             -25.00    -7400.00
04991              25.00    -8800.00
04992              25.00    -8400.00
04993             -25.00    -9200.00
04994              25.00    -9600.00
04995              25.00    -9600.00
04996             -25.00   -10400.00
04997               5.80   -10600.00
04998              25.00   -10800.00
04999              19.00   -11400.00
05000             -25.00   -11800.00
