Unit:(mV)
                     CH1         CH2
Frequency              ? 303.187 kHz
00001              -0.60     9400.00
00002              -0.40     8800.00
00003               0.40     8400.00
00004              -0.40     8200.00
00005              -0.20     7800.00
00006               0.00     7200.00
00007              -1.20     6800.00
00008              -1.00     6400.00
00009               0.20     6000.00
00010              -0.40     5600.00
00011              -2.20     5200.00
00012               0.80     4800.00
00013              -0.60     4400.00
00014              -0.60     4000.00
00015               0.40     3600.00
00016              -1.40     3000.00
00017              -0.60     2600.00
00018               0.20     2200.00
00019              -1.40     2000.00
00020               0.00     1400.00
00021              -0.40     1000.00
00022              -1.20      600.00
00023               0.20        0.00
00024              -0.40     -400.00
00025              -0.60     -800.00
00026               3.60    -1000.00
00027              -0.60    -1600.00
00028              -3.40    -2000.00
00029               1.20    -2000.00
00030               1.20    -2600.00
00031              -3.00    -3000.00
00032               2.60    -3200.00
00033              20.60    -3600.00
00034              24.80    -4600.00
00035             -25.00    -5200.00
00036             -25.00    -5600.00
00037              25.00    -5800.00
00038              -6.20    -6200.00
00039             -25.00    -6200.00
00040              25.00    -6600.00
00041              25.00    -7400.00
00042             -25.00    -7200.00
00043              25.00    -8200.00
00044              25.00    -8600.00
00045             -25.00    -8800.00
00046              25.00    -9600.00
00047              25.00    -9600.00
00048             -25.00    -9800.00
00049              -1.40   -10400.00
00050              25.00   -10600.00
00051              12.80   -11200.00
00052             -25.00   -11600.00
00053             -17.80   -11800.00
00054              25.00   -12400.00
00055             -25.00   -12400.00
00056             -20.20   -13200.00
00057              25.00   -13400.00
00058              -5.60   -13600.00
00059             -22.60   -14400.00
00060              -0.60   -14400.00
00061              22.20   -14800.00
00062             -17.80   -15200.00
00063             -10.60   -15400.00
00064              25.00   -15800.00
00065             -14.20   -16000.00
00066             -10.20   -16400.00
00067              10.80   -16800.00
00068              -4.60   -16800.00
00069              -6.20   -17200.00
00070               2.20   -17400.00
00071               4.20   -17600.00
00072              -3.40   -17800.00
00073              -2.60   -18400.00
00074               0.20   -18600.00
00075               0.20   -18800.00
00076              -5.40   -19200.00
00077              -1.00   -19400.00
00078               4.40   -19600.00
00079              -4.20   -19600.00
00080              -1.40   -20200.00
00081               2.00   -20200.00
00082              -2.80   -20400.00
00083              -5.80   -20600.00
00084               3.00   -20800.00
00085               0.20   -21000.00
00086              -5.20   -21000.00
00087               4.20   -21200.00
00088              -2.00   -21600.00
00089              -5.00   -21600.00
00090               0.20   -21600.00
00091              -0.20   -21800.00
00092              -2.80   -21800.00
00093              -1.00   -22000.00
00094               1.40   -22200.00
00095              -2.20   -22200.00
00096              -2.00   -22000.00
00097              -1.00   -22400.00
00098              -1.40   -22600.00
00099              -1.00   -22400.00
00100              -2.20   -22600.00
00101              -0.40   -22600.00
00102              -0.20   -22600.00
00103              -3.20   -22400.00
00104              -0.60   -22600.00
00105               0.20   -22800.00
00106              -3.40   -22600.00
00107              -0.60   -22600.00
00108               0.40   -22600.00
00109              -1.80   -22600.00
00110              -2.00   -22600.00
00111              -0.60   -22400.00
00112              -0.60   -22400.00
00113              -1.80   -22400.00
00114              -0.60   -22400.00
00115              -1.20   -22400.00
00116              -1.20   -22200.00
00117              -0.60   -22200.00
00118              -1.40   -22000.00
00119              -0.60   -22000.00
00120              -1.40   -21800.00
00121              -2.00   -21800.00
00122              -0.60   -21600.00
00123              -1.00   -21600.00
00124              -1.40   -21200.00
00125              -0.60   -21000.00
00126              -0.20   -21200.00
00127              -1.80   -20800.00
00128              -1.60   -20600.00
00129              -0.40   -20400.00
00130              -1.20   -20400.00
00131              -1.80   -20200.00
00132              -1.00   -20000.00
00133              -1.20   -19600.00
00134              -1.80   -19400.00
00135              -1.20   -19200.00
00136              -0.20   -19000.00
00137              -1.80   -18800.00
00138              -1.40   -18400.00
00139               0.00   -18200.00
00140              -2.20   -18000.00
00141              -1.40   -17600.00
00142              -0.40   -17400.00
00143              -2.00   -17200.00
00144              -0.60   -16800.00
00145              -0.60   -16600.00
00146              -2.20   -16200.00
00147              -0.60   -16200.00
00148              -0.60   -15600.00
00149              -2.40   -15400.00
00150              -1.20   -15000.00
00151               0.00   -14800.00
00152              -2.60   -14400.00
00153              -1.40   -14000.00
00154               0.40   -13800.00
00155              -2.20   -13400.00
00156              -1.40   -13000.00
00157               0.20   -12800.00
00158              -1.80   -12400.00
00159              -1.60   -12000.00
00160              -0.40   -11400.00
00161              -1.40   -11200.00
00162              -1.40   -10800.00
00163              -0.40   -10400.00
00164              -0.80   -10000.00
00165              -1.40    -9600.00
00166              -0.60    -9200.00
00167              -1.00    -8800.00
00168              -1.20    -8400.00
00169              -0.60    -8200.00
00170              -1.20    -7600.00
00171              -0.80    -7200.00
00172              -0.60    -6800.00
00173              -1.20    -6400.00
00174              -0.60    -6000.00
00175              -0.20    -5600.00
00176              -1.20    -5200.00
00177              -0.60    -4800.00
00178              -0.40    -4400.00
00179              -1.00    -3800.00
00180              -1.20    -3400.00
00181              -0.20    -3200.00
00182              -0.40    -2800.00
00183              -1.20    -2200.00
00184              -0.40    -1800.00
00185               0.20    -1400.00
00186              -1.20    -1000.00
00187              -1.00     -400.00
00188               1.00     -200.00
00189              -0.40      400.00
00190               0.20      800.00
00191               4.20     1200.00
00192              -2.00     1400.00
00193              -2.60     2000.00
00194               3.00     2200.00
00195               1.00     2600.00
00196              -3.60     3000.00
00197               2.60     3200.00
00198              10.40     4000.00
00199              22.20     4600.00
00200              -7.00     5000.00
00201             -25.00     5600.00
00202               1.80     5600.00
00203              25.00     6000.00
00204             -25.00     6400.00
00205             -25.00     6800.00
00206              25.00     7200.00
00207              25.00     7800.00
00208             -25.00     8000.00
00209              18.60     8600.00
00210              25.00     8600.00
00211             -25.00     9200.00
00212             -16.40     9800.00
00213              25.00    10000.00
00214             -25.00    10400.00
00215             -25.00    10800.00
00216              25.00    11000.00
00217               9.20    11600.00
00218             -25.00    11800.00
00219              -0.60    12000.00
00220              25.00    12600.00
00221             -15.60    13200.00
00222             -19.80    13400.00
00223              24.20    13600.00
00224               7.00    14000.00
00225             -22.20    14600.00
00226              -1.80    14800.00
00227              20.20    15000.00
00228             -10.20    15400.00
00229              -9.40    15800.00
00230              19.80    16000.00
00231              -3.80    16400.00
00232             -13.40    16400.00
00233              11.20    16800.00
00234               1.80    17200.00
00235              -9.80    17400.00
00236               5.80    18000.00
00237               5.80    18200.00
00238              -3.80    18200.00
00239              -1.20    18400.00
00240               2.00    18800.00
00241              -0.60    19200.00
00242              -1.80    19200.00
00243               0.40    19600.00
00244               2.40    19600.00
00245               1.00    20000.00
00246              -1.40    20000.00
00247               1.80    20400.00
00248               1.00    20600.00
00249              -3.40    20600.00
00250               2.60    21000.00
00251               2.80    21200.00
00252              -3.40    21200.00
00253               2.20    21200.00
00254               2.20    21400.00
00255              -2.80    21600.00
00256               0.40    21600.00
00257               2.20    22000.00
00258              -0.60    22000.00
00259               0.40    22000.00
00260               2.00    22200.00
00261              -1.20    22200.00
00262               0.20    22200.00
00263               0.40    22400.00
00264              -0.40    22400.00
00265               1.20    22400.00
00266              -0.60    22400.00
00267               0.20    22600.00
00268               2.00    22400.00
00269              -1.20    22600.00
00270              -0.60    22400.00
00271               1.80    22600.00
00272              -0.60    22400.00
00273              -0.20    22400.00
00274               1.20    22600.00
00275               0.20    22400.00
00276              -0.40    22400.00
00277               1.20    22400.00
00278              -0.20    22400.00
00279              -0.60    22400.00
00280               1.00    22200.00
00281              -0.20    22200.00
00282              -0.20    22200.00
00283               0.80    22000.00
00284              -0.60    21800.00
00285               0.40    21800.00
00286               0.60    21600.00
00287              -0.60    21600.00
00288               0.40    21400.00
00289               0.60    21200.00
00290              -0.60    21200.00
00291               0.60    20800.00
00292               1.20    21000.00
00293              -1.80    20600.00
00294               1.00    20400.00
00295               2.20    20400.00
00296              -2.00    20000.00
00297              -0.20    19800.00
00298               3.60    19800.00
00299              -2.00    19600.00
00300              -1.80    19200.00
00301               2.60    19000.00
00302               0.20    18800.00
00303              -1.20    18400.00
00304               1.20    18200.00
00305               0.60    18000.00
00306              -0.80    17600.00
00307              -0.60    17200.00
00308               1.40    17200.00
00309               0.20    16800.00
00310               0.20    16600.00
00311               0.40    16400.00
00312               0.20    16000.00
00313              -0.60    15600.00
00314              -0.60    15400.00
00315               1.00    15000.00
00316              -0.20    14600.00
00317               0.20    14400.00
00318               0.00    14000.00
00319              -1.00    13800.00
00320               1.00    13200.00
00321               1.00    13200.00
00322              -1.60    12600.00
00323              -0.40    12400.00
00324               1.00    12000.00
00325              -1.40    11400.00
00326              -0.60    11000.00
00327               2.60    10800.00
00328              -0.60    10400.00
00329              -1.80    10000.00
00330               1.80     9600.00
00331              -1.00     9400.00
00332              -3.00     8800.00
00333               1.40     8400.00
00334               1.20     8000.00
00335              -2.80     7600.00
00336               0.20     7200.00
00337               2.00     6800.00
00338              -2.60     6400.00
00339              -1.40     6000.00
00340               1.20     5600.00
00341              -1.80     5200.00
00342              -1.20     4800.00
00343               1.40     4200.00
00344              -1.20     3800.00
00345              -1.20     3200.00
00346               1.20     3000.00
00347              -1.40     2600.00
00348              -1.20     2200.00
00349               0.40     1800.00
00350              -1.20     1400.00
00351              -0.60      800.00
00352              -0.20      400.00
00353               0.20        0.00
00354               0.20     -400.00
00355               0.20     -600.00
00356               3.60    -1200.00
00357              -2.20    -1400.00
00358              -3.40    -2000.00
00359               2.60    -2400.00
00360               0.80    -2600.00
00361              -3.00    -3000.00
00362               5.20    -3400.00
00363              24.60    -3800.00
00364              13.20    -4800.00
00365             -25.00    -5200.00
00366             -13.20    -5600.00
00367              25.00    -6000.00
00368             -22.00    -6200.00
00369             -25.00    -6200.00
00370              25.00    -6800.00
00371              23.40    -7400.00
00372             -25.00    -7400.00
00373              25.00    -8400.00
00374              25.00    -8400.00
00375             -25.00    -8800.00
00376              25.00    -9600.00
00377              25.00    -9400.00
00378             -25.00   -10000.00
00379              10.60   -10600.00
00380              25.00   -10600.00
00381               8.80   -11400.00
00382             -25.00   -11600.00
00383               0.20   -12000.00
00384              25.00   -12400.00
00385             -25.00   -12400.00
00386              -4.40   -13200.00
00387              25.00   -13200.00
00388             -13.00   -13800.00
00389             -20.20   -14400.00
00390               5.80   -14400.00
00391              19.60   -14800.00
00392             -25.00   -15200.00
00393              -0.40   -15600.00
00394              25.00   -15600.00
00395             -20.60   -16000.00
00396              -3.00   -16400.00
00397               9.00   -16800.00
00398              -6.60   -17000.00
00399              -4.20   -17200.00
00400               3.00   -17400.00
00401               2.60   -17800.00
00402              -3.80   -18000.00
00403              -1.40   -18400.00
00404              -1.00   -18800.00
00405              -0.40   -18800.00
00406              -4.60   -19200.00
00407              -0.40   -19200.00
00408               3.60   -19600.00
00409              -3.40   -19600.00
00410              -2.60   -20000.00
00411               2.60   -20000.00
00412              -2.80   -20400.00
00413              -7.00   -20400.00
00414               4.40   -20800.00
00415              -1.00   -20800.00
00416              -4.60   -21200.00
00417               4.40   -21200.00
00418              -2.00   -21400.00
00419              -4.20   -21600.00
00420               0.20   -21800.00
00421              -0.40   -21800.00
00422              -3.00   -21800.00
00423              -0.40   -22000.00
00424               0.60   -22200.00
00425              -2.20   -22200.00
00426              -2.00   -22400.00
00427              -1.40   -22400.00
00428              -0.60   -22400.00
00429              -1.00   -22400.00
00430              -2.00   -22600.00
00431               0.20   -22600.00
00432              -1.20   -22600.00
00433              -3.00   -22600.00
00434               1.60   -22600.00
00435              -0.40   -22600.00
00436              -4.20   -22600.00
00437              -0.20   -22600.00
00438               0.20   -22600.00
00439              -2.40   -22600.00
00440              -1.40   -22400.00
00441               0.40   -22600.00
00442              -1.20   -22600.00
00443              -2.20   -22400.00
00444              -0.60   -22400.00
00445              -1.20   -22400.00
00446              -1.00   -22000.00
00447              -1.00   -22200.00
00448              -1.40   -22000.00
00449              -0.40   -22000.00
00450              -1.80   -21800.00
00451              -1.40   -21600.00
00452              -0.20   -21600.00
00453              -1.60   -21600.00
00454              -1.80   -21200.00
00455              -0.60   -21200.00
00456              -1.00   -21000.00
00457              -2.20   -20800.00
00458              -0.60   -20800.00
00459              -0.60   -20400.00
00460              -2.00   -20400.00
00461              -0.60   -20000.00
00462              -0.60   -20000.00
00463              -2.20   -19600.00
00464              -1.20   -19600.00
00465              -0.80   -19400.00
00466              -1.80   -18800.00
00467              -1.40   -18800.00
00468              -0.60   -18600.00
00469              -1.00   -18000.00
00470              -1.80   -17800.00
00471              -1.20   -17800.00
00472              -1.40   -17400.00
00473              -1.20   -17000.00
00474              -1.00   -16800.00
00475              -1.80   -16600.00
00476              -1.20   -16200.00
00477              -1.00   -16000.00
00478              -1.80   -15600.00
00479              -0.60   -15200.00
00480              -0.80   -15200.00
00481              -1.20   -14800.00
00482              -1.40   -14400.00
00483              -0.80   -14000.00
00484              -1.20   -13600.00
00485              -1.40   -13200.00
00486              -0.60   -13000.00
00487              -0.60   -12400.00
00488              -1.20   -12200.00
00489              -1.00   -11600.00
00490              -0.80   -11400.00
00491              -1.40   -11000.00
00492              -1.40   -10800.00
00493              -0.40   -10400.00
00494              -1.20   -10000.00
00495              -1.40    -9600.00
00496              -0.20    -9000.00
00497              -1.00    -8800.00
00498              -1.40    -8400.00
00499              -0.60    -8000.00
00500              -0.40    -7600.00
00501              -1.00    -7200.00
00502              -1.00    -6800.00
00503              -1.00    -6400.00
00504              -0.40    -6000.00
00505              -1.00    -5600.00
00506              -1.20    -5000.00
00507              -0.40    -4600.00
00508              -0.60    -4200.00
00509              -1.00    -3800.00
00510              -0.60    -3400.00
00511              -0.20    -3200.00
00512              -0.40    -2600.00
00513              -1.00    -2000.00
00514              -0.20    -1600.00
00515              -0.60    -1200.00
00516              -1.20     -800.00
00517              -0.60     -400.00
00518               0.20        0.00
00519              -0.60      400.00
00520               1.80      800.00
00521               2.80     1400.00
00522              -2.80     1600.00
00523              -1.00     1800.00
00524               3.00     2400.00
00525              -0.60     2600.00
00526              -2.80     3000.00
00527               5.00     3400.00
00528              11.40     4000.00
00529              23.20     4800.00
00530             -16.60     5200.00
00531             -25.00     5600.00
00532              12.40     6000.00
00533              25.00     6200.00
00534             -25.00     6400.00
00535             -25.00     6800.00
00536              25.00     7600.00
00537              25.00     7800.00
00538             -25.00     8200.00
00539              25.00     8600.00
00540              25.00     8800.00
00541             -25.00     9200.00
00542              13.40     9600.00
00543              25.00    10000.00
00544             -25.00    10600.00
00545             -16.40    10800.00
00546              25.00    11200.00
00547              -2.20    11600.00
00548             -25.00    12000.00
00549              11.00    12400.00
00550              25.00    12800.00
00551             -25.00    13200.00
00552             -10.60    13400.00
00553              25.00    13600.00
00554              -1.20    14200.00
00555             -21.40    14600.00
00556               4.40    14800.00
00557              17.00    15200.00
00558             -14.00    15600.00
00559              -4.40    15800.00
00560              19.80    16000.00
00561              -8.60    16400.00
00562             -10.60    16600.00
00563              13.20    16800.00
00564              -2.20    17200.00
00565              -9.20    17400.00
00566               8.80    17800.00
00567               2.60    18200.00
00568              -4.40    18400.00
00569               1.40    18400.00
00570               1.80    18800.00
00571              -1.60    19000.00
00572              -0.20    19200.00
00573               1.00    19600.00
00574               1.20    19800.00
00575               0.60    20000.00
00576              -1.20    20000.00
00577               1.60    20400.00
00578               0.20    20400.00
00579              -2.80    20800.00
00580               2.60    21000.00
00581               1.20    21200.00
00582              -2.20    21000.00
00583               2.80    21200.00
00584               1.20    21600.00
00585              -3.00    21600.00
00586               0.40    21600.00
00587               2.00    22000.00
00588              -1.00    22000.00
00589               0.60    22000.00
00590               2.00    22200.00
00591              -1.20    22200.00
00592               0.20    22400.00
00593               0.60    22400.00
00594              -0.60    22400.00
00595               0.60    22400.00
00596              -0.20    22600.00
00597               0.20    22600.00
00598               1.40    22400.00
00599              -0.60    22600.00
00600              -0.40    22400.00
00601               1.40    22400.00
00602              -0.20    22600.00
00603              -0.20    22400.00
00604               1.00    22600.00
00605               0.40    22400.00
00606              -0.60    22400.00
00607               0.20    22400.00
00608               0.40    22400.00
00609              -0.20    22400.00
00610               0.20    22200.00
00611              -0.20    22200.00
00612               0.20    22000.00
00613              -0.20    22000.00
00614              -0.40    22000.00
00615               1.00    21600.00
00616               0.40    21600.00
00617              -0.20    21400.00
00618               1.00    21200.00
00619               0.40    21200.00
00620               0.20    21200.00
00621               0.40    21000.00
00622               0.20    20800.00
00623               0.20    20400.00
00624              -0.20    20600.00
00625               0.40    20200.00
00626               0.60    19800.00
00627              -1.20    19800.00
00628               1.00    19600.00
00629               0.40    19600.00
00630              -0.60    19200.00
00631               1.00    18800.00
00632               0.60    18800.00
00633              -0.40    18400.00
00634               1.00    18200.00
00635               0.40    18000.00
00636              -0.20    17600.00
00637               0.40    17400.00
00638              -0.60    17000.00
00639               0.40    16800.00
00640               0.40    16400.00
00641              -0.60    16400.00
00642               0.60    15800.00
00643               0.40    15600.00
00644              -1.00    15200.00
00645               0.20    15000.00
00646               0.60    14800.00
00647              -0.40    14200.00
00648              -0.20    13800.00
00649               0.40    13600.00
00650              -0.20    13200.00
00651              -0.20    12800.00
00652               0.40    12600.00
00653              -0.40    12000.00
00654              -0.60    11800.00
00655               0.00    11400.00
00656              -0.20    11000.00
00657              -0.40    10600.00
00658              -0.20    10200.00
00659              -0.40    10000.00
00660              -0.40     9600.00
00661               0.20     9200.00
00662              -0.20     8800.00
00663              -0.40     8400.00
00664              -0.40     8200.00
00665              -0.60     7600.00
00666              -0.40     7000.00
00667              -0.20     6800.00
00668              -1.20     6400.00
00669              -0.60     6000.00
00670               0.20     5400.00
00671              -0.60     5000.00
00672              -0.60     4600.00
00673              -0.20     4200.00
00674              -1.00     3800.00
00675              -1.20     3400.00
00676              -0.20     3000.00
00677              -1.20     2600.00
00678              -0.40     2200.00
00679              -0.20     1600.00
00680              -0.60     1200.00
00681              -0.60      800.00
00682               0.20      400.00
00683              -0.60        0.00
00684              -0.20     -400.00
00685               1.40     -800.00
00686               2.60    -1200.00
00687              -3.00    -1600.00
00688              -1.40    -2000.00
00689               2.20    -2400.00
00690              -0.80    -2800.00
00691              -2.60    -3200.00
00692               7.60    -3400.00
00693              25.00    -4200.00
00694              -0.20    -4800.00
00695             -25.00    -5200.00
00696               2.20    -5800.00
00697              25.00    -6000.00
00698             -25.00    -6400.00
00699             -25.00    -6200.00
00700              25.00    -7200.00
00701             -18.80    -7400.00
00702             -25.00    -7400.00
00703              25.00    -8600.00
00704              20.60    -8400.00
00705             -25.00    -9000.00
00706              25.00    -9600.00
00707              25.00    -9400.00
00708             -25.00   -10000.00
00709              18.00   -10600.00
00710              25.00   -10800.00
00711               0.20   -11200.00
00712             -25.00   -11600.00
00713              13.40   -12200.00
00714              25.00   -12400.00
00715             -25.00   -12600.00
00716              10.80   -13200.00
00717              25.00   -13400.00
00718             -20.40   -13800.00
00719             -20.40   -14600.00
00720              11.00   -14600.00
00721              11.60   -14800.00
00722             -25.00   -15200.00
00723              14.20   -15600.00
00724              21.40   -15800.00
00725             -24.60   -16200.00
00726               2.00   -16600.00
00727               7.40   -16800.00
00728              -9.40   -17000.00
00729              -5.20   -17200.00
00730               5.20   -17600.00
00731               3.80   -17800.00
00732              -6.20   -18000.00
00733              -1.40   -18600.00
00734               1.80   -18800.00
00735              -2.00   -19000.00
00736              -6.60   -19200.00
00737               2.20   -19400.00
00738               2.20   -19600.00
00739              -5.40   -20000.00
00740               1.00   -20000.00
00741               2.20   -20200.00
00742              -5.80   -20400.00
00743              -4.60   -20600.00
00744               6.20   -20800.00
00745              -4.20   -20800.00
00746              -3.00   -21200.00
00747               5.20   -21200.00
00748              -4.60   -21400.00
00749              -3.60   -21600.00
00750               1.00   -21800.00
00751              -0.40   -21800.00
00752              -3.00   -22000.00
00753               1.20   -22000.00
00754               0.40   -22200.00
00755              -3.60   -22400.00
00756              -1.60   -22400.00
00757              -0.60   -22400.00
00758              -1.00   -22600.00
00759              -1.80   -22400.00
00760              -0.60   -22400.00
00761               1.00   -22600.00
00762              -1.80   -22400.00
00763              -3.00   -22600.00
00764               1.20   -22600.00
00765              -2.00   -22600.00
00766              -3.60   -22600.00
00767               1.00   -22600.00
00768              -0.20   -22800.00
00769              -1.80   -22600.00
00770              -1.20   -22400.00
00771              -0.20   -22400.00
00772              -2.00   -22400.00
00773              -1.60   -22400.00
00774              -1.00   -22400.00
00775              -1.40   -22400.00
00776              -0.20   -22400.00
00777              -1.60   -22200.00
00778              -1.20   -22000.00
00779               0.00   -22000.00
00780              -2.40   -21600.00
00781              -1.00   -21600.00
00782               0.20   -21400.00
00783              -2.20   -21600.00
00784              -2.00   -21200.00
00785               0.40   -21000.00
00786              -1.20   -21000.00
00787              -2.60   -20800.00
00788              -0.20   -20600.00
00789              -1.20   -20400.00
00790              -2.20   -20200.00
00791              -0.20   -20000.00
00792              -1.20   -19800.00
00793              -2.00   -19600.00
00794              -1.00   -19400.00
00795              -1.00   -19200.00
00796              -1.40   -19000.00
00797              -1.20   -18600.00
00798              -1.00   -18400.00
00799              -1.60   -18200.00
00800              -1.20   -18000.00
00801              -1.20   -17400.00
00802              -1.60   -17400.00
00803              -0.60   -17200.00
00804              -1.00   -16800.00
00805              -1.40   -16400.00
00806              -0.80   -16200.00
00807              -1.20   -15800.00
00808              -1.80   -15600.00
00809              -0.60   -15400.00
00810              -1.00   -14800.00
00811              -1.40   -14600.00
00812              -1.00   -14400.00
00813              -0.60   -13800.00
00814              -1.20   -13600.00
00815              -1.00   -13200.00
00816              -0.60   -12800.00
00817              -1.20   -12600.00
00818              -1.20   -12200.00
00819              -0.60   -11800.00
00820              -1.20   -11400.00
00821              -0.60   -11000.00
00822              -0.60   -10600.00
00823              -1.00   -10200.00
00824              -0.60    -9800.00
00825              -1.20    -9600.00
00826              -0.60    -9200.00
00827              -1.40    -8800.00
00828              -0.60    -8200.00
00829              -0.60    -8000.00
00830              -0.60    -7400.00
00831              -0.20    -7200.00
00832              -0.60    -6800.00
00833              -1.00    -6400.00
00834               0.20    -6000.00
00835              -1.00    -5600.00
00836              -1.20    -5000.00
00837              -0.40    -4400.00
00838              -0.60    -4200.00
00839              -1.20    -3800.00
00840              -0.40    -3400.00
00841              -0.40    -2800.00
00842              -0.60    -2400.00
00843              -1.00    -2000.00
00844              -0.20    -1600.00
00845              -0.60    -1200.00
00846              -1.00     -800.00
00847              -0.60     -400.00
00848              -0.20        0.00
00849              -0.20      400.00
00850               2.00      800.00
00851               2.00     1200.00
00852              -2.80     1600.00
00853               0.20     2000.00
00854               2.60     2400.00
00855              -0.80     2800.00
00856              -2.20     3200.00
00857               5.20     3600.00
00858              13.80     4200.00
00859              21.80     4800.00
00860             -25.00     5200.00
00861             -25.00     5600.00
00862              22.80     6000.00
00863              16.60     6200.00
00864             -25.00     6600.00
00865             -13.00     6800.00
00866              25.00     7600.00
00867              -1.80     7800.00
00868             -25.00     8200.00
00869              25.00     8600.00
00870              25.00     8800.00
00871             -25.00     9400.00
00872              25.00    10000.00
00873              25.00    10000.00
00874             -25.00    10400.00
00875               0.60    10800.00
00876              25.00    11200.00
00877             -13.60    11600.00
00878             -25.00    12000.00
00879              21.20    12400.00
00880              24.40    12800.00
00881             -25.00    13200.00
00882              -1.80    13400.00
00883              25.00    13600.00
00884              -8.20    14200.00
00885             -19.80    14600.00
00886              10.40    14800.00
00887              13.00    15200.00
00888             -18.20    15600.00
00889               3.80    15800.00
00890              17.00    16000.00
00891             -14.00    16400.00
00892              -3.80    16600.00
00893              12.20    17000.00
00894              -5.80    17200.00
00895              -5.40    17600.00
00896               9.00    18000.00
00897               1.20    18200.00
00898              -3.80    18400.00
00899               1.40    18600.00
00900               1.20    18800.00
00901              -1.80    19200.00
00902              -0.20    19200.00
00903               1.00    19600.00
00904               1.80    19800.00
00905               0.20    20000.00
00906              -1.40    20400.00
00907               2.80    20400.00
00908              -1.20    20400.00
00909              -3.40    20800.00
00910               4.40    21000.00
00911               0.60    21200.00
00912              -2.60    21200.00
00913               3.40    21400.00
00914               0.60    21400.00
00915              -3.40    21600.00
00916               1.00    21800.00
00917               2.00    22000.00
00918              -1.80    22000.00
00919               0.40    22200.00
00920               2.00    22000.00
00921              -1.40    22200.00
00922               0.00    22400.00
00923               1.20    22400.00
00924              -0.60    22400.00
00925               0.40    22400.00
00926               0.20    22800.00
00927               0.60    22400.00
00928               0.40    22600.00
00929              -1.00    22600.00
00930               0.40    22600.00
00931               0.80    22600.00
00932              -0.20    22600.00
00933              -0.20    22600.00
00934               0.60    22600.00
00935               0.40    22600.00
00936              -0.40    22400.00
00937               0.60    22400.00
00938               0.20    22400.00
00939              -0.60    22400.00
00940               0.60    22400.00
00941               0.40    22200.00
00942               0.40    22000.00
00943              -0.20    22000.00
00944               0.40    22000.00
00945               1.00    21800.00
00946              -0.20    21600.00
00947               0.40    21400.00
00948               0.40    21600.00
00949              -0.60    21200.00
00950               0.20    21200.00
00951               1.00    21000.00
00952               0.20    20600.00
00953              -0.20    20600.00
00954               1.40    20400.00
00955               0.20    20200.00
00956              -0.40    20000.00
00957               0.40    19800.00
00958               0.40    19600.00
00959              -0.20    19200.00
00960               0.20    19200.00
00961               0.40    19000.00
00962               0.20    18800.00
00963               0.40    18200.00
00964               0.20    18200.00
00965               0.40    17800.00
00966               0.40    17600.00
00967               0.20    17200.00
00968              -0.40    17200.00
00969               0.60    16800.00
00970               0.20    16400.00
00971              -0.40    16000.00
00972               0.60    15800.00
00973               0.60    15600.00
00974              -0.40    15200.00
00975               0.40    14800.00
00976               0.40    14600.00
00977              -0.60    14200.00
00978              -0.40    13800.00
00979               0.40    13600.00
00980              -0.60    13200.00
00981              -0.40    12800.00
00982               0.40    12400.00
00983              -0.40    12000.00
00984              -0.40    11800.00
00985               0.20    11200.00
00986              -0.60    11000.00
00987              -0.60    10600.00
00988               0.20    10200.00
00989              -0.40     9800.00
00990              -0.40     9400.00
00991              -0.20     9000.00
00992               0.20     8600.00
00993              -0.60     8400.00
00994              -0.40     8000.00
00995              -0.20     7600.00
00996              -0.60     7200.00
00997              -0.60     6800.00
00998              -0.60     6400.00
00999              -0.60     5800.00
01000              -0.40     5400.00
01001              -0.40     5000.00
01002              -0.40     4600.00
01003              -0.20     4200.00
01004              -0.60     3800.00
01005              -0.60     3200.00
01006              -0.20     2800.00
01007              -0.60     2400.00
01008              -0.60     2000.00
01009              -0.20     1600.00
01010              -0.60     1200.00
01011              -1.00      800.00
01012              -0.20      400.00
01013              -0.60     -200.00
01014              -0.20     -400.00
01015               2.00     -800.00
01016               2.20    -1200.00
01017              -2.80    -1600.00
01018              -0.60    -2000.00
01019               2.20    -2400.00
01020              -0.80    -2800.00
01021              -1.80    -3200.00
01022              10.20    -3400.00
01023              25.00    -4200.00
01024             -15.60    -5000.00
01025             -25.00    -5200.00
01026              16.40    -5800.00
01027              25.00    -6000.00
01028             -25.00    -6000.00
01029              -5.20    -6200.00
01030              25.00    -7200.00
01031             -25.00    -7200.00
01032             -25.00    -7600.00
01033              25.00    -8600.00
01034             -25.00    -8400.00
01035             -25.00    -9200.00
01036              25.00    -9600.00
01037             -10.60    -9600.00
01038             -25.00   -10200.00
01039              25.00   -10600.00
01040              21.00   -10800.00
01041              -4.20   -11600.00
01042             -25.00   -11600.00
01043              25.00   -12200.00
01044              22.80   -12400.00
01045             -25.00   -12800.00
01046              23.80   -13400.00
01047              22.40   -13200.00
01048             -23.00   -14000.00
01049             -14.80   -14400.00
01050              17.20   -14600.00
01051               6.20   -15000.00
01052             -25.00   -15200.00
01053              20.40   -15600.00
01054              10.00   -16000.00
01055             -23.40   -16200.00
01056               8.20   -16600.00
01057               3.20   -16800.00
01058              -8.60   -17000.00
01059              -1.00   -17400.00
01060               4.40   -17600.00
01061              -0.60   -18000.00
01062              -2.80   -18000.00
01063              -0.80   -18600.00
01064              -1.20   -18600.00
01065              -1.20   -19000.00
01066              -5.00   -19200.00
01067               2.40   -19400.00
01068               1.40   -19600.00
01069              -4.40   -19600.00
01070              -0.40   -20000.00
01071               2.60   -20200.00
01072              -6.00   -20400.00
01073              -3.00   -20800.00
01074               6.00   -20600.00
01075              -5.40   -20800.00
01076              -1.60   -21000.00
01077               4.40   -21200.00
01078              -5.40   -21600.00
01079              -3.60   -21600.00
01080               2.60   -21600.00
01081              -1.20   -21800.00
01082              -4.00   -22000.00
01083               2.40   -22000.00
01084               0.40   -22000.00
01085              -4.40   -22200.00
01086              -0.40   -22400.00
01087              -0.60   -22400.00
01088              -2.00   -22400.00
01089              -1.00   -22600.00
01090              -1.20   -22400.00
01091               0.20   -22600.00
01092              -1.40   -22600.00
01093              -2.60   -22600.00
01094               0.40   -22600.00
01095              -1.40   -22600.00
01096              -2.20   -22600.00
01097              -0.40   -22600.00
01098              -0.40   -22600.00
01099              -1.40   -22600.00
01100              -2.20   -22600.00
01101               0.00   -22400.00
01102              -1.20   -22400.00
01103              -2.00   -22400.00
01104              -0.60   -22400.00
01105              -0.60   -22400.00
01106              -1.40   -22400.00
01107              -2.00   -22000.00
01108              -1.20   -22000.00
01109               0.20   -22000.00
01110              -3.60   -21800.00
01111              -0.40   -21600.00
01112              -0.20   -21400.00
01113              -2.60   -21200.00
01114              -0.60   -21200.00
01115              -0.60   -21000.00
01116              -2.20   -20800.00
01117              -1.20   -20800.00
01118              -1.20   -20400.00
01119              -1.60   -20400.00
01120              -1.20   -20200.00
01121              -1.00   -20000.00
01122              -1.20   -19600.00
01123              -1.40   -19400.00
01124              -1.00   -19400.00
01125              -1.00   -19200.00
01126              -1.40   -18800.00
01127              -1.40   -18600.00
01128              -0.60   -18400.00
01129              -1.40   -18200.00
01130              -2.00   -17800.00
01131              -1.00   -17400.00
01132              -1.40   -17200.00
01133              -0.60   -17000.00
01134              -1.00   -16800.00
01135              -1.20   -16400.00
01136              -0.60   -16200.00
01137              -1.60   -15800.00
01138              -1.20   -15600.00
01139              -0.40   -15200.00
01140              -1.20   -15000.00
01141              -1.40   -14600.00
01142              -0.60   -14400.00
01143              -0.60   -13800.00
01144              -1.80   -13600.00
01145              -1.20   -13000.00
01146              -0.40   -12800.00
01147              -1.20   -12400.00
01148              -1.40   -12000.00
01149              -0.40   -11800.00
01150              -1.20   -11400.00
01151              -1.40   -11000.00
01152              -0.60   -10600.00
01153              -0.80   -10000.00
01154              -0.60    -9800.00
01155              -0.60    -9600.00
01156              -0.60    -9000.00
01157              -1.00    -8600.00
01158              -0.60    -8200.00
01159              -1.00    -7800.00
01160              -1.20    -7400.00
01161              -0.40    -7200.00
01162              -0.80    -6600.00
01163              -1.40    -6200.00
01164               0.20    -5800.00
01165              -0.60    -5400.00
01166              -1.80    -5000.00
01167               0.20    -4400.00
01168              -0.60    -4200.00
01169              -2.00    -3600.00
01170              -0.20    -3200.00
01171               0.20    -2800.00
01172              -2.00    -2600.00
01173              -0.60    -2000.00
01174               0.80    -1600.00
01175              -1.80    -1200.00
01176              -1.00     -800.00
01177               0.00     -400.00
01178              -1.20        0.00
01179               1.20      400.00
01180               2.80      800.00
01181              -1.20     1400.00
01182              -1.20     1800.00
01183               1.20     2000.00
01184               0.80     2400.00
01185               0.00     2800.00
01186              -1.00     3200.00
01187               5.00     3600.00
01188              17.80     4400.00
01189              17.20     4800.00
01190             -25.00     5200.00
01191             -25.00     5600.00
01192              25.00     6000.00
01193               5.20     6400.00
01194             -25.00     6400.00
01195               4.40     7000.00
01196              25.00     7600.00
01197             -25.00     7800.00
01198             -25.00     8400.00
01199              25.00     8600.00
01200               7.80     8800.00
01201             -25.00     9400.00
01202              25.00     9800.00
01203              25.00    10200.00
01204             -25.00    10800.00
01205              15.60    11000.00
01206              25.00    11200.00
01207             -23.40    11800.00
01208             -25.00    12000.00
01209              25.00    12400.00
01210              14.20    12800.00
01211             -25.00    13200.00
01212               7.60    13600.00
01213              24.40    13800.00
01214             -14.80    14200.00
01215             -15.60    14600.00
01216              15.40    14800.00
01217               7.00    15400.00
01218             -18.20    15600.00
01219               9.80    16000.00
01220              13.00    16000.00
01221             -16.40    16400.00
01222               0.80    16800.00
01223              10.60    16800.00
01224              -7.40    17200.00
01225              -3.20    17600.00
01226               9.00    18000.00
01227               0.00    18200.00
01228              -3.80    18400.00
01229               1.40    18800.00
01230               1.20    18800.00
01231              -1.20    19200.00
01232              -1.20    19200.00
01233               2.00    19600.00
01234               2.00    19600.00
01235              -0.60    20000.00
01236              -0.60    20400.00
01237               2.40    20600.00
01238              -2.80    20600.00
01239              -1.80    20800.00
01240               4.40    21000.00
01241              -1.80    21200.00
01242              -1.40    21200.00
01243               4.00    21400.00
01244              -1.20    21600.00
01245              -2.20    21600.00
01246               2.60    21600.00
01247               0.60    22000.00
01248              -1.40    22000.00
01249               1.80    22200.00
01250               0.60    22200.00
01251              -1.80    22400.00
01252               0.60    22400.00
01253               0.40    22400.00
01254              -0.40    22400.00
01255               0.40    22400.00
01256              -0.40    22600.00
01257               1.20    22600.00
01258               0.00    22600.00
01259              -1.40    22600.00
01260               1.20    22400.00
01261               0.40    22800.00
01262              -1.00    22600.00
01263               1.00    22600.00
01264               0.60    22400.00
01265              -0.60    22400.00
01266               1.00    22400.00
01267               0.40    22400.00
01268              -0.60    22400.00
01269               0.60    22400.00
01270               0.20    22200.00
01271               0.20    22200.00
01272               0.40    22000.00
01273              -0.60    22000.00
01274               0.20    22000.00
01275               1.00    21600.00
01276              -0.20    21600.00
01277              -0.60    21600.00
01278               1.00    21400.00
01279               0.60    21200.00
01280              -1.00    21200.00
01281               0.40    20800.00
01282               1.40    20800.00
01283              -1.40    20600.00
01284               0.40    20400.00
01285               2.00    20200.00
01286              -0.60    20000.00
01287              -0.20    19800.00
01288               1.80    19600.00
01289              -0.60    19400.00
01290              -0.80    19200.00
01291               1.20    18800.00
01292               0.20    18600.00
01293              -0.60    18400.00
01294               1.00    18000.00
01295               0.40    17600.00
01296              -0.60    17400.00
01297               1.00    17200.00
01298               0.40    17000.00
01299              -0.20    16600.00
01300               0.80    16400.00
01301              -0.40    16000.00
01302              -0.60    15800.00
01303               0.40    15600.00
01304              -0.20    15200.00
01305              -0.60    14800.00
01306               0.60    14400.00
01307              -0.20    14200.00
01308              -0.80    13800.00
01309               0.20    13600.00
01310              -0.20    13200.00
01311              -0.60    12800.00
01312               0.40    12400.00
01313              -0.20    12000.00
01314              -0.40    11600.00
01315              -0.20    11200.00
01316              -0.20    10800.00
01317              -0.20    10600.00
01318              -0.40    10000.00
01319              -0.60     9800.00
01320              -0.20     9200.00
01321              -0.60     9200.00
01322              -0.60     8600.00
01323              -0.20     8400.00
01324              -0.20     7800.00
01325              -0.40     7400.00
01326              -0.20     7000.00
01327              -0.60     6600.00
01328              -0.60     6200.00
01329              -0.20     5800.00
01330              -0.40     5400.00
01331              -0.60     4800.00
01332              -0.60     4600.00
01333              -0.20     4000.00
01334              -0.60     3600.00
01335              -0.60     3200.00
01336              -0.20     2800.00
01337              -0.40     2400.00
01338              -0.40     2000.00
01339               0.20     1600.00
01340              -0.60     1000.00
01341              -1.00      600.00
01342              -0.20      200.00
01343               0.20     -200.00
01344              -0.40     -400.00
01345               2.80     -800.00
01346               1.40    -1600.00
01347              -3.40    -1600.00
01348              -0.20    -2000.00
01349               2.60    -2600.00
01350              -2.20    -2800.00
01351              -1.00    -3200.00
01352              14.20    -3600.00
01353              25.00    -4400.00
01354             -25.00    -5000.00
01355             -25.00    -5600.00
01356              25.00    -5800.00
01357              18.60    -6000.00
01358             -25.00    -6000.00
01359              25.00    -6400.00
01360              25.00    -7400.00
01361             -25.00    -7000.00
01362             -13.80    -8000.00
01363              25.00    -8800.00
01364             -25.00    -8400.00
01365             -25.00    -9200.00
01366              25.00    -9600.00
01367             -25.00    -9800.00
01368             -25.00   -10200.00
01369              25.00   -10600.00
01370              17.80   -11200.00
01371             -14.00   -11600.00
01372             -25.00   -11600.00
01373              25.00   -12400.00
01374               3.60   -12400.00
01375             -25.00   -13000.00
01376              25.00   -13400.00
01377              12.20   -13600.00
01378             -24.40   -14200.00
01379             -10.20   -14400.00
01380              21.40   -14800.00
01381              -3.60   -15200.00
01382             -25.00   -15200.00
01383              25.00   -15600.00
01384               0.20   -16000.00
01385             -20.40   -16400.00
01386              10.60   -16800.00
01387              -0.20   -16800.00
01388              -7.80   -17200.00
01389               0.20   -17200.00
01390               5.00   -17600.00
01391              -2.20   -17800.00
01392              -3.00   -18400.00
01393              -0.60   -18600.00
01394              -1.00   -18800.00
01395              -2.80   -19000.00
01396              -3.40   -19400.00
01397               3.60   -19400.00
01398              -1.20   -19600.00
01399              -3.40   -19800.00
01400               1.00   -20200.00
01401               0.60   -20400.00
01402              -7.00   -20400.00
01403               0.40   -20800.00
01404               3.80   -20800.00
01405              -7.20   -21000.00
01406               2.80   -21200.00
01407               2.60   -21400.00
01408              -7.00   -21600.00
01409              -0.60   -21600.00
01410               2.20   -21800.00
01411              -3.80   -21800.00
01412              -2.60   -22000.00
01413               2.60   -22000.00
01414              -1.60   -22200.00
01415              -3.00   -22400.00
01416              -0.20   -22400.00
01417              -1.20   -22400.00
01418              -1.00   -22600.00
01419              -1.80   -22400.00
01420              -0.60   -22400.00
01421               0.40   -22600.00
01422              -3.00   -22600.00
01423              -1.80   -22600.00
01424               0.80   -22600.00
01425              -3.00   -22600.00
01426              -1.20   -22600.00
01427               0.40   -22800.00
01428              -1.60   -22600.00
01429              -1.40   -22600.00
01430              -1.00   -22400.00
01431              -1.20   -22400.00
01432              -1.20   -22600.00
01433              -0.60   -22400.00
01434              -1.60   -22400.00
01435              -1.00   -22200.00
01436              -0.40   -22000.00
01437              -2.80   -22000.00
01438              -0.60   -22000.00
01439              -0.60   -21800.00
01440              -2.80   -21800.00
01441              -0.60   -21600.00
01442              -1.20   -21600.00
01443              -2.60   -21200.00
01444              -1.20   -21200.00
01445              -0.60   -21000.00
01446              -1.80   -20800.00
01447              -1.20   -20600.00
01448              -0.40   -20400.00
01449              -2.00   -20400.00
01450              -1.40   -20200.00
01451              -0.60   -20000.00
01452              -2.20   -19800.00
01453              -1.80   -19600.00
01454              -0.60   -19400.00
01455              -1.20   -19200.00
01456              -1.20   -18800.00
01457              -0.60   -18600.00
01458              -1.20   -18400.00
01459              -1.60   -18200.00
01460              -1.40   -17800.00
01461              -1.40   -17400.00
01462              -1.40   -17200.00
01463              -0.60   -16800.00
01464              -0.60   -16800.00
01465              -1.40   -16400.00
01466              -1.00   -16200.00
01467              -1.20   -15800.00
01468              -1.20   -15400.00
01469              -1.20   -15000.00
01470              -0.60   -14800.00
01471              -0.80   -14600.00
01472              -1.80   -14200.00
01473              -0.20   -13800.00
01474              -1.00   -13600.00
01475              -2.60   -13200.00
01476               0.00   -12800.00
01477              -0.80   -12400.00
01478              -2.00   -12000.00
01479              -0.20   -11400.00
01480              -0.20   -11400.00
01481              -2.00   -10800.00
01482              -0.60   -10400.00
01483               0.20   -10000.00
01484              -1.40    -9600.00
01485              -1.20    -9400.00
01486               0.20    -9000.00
01487              -1.00    -8600.00
01488              -1.00    -8200.00
01489              -0.40    -7800.00
01490              -1.40    -7400.00
01491              -1.20    -7000.00
01492              -0.80    -6600.00
01493              -0.60    -6200.00
01494              -0.60    -5800.00
01495              -1.00    -5200.00
01496              -0.60    -4800.00
01497              -0.20    -4400.00
01498              -0.80    -4200.00
01499              -1.40    -3600.00
01500              -0.60    -3200.00
01501              -0.60    -2800.00
01502              -1.40    -2400.00
01503              -0.60    -2000.00
01504              -0.40    -1600.00
01505              -1.20    -1000.00
01506              -1.20     -600.00
01507               0.20     -200.00
01508              -0.40        0.00
01509               0.20      600.00
01510               3.40      800.00
01511              -0.80     1200.00
01512              -2.80     1800.00
01513               1.80     2200.00
01514               1.80     2400.00
01515              -2.20     2800.00
01516               0.40     3200.00
01517               7.40     3600.00
01518              19.60     4400.00
01519              10.00     4800.00
01520             -25.00     5400.00
01521             -18.20     5600.00
01522              25.00     6000.00
01523              -6.60     6400.00
01524             -25.00     6400.00
01525              23.60     7200.00
01526              25.00     7800.00
01527             -25.00     7800.00
01528             -25.00     8600.00
01529              25.00     8600.00
01530             -25.00     9000.00
01531             -25.00     9600.00
01532              25.00     9800.00
01533               6.20    10400.00
01534             -25.00    10800.00
01535              25.00    10800.00
01536              25.00    11400.00
01537             -25.00    11800.00
01538             -20.80    12000.00
01539              25.00    12400.00
01540               4.20    12800.00
01541             -25.00    13200.00
01542              15.60    13600.00
01543              19.60    14000.00
01544             -19.80    14400.00
01545             -11.40    14600.00
01546              19.60    15000.00
01547               0.20    15200.00
01548             -17.40    15600.00
01549              15.80    16000.00
01550               7.40    16400.00
01551             -17.80    16400.00
01552               6.00    16600.00
01553               7.60    17200.00
01554              -9.80    17400.00
01555               0.40    17600.00
01556               8.40    18000.00
01557              -2.20    18400.00
01558              -2.60    18400.00
01559               2.20    18800.00
01560               0.20    18800.00
01561              -1.20    19200.00
01562              -0.40    19400.00
01563               2.00    19600.00
01564               1.80    19800.00
01565              -1.20    20000.00
01566              -0.40    20200.00
01567               2.20    20400.00
01568              -3.00    20600.00
01569              -0.40    21000.00
01570               4.20    21000.00
01571              -2.60    21200.00
01572               0.00    21400.00
01573               3.40    21400.00
01574              -2.20    21600.00
01575              -1.40    21600.00
01576               2.20    21800.00
01577              -0.20    22000.00
01578              -0.60    22000.00
01579               2.00    22200.00
01580              -0.40    22200.00
01581              -1.20    22200.00
01582               0.40    22400.00
01583               0.00    22400.00
01584               0.00    22400.00
01585               0.40    22400.00
01586              -0.40    22600.00
01587               1.40    22400.00
01588              -0.20    22800.00
01589              -1.20    22400.00
01590               1.80    22600.00
01591               0.20    22600.00
01592              -1.00    22600.00
01593               1.00    22600.00
01594               0.60    22400.00
01595              -1.00    22400.00
01596               0.80    22400.00
01597               0.60    22400.00
01598              -0.80    22400.00
01599               0.40    22400.00
01600               1.00    22200.00
01601              -0.40    22200.00
01602               0.40    22000.00
01603               0.20    22000.00
01604               0.20    22000.00
01605               0.80    21600.00
01606              -0.20    21600.00
01607               0.20    21600.00
01608               1.00    21400.00
01609               0.20    21200.00
01610               0.20    21000.00
01611               0.40    21000.00
01612              -0.60    20600.00
01613              -0.20    20400.00
01614               1.20    20400.00
01615              -0.40    20000.00
01616               0.00    19800.00
01617               1.20    19600.00
01618               0.20    19600.00
01619              -0.20    19200.00
01620               0.40    19000.00
01621               0.20    18800.00
01622              -0.20    18600.00
01623               0.40    18200.00
01624               0.20    18000.00
01625              -0.20    17600.00
01626              -0.20    17400.00
01627               0.20    17200.00
01628               0.20    16800.00
01629               0.40    16600.00
01630              -0.20    16200.00
01631               0.00    16200.00
01632               0.20    15800.00
01633              -0.60    15400.00
01634              -0.40    15000.00
01635               0.40    14800.00
01636              -0.20    14400.00
01637              -0.40    14200.00
01638               0.20    13800.00
01639               0.20    13400.00
01640              -0.60    13000.00
01641              -0.20    12800.00
01642               0.20    12400.00
01643              -0.40    12000.00
01644              -0.60    11600.00
01645               0.20    11200.00
01646              -0.40    10800.00
01647               0.20    10400.00
01648              -0.20    10000.00
01649              -0.20     9800.00
01650              -0.20     9400.00
01651              -0.40     9000.00
01652              -0.60     8400.00
01653              -0.40     8000.00
01654              -0.60     7800.00
01655              -0.60     7400.00
01656              -0.40     7000.00
01657               0.40     6400.00
01658              -1.40     6200.00
01659              -0.20     5800.00
01660               1.00     5400.00
01661              -1.80     4800.00
01662               0.40     4400.00
01663              -0.60     4000.00
01664              -2.00     3400.00
01665               1.20     3200.00
01666              -0.60     2800.00
01667              -1.20     2200.00
01668               1.20     2000.00
01669              -0.60     1400.00
01670              -1.20     1000.00
01671               0.40      600.00
01672              -0.60        0.00
01673              -0.60     -200.00
01674               0.60     -600.00
01675               2.80    -1000.00
01676              -0.40    -1600.00
01677              -2.40    -1800.00
01678               0.60    -2200.00
01679               1.20    -2600.00
01680              -2.20    -2800.00
01681               1.20    -3400.00
01682              17.40    -3600.00
01683              25.00    -4600.00
01684             -25.00    -5000.00
01685             -25.00    -5600.00
01686              25.00    -5800.00
01687               4.60    -6200.00
01688             -25.00    -6200.00
01689              25.00    -6400.00
01690              25.00    -7600.00
01691             -25.00    -7000.00
01692              25.00    -8200.00
01693              25.00    -8800.00
01694             -25.00    -8800.00
01695              -5.40    -9600.00
01696              25.00    -9400.00
01697             -25.00    -9800.00
01698             -12.20   -10400.00
01699              25.00   -10600.00
01700              15.40   -11200.00
01701             -25.00   -11600.00
01702             -25.00   -12000.00
01703              25.00   -12400.00
01704             -17.40   -12200.00
01705             -25.00   -13200.00
01706              25.00   -13200.00
01707               0.80   -13600.00
01708             -23.80   -14200.00
01709              -4.20   -14400.00
01710              22.60   -14800.00
01711             -12.40   -15200.00
01712             -17.20   -15400.00
01713              25.00   -15600.00
01714              -9.20   -16000.00
01715             -14.20   -16400.00
01716              11.00   -16600.00
01717              -3.00   -16800.00
01718              -7.00   -17000.00
01719               1.20   -17400.00
01720               4.80   -17800.00
01721              -3.40   -18000.00
01722              -2.20   -18400.00
01723              -0.60   -18600.00
01724              -0.60   -18800.00
01725              -3.00   -19200.00
01726              -3.00   -19200.00
01727               4.20   -19600.00
01728              -1.80   -19600.00
01729              -3.80   -20000.00
01730               2.60   -20000.00
01731              -0.60   -20400.00
01732              -8.40   -20600.00
01733               2.80   -20800.00
01734               2.20   -20800.00
01735              -7.40   -20800.00
01736               3.80   -21200.00
01737               0.40   -21400.00
01738              -5.20   -21600.00
01739               0.20   -21600.00
01740               0.40   -21800.00
01741              -2.20   -22000.00
01742              -1.20   -22000.00
01743               0.20   -22200.00
01744              -1.60   -22000.00
01745              -2.00   -22400.00
01746              -2.20   -22400.00
01747              -0.60   -22400.00
01748               0.20   -22400.00
01749              -3.00   -22600.00
01750              -0.60   -22600.00
01751               1.80   -22600.00
01752              -3.80   -22600.00
01753              -1.40   -22600.00
01754               1.40   -22600.00
01755              -3.80   -22600.00
01756              -1.20   -22600.00
01757               1.40   -22600.00
01758              -2.00   -22600.00
01759              -2.60   -22400.00
01760              -0.60   -22600.00
01761              -1.20   -22600.00
01762              -2.20   -22600.00
01763               0.20   -22400.00
01764              -1.40   -22400.00
01765              -1.80   -22400.00
01766              -0.40   -22200.00
01767              -2.60   -22000.00
01768              -2.00   -22000.00
01769              -0.60   -21800.00
01770              -1.20   -21600.00
01771              -0.80   -21600.00
01772              -1.00   -21400.00
01773              -2.20   -21400.00
01774              -1.20   -21200.00
01775              -1.00   -21200.00
01776              -2.20   -21000.00
01777              -1.40   -20800.00
01778              -0.20   -20400.00
01779              -2.20   -20200.00
01780              -1.00   -20000.00
01781              -0.40   -20000.00
01782              -2.60   -19600.00
01783              -1.20   -19600.00
01784              -0.60   -19400.00
01785              -2.00   -19200.00
01786              -1.20   -18800.00
01787              -0.40   -18600.00
01788              -1.00   -18200.00
01789              -2.00   -18000.00
01790              -0.80   -17800.00
01791              -1.20   -17400.00
01792              -1.40   -17200.00
01793              -1.00   -16800.00
01794              -1.40   -16600.00
01795              -1.40   -16400.00
01796              -1.00   -16000.00
01797              -1.40   -15600.00
01798              -1.20   -15600.00
01799              -0.40   -15200.00
01800              -1.20   -14800.00
01801              -1.40   -14600.00
01802              -0.60   -14000.00
01803              -1.00   -13800.00
01804              -1.80   -13200.00
01805              -0.60   -13000.00
01806              -0.80   -12800.00
01807              -1.80   -12400.00
01808              -0.20   -12000.00
01809              -0.80   -11600.00
01810              -1.80   -11200.00
01811              -0.60   -10800.00
01812              -0.60   -10600.00
01813              -1.00   -10000.00
01814              -1.00    -9600.00
01815              -1.20    -9200.00
01816              -0.60    -8800.00
01817              -1.20    -8400.00
01818              -0.60    -8200.00
01819              -0.60    -7800.00
01820              -0.60    -7400.00
01821              -0.60    -6800.00
01822              -1.00    -6600.00
01823              -0.80    -6000.00
01824              -0.60    -5600.00
01825              -1.40    -5200.00
01826              -0.60    -4600.00
01827              -1.20    -4400.00
01828              -0.60    -4000.00
01829              -1.00    -3600.00
01830              -0.60    -3200.00
01831              -0.40    -2600.00
01832              -0.20    -2400.00
01833              -0.60    -1800.00
01834              -1.20    -1400.00
01835              -0.40    -1000.00
01836              -1.20     -600.00
01837              -0.60     -200.00
01838               0.20      400.00
01839               1.00      600.00
01840               2.80     1000.00
01841              -1.80     1400.00
01842              -0.40     2000.00
01843               1.20     2000.00
01844              -0.60     2600.00
01845               0.40     2800.00
01846               1.40     3400.00
01847               5.40     3800.00
01848              23.80     4400.00
01849               2.00     5000.00
01850             -25.00     5400.00
01851              -4.20     5800.00
01852              25.00     6000.00
01853             -21.80     6400.00
01854             -25.00     6600.00
01855              25.00     7200.00
01856              25.00     7800.00
01857             -25.00     8000.00
01858              -3.60     8600.00
01859              25.00     8600.00
01860             -25.00     9000.00
01861             -25.00     9600.00
01862              25.00    10000.00
01863             -21.20    10400.00
01864             -25.00    10800.00
01865              25.00    11000.00
01866              15.40    11200.00
01867             -25.00    11800.00
01868              -7.60    12000.00
01869              25.00    12800.00
01870              -6.80    13000.00
01871             -23.00    13400.00
01872              18.80    13600.00
01873              12.40    14000.00
01874             -19.80    14200.00
01875              -7.60    14800.00
01876              20.60    15200.00
01877              -4.20    15400.00
01878             -15.00    15600.00
01879              19.40    16000.00
01880               2.60    16200.00
01881             -17.80    16600.00
01882              10.00    16800.00
01883               6.00    17200.00
01884             -13.00    17400.00
01885               4.60    17600.00
01886               9.40    18000.00
01887              -7.00    18200.00
01888              -1.40    18400.00
01889               5.40    18800.00
01890              -3.80    19000.00
01891              -2.00    19200.00
01892               3.60    19400.00
01893              -0.60    19600.00
01894              -0.20    19800.00
01895               2.00    20000.00
01896              -1.00    20400.00
01897              -0.40    20400.00
01898              -1.00    20800.00
01899               0.60    20800.00
01900               2.20    21000.00
01901              -2.00    21200.00
01902               1.20    21200.00
01903               2.00    21400.00
01904              -2.40    21600.00
01905              -1.20    21600.00
01906               2.00    22000.00
01907               0.20    22000.00
01908              -1.00    22000.00
01909               2.60    22000.00
01910               0.20    22200.00
01911              -2.00    22200.00
01912               1.00    22200.00
01913               1.00    22400.00
01914              -1.40    22400.00
01915               0.40    22400.00
01916               1.60    22400.00
01917               0.20    22400.00
01918              -1.00    22800.00
01919               1.00    22600.00
01920               1.00    22400.00
01921              -0.80    22600.00
01922               1.00    22600.00
01923               0.40    22600.00
01924              -0.40    22400.00
01925               0.60    22400.00
01926               0.60    22400.00
01927              -0.20    22400.00
01928               0.20    22400.00
01929               1.00    22400.00
01930               0.40    22200.00
01931               0.20    22200.00
01932               0.40    22000.00
01933              -0.20    21800.00
01934               0.40    21800.00
01935               0.20    21600.00
01936              -0.40    21600.00
01937               0.80    21200.00
01938               0.40    21400.00
01939               0.20    21000.00
01940               1.20    21000.00
01941               0.40    20800.00
01942              -0.60    20600.00
01943               0.60    20400.00
01944               1.00    20200.00
01945              -0.60    20000.00
01946               0.40    19800.00
01947               0.60    19600.00
01948              -0.40    19400.00
01949               0.40    19200.00
01950               0.20    19000.00
01951               0.00    18800.00
01952               0.40    18400.00
01953               0.40    18400.00
01954              -0.20    17800.00
01955               0.20    17600.00
01956              -0.20    17400.00
01957               0.00    17200.00
01958               0.20    16800.00
01959              -0.20    16600.00
01960              -0.20    16000.00
01961               0.20    16000.00
01962               0.40    15600.00
01963              -0.20    15400.00
01964              -0.20    15000.00
01965              -0.40    14800.00
01966              -0.20    14400.00
01967               0.20    14200.00
01968              -0.40    13600.00
01969              -0.20    13200.00
01970              -0.40    13000.00
01971               0.20    12600.00
01972              -0.40    12400.00
01973              -0.20    12000.00
01974               0.20    11400.00
01975              -0.40    11000.00
01976              -0.60    10800.00
01977              -0.20    10400.00
01978              -0.40    10000.00
01979              -0.40     9600.00
01980              -0.20     9200.00
01981              -0.40     8800.00
01982              -0.20     8400.00
01983              -0.20     8000.00
01984              -0.60     7600.00
01985              -0.40     7200.00
01986              -0.20     6800.00
01987              -0.40     6400.00
01988              -0.40     6000.00
01989               0.20     5600.00
01990               0.20     5200.00
01991              -0.60     4600.00
01992              -0.60     4400.00
01993              -0.20     4000.00
01994              -0.40     3400.00
01995              -0.40     3200.00
01996              -0.20     2600.00
01997              -0.60     2000.00
01998              -0.60     2000.00
01999               0.00     1400.00
02000              -0.20     1000.00
02001              -1.00      600.00
02002               0.00        0.00
02003               0.20     -400.00
02004              -0.20     -800.00
02005               3.40    -1000.00
02006              -0.60    -1600.00
02007              -2.80    -1800.00
02008               1.80    -2200.00
02009               1.20    -2600.00
02010              -3.20    -3000.00
02011               3.40    -3200.00
02012              22.60    -4000.00
02013              21.80    -4600.00
02014             -25.00    -5200.00
02015             -22.60    -5600.00
02016              25.00    -5800.00
02017             -11.60    -6200.00
02018             -25.00    -6000.00
02019              25.00    -6600.00
02020              25.00    -7600.00
02021             -25.00    -7200.00
02022              25.00    -8400.00
02023              25.00    -8400.00
02024             -25.00    -8800.00
02025              25.00    -9600.00
02026              25.00    -9400.00
02027             -25.00    -9800.00
02028               2.80   -10600.00
02029              25.00   -10600.00
02030              12.40   -11200.00
02031             -25.00   -11600.00
02032             -12.60   -12000.00
02033              25.00   -12400.00
02034             -25.00   -12400.00
02035             -15.60   -13200.00
02036              25.00   -13200.00
02037              -8.40   -13800.00
02038             -22.80   -14400.00
02039               2.00   -14400.00
02040              21.80   -14800.00
02041             -21.40   -15200.00
02042              -6.80   -15400.00
02043              25.00   -16000.00
02044             -17.60   -16000.00
02045              -6.80   -16200.00
02046              10.20   -16800.00
02047              -6.80   -16800.00
02048              -4.20   -17200.00
02049               2.80   -17400.00
02050               2.60   -17800.00
02051              -2.20   -18000.00
02052              -1.40   -18200.00
02053              -2.00   -18800.00
02054               0.40   -18800.00
02055              -4.20   -19200.00
02056              -2.60   -19200.00
02057               4.40   -19400.00
02058              -2.20   -19800.00
02059              -3.60   -20000.00
02060               2.80   -20000.00
02061              -1.00   -20200.00
02062              -7.60   -20400.00
02063               4.20   -20800.00
02064               0.20   -20800.00
02065              -6.20   -21000.00
02066               4.60   -21000.00
02067              -1.20   -21400.00
02068              -5.20   -21600.00
02069               0.80   -21600.00
02070               0.20   -21800.00
02071              -3.00   -22000.00
02072              -0.20   -22000.00
02073               0.60   -22200.00
02074              -2.60   -22000.00
02075              -1.60   -22400.00
02076              -1.40   -22400.00
02077              -1.20   -22400.00
02078              -0.60   -22600.00
02079              -2.00   -22600.00
02080               0.20   -22600.00
02081              -0.20   -22600.00
02082              -3.40   -22800.00
02083              -0.20   -22600.00
02084              -0.20   -22600.00
02085              -3.60   -22600.00
02086              -0.40   -22600.00
02087               0.00   -22600.00
02088              -2.00   -22600.00
02089              -1.60   -22600.00
02090              -0.80   -22400.00
02091              -1.40   -22600.00
02092              -1.40   -22400.00
02093              -1.20   -22400.00
02094              -1.60   -22400.00
02095              -0.40   -22000.00
02096              -1.80   -22000.00
02097              -2.20   -22200.00
02098               0.20   -22000.00
02099              -2.00   -21800.00
02100              -2.20   -21800.00
02101               0.20   -21600.00
02102              -1.80   -21600.00
02103              -2.00   -21200.00
02104              -0.60   -21200.00
02105              -1.60   -21000.00
02106              -1.80   -20800.00
02107              -1.20   -20400.00
02108              -1.40   -20400.00
02109              -1.20   -20200.00
02110              -0.60   -20000.00
02111              -1.40   -20000.00
02112              -1.40   -19600.00
02113              -0.40   -19400.00
02114              -1.80   -19200.00
02115              -1.40   -19000.00
02116              -0.40   -18800.00
02117              -2.00   -18400.00
02118              -1.40   -18400.00
02119              -0.60   -18000.00
02120              -1.80   -17600.00
02121              -1.80   -17400.00
02122              -0.40   -17000.00
02123              -0.80   -16800.00
02124              -2.00   -16600.00
02125              -0.20   -16200.00
02126              -0.80   -16000.00
02127              -2.20   -15600.00
02128              -0.40   -15400.00
02129              -0.60   -15200.00
02130              -1.80   -14600.00
02131              -1.00   -14400.00
02132              -0.40   -14000.00
02133              -1.40   -13800.00
02134              -1.60   -13200.00
02135              -0.60   -13000.00
02136              -0.60   -12600.00
02137              -1.80   -12200.00
02138              -0.80   -12000.00
02139              -0.40   -11400.00
02140              -1.20   -11000.00
02141              -1.00   -10800.00
02142              -0.20   -10400.00
02143              -0.80   -10000.00
02144              -1.40    -9600.00
02145              -0.60    -9200.00
02146              -0.40    -8800.00
02147              -2.20    -8400.00
02148              -0.60    -8000.00
02149              -0.40    -7600.00
02150              -1.40    -7200.00
02151              -1.20    -6800.00
02152              -0.60    -6600.00
02153              -0.40    -6000.00
02154              -1.00    -5600.00
02155              -1.20    -5200.00
02156              -0.60    -4600.00
02157              -1.20    -4200.00
02158              -1.40    -4000.00
02159              -0.60    -3400.00
02160              -0.20    -3200.00
02161              -1.00    -2600.00
02162              -0.60    -2200.00
02163              -0.60    -1800.00
02164              -1.20    -1400.00
02165              -1.00    -1000.00
02166              -0.60     -400.00
02167              -0.60     -200.00
02168              -0.40      400.00
02169               1.40      600.00
02170               2.80     1200.00
02171              -2.20     1400.00
02172              -1.00     1800.00
02173               2.20     2200.00
02174               0.40     2600.00
02175              -2.20     3000.00
02176               2.80     3200.00
02177              10.20     4000.00
02178              23.80     4600.00
02179             -10.00     5200.00
02180             -25.00     5600.00
02181               5.80     5600.00
02182              25.00     6200.00
02183             -25.00     6600.00
02184             -25.00     6800.00
02185              25.00     7400.00
02186              25.00     7800.00
02187             -25.00     8000.00
02188              25.00     8400.00
02189              25.00     8800.00
02190             -25.00     9200.00
02191              -3.60     9800.00
02192              25.00     9800.00
02193             -25.00    10400.00
02194             -23.00    10800.00
02195              25.00    11200.00
02196               2.00    11600.00
02197             -25.00    11800.00
02198               3.00    12200.00
02199              25.00    12800.00
02200             -15.40    13200.00
02201             -14.20    13400.00
02202              21.20    13600.00
02203               5.40    14000.00
02204             -19.80    14400.00
02205              -3.00    14800.00
02206              20.40    15200.00
02207             -10.00    15600.00
02208             -10.20    15800.00
02209              21.20    16000.00
02210              -3.80    16200.00
02211             -15.00    16600.00
02212              13.00    16800.00
02213               2.20    17200.00
02214             -12.40    17400.00
02215               7.60    17600.00
02216               7.40    18000.00
02217              -9.20    18400.00
02218               0.60    18400.00
02219               6.80    18800.00
02220              -5.20    19000.00
02221              -1.20    19200.00
02222               4.60    19600.00
02223              -1.40    19800.00
02224              -0.20    19800.00
02225               1.80    20000.00
02226              -0.60    20400.00
02227              -0.60    20600.00
02228              -1.40    20600.00
02229               1.80    20800.00
02230               1.80    21000.00
02231              -2.60    21200.00
02232               1.80    21200.00
02233               2.60    21600.00
02234              -3.00    21400.00
02235              -1.00    21600.00
02236               3.20    21800.00
02237              -0.40    21800.00
02238              -1.80    22000.00
02239               2.80    22200.00
02240              -0.60    22200.00
02241              -2.20    22200.00
02242               1.20    22400.00
02243               0.80    22400.00
02244              -0.60    22400.00
02245               0.60    22400.00
02246               1.60    22600.00
02247               0.20    22400.00
02248              -1.20    22400.00
02249               0.00    22600.00
02250               0.40    22600.00
02251              -0.20    22400.00
02252               1.00    22600.00
02253               1.00    22600.00
02254               0.20    22400.00
02255               0.20    22400.00
02256              -0.20    22400.00
02257              -0.40    22400.00
02258               0.40    22400.00
02259               1.00    22200.00
02260               0.20    22200.00
02261               0.40    22000.00
02262               0.60    22000.00
02263              -0.40    22000.00
02264               0.20    21800.00
02265               0.40    21600.00
02266               0.40    21400.00
02267               0.60    21400.00
02268               0.00    21400.00
02269               0.20    21200.00
02270               0.60    20800.00
02271              -0.40    20800.00
02272              -0.40    20600.00
02273               1.80    20400.00
02274               0.20    20400.00
02275              -0.60    20000.00
02276               1.20    19800.00
02277              -0.40    19600.00
02278              -0.40    19400.00
02279               0.40    19200.00
02280              -0.60    19000.00
02281               0.40    18800.00
02282               0.80    18400.00
02283              -0.20    18200.00
02284               0.20    18000.00
02285              -0.20    17600.00
02286              -0.80    17400.00
02287               0.40    16800.00
02288               0.20    16800.00
02289              -0.40    16400.00
02290               0.20    16200.00
02291               0.00    16000.00
02292              -0.40    15600.00
02293              -0.20    15200.00
02294               0.00    15000.00
02295              -0.20    14800.00
02296               0.20    14200.00
02297               0.00    14000.00
02298              -0.60    13600.00
02299              -0.20    13200.00
02300              -0.40    13000.00
02301              -0.60    12400.00
02302               0.20    12400.00
02303              -0.40    11800.00
02304              -1.00    11600.00
02305               0.40    11000.00
02306              -0.60    10800.00
02307              -1.00    10400.00
02308               0.40    10000.00
02309               0.00     9600.00
02310              -0.80     9200.00
02311              -0.20     8800.00
02312               0.60     8400.00
02313              -0.20     8000.00
02314              -0.60     7600.00
02315               0.20     7200.00
02316              -0.20     6800.00
02317              -1.00     6200.00
02318              -0.60     6000.00
02319              -0.20     5600.00
02320              -0.40     5000.00
02321              -0.60     4600.00
02322              -0.20     4200.00
02323               0.00     3800.00
02324              -0.40     3400.00
02325              -0.60     2800.00
02326               0.20     2600.00
02327              -0.40     2200.00
02328              -1.00     1800.00
02329               0.20     1400.00
02330              -0.40      800.00
02331              -0.60      400.00
02332              -0.20        0.00
02333               0.20     -400.00
02334               0.40     -600.00
02335               3.40    -1200.00
02336              -2.00    -1600.00
02337              -2.20    -2000.00
02338               2.00    -2400.00
02339               0.40    -2600.00
02340              -2.60    -3000.00
02341               6.00    -3400.00
02342              25.00    -4000.00
02343               9.40    -4800.00
02344             -25.00    -5200.00
02345              -8.20    -5600.00
02346              25.00    -6000.00
02347             -25.00    -6200.00
02348             -25.00    -6000.00
02349              25.00    -7000.00
02350              10.00    -7400.00
02351             -25.00    -7200.00
02352              25.00    -8400.00
02353              25.00    -8600.00
02354             -25.00    -8800.00
02355              25.00    -9600.00
02356              25.00    -9400.00
02357             -25.00   -10000.00
02358              14.40   -10400.00
02359              24.60   -10800.00
02360               8.40   -11400.00
02361             -25.00   -11600.00
02362               3.60   -12000.00
02363              25.00   -12400.00
02364             -25.00   -12600.00
02365               0.20   -13200.00
02366              25.00   -13400.00
02367             -15.00   -13800.00
02368             -21.00   -14400.00
02369               7.80   -14400.00
02370              18.60   -14800.00
02371             -25.00   -15200.00
02372               3.40   -15400.00
02373              23.60   -15800.00
02374             -22.20   -16000.00
02375              -0.60   -16400.00
02376              10.00   -16600.00
02377              -7.40   -17000.00
02378              -5.20   -17200.00
02379               4.00   -17600.00
02380               2.20   -17800.00
02381              -4.40   -18000.00
02382              -0.60   -18400.00
02383              -0.20   -18600.00
02384              -0.60   -18800.00
02385              -4.60   -19200.00
02386               0.20   -19400.00
02387               3.40   -19600.00
02388              -2.80   -19600.00
02389              -2.60   -20000.00
02390               2.60   -20200.00
02391              -2.20   -20400.00
02392              -6.80   -20600.00
02393               5.20   -20600.00
02394              -1.00   -20800.00
02395              -4.60   -21000.00
02396               4.20   -21200.00
02397              -2.80   -21400.00
02398              -4.20   -21600.00
02399               0.60   -21600.00
02400              -0.60   -21800.00
02401              -3.40   -22000.00
02402               0.40   -22000.00
02403               1.00   -22000.00
02404              -2.80   -22200.00
02405              -1.20   -22400.00
02406              -0.80   -22400.00
02407              -1.20   -22400.00
02408              -1.20   -22400.00
02409              -2.20   -22600.00
02410               0.20   -22600.00
02411              -1.00   -22600.00
02412              -3.80   -22400.00
02413               0.40   -22600.00
02414              -0.60   -22600.00
02415              -3.00   -22600.00
02416               0.20   -22600.00
02417              -1.00   -22800.00
02418              -2.20   -22600.00
02419              -1.40   -22600.00
02420              -0.80   -22600.00
02421              -1.20   -22600.00
02422              -1.40   -22400.00
02423              -1.20   -22400.00
02424              -1.40   -22400.00
02425              -0.60   -22200.00
02426              -2.20   -22200.00
02427              -2.00   -22000.00
02428               0.20   -22000.00
02429              -2.40   -21800.00
02430              -1.80   -21600.00
02431               0.60   -21600.00
02432              -2.20   -21600.00
02433              -2.60   -21400.00
02434               0.60   -21000.00
02435              -1.00   -21200.00
02436              -3.40   -20800.00
02437               0.40   -20400.00
02438              -0.40   -20400.00
02439              -3.80   -20200.00
02440               0.40   -20000.00
02441              -0.20   -20000.00
02442              -3.80   -19600.00
02443              -0.40   -19400.00
02444              -0.40   -19200.00
02445              -2.60   -19000.00
02446              -0.60   -18800.00
02447              -0.60   -18400.00
02448              -1.40   -18200.00
02449              -0.80   -18000.00
02450              -0.60   -17600.00
02451              -1.80   -17200.00
02452              -1.20   -17200.00
02453              -0.40   -16800.00
02454              -1.00   -16400.00
02455              -1.00   -16200.00
02456              -1.20   -16000.00
02457              -1.40   -15600.00
02458              -1.00   -15400.00
02459              -1.40   -15000.00
02460              -1.80   -14800.00
02461              -0.60   -14400.00
02462              -0.60   -14000.00
02463              -1.20   -13600.00
02464              -1.00   -13200.00
02465              -1.00   -12800.00
02466              -1.20   -12400.00
02467              -0.80   -12200.00
02468              -0.40   -11800.00
02469              -1.20   -11400.00
02470              -1.00   -11000.00
02471              -1.00   -10600.00
02472              -1.40   -10400.00
02473              -0.60   -10000.00
02474              -0.40    -9600.00
02475              -1.00    -9200.00
02476              -1.00    -8800.00
02477              -0.60    -8400.00
02478              -1.20    -8000.00
02479              -1.20    -7600.00
02480              -0.60    -7200.00
02481              -1.00    -6800.00
02482              -1.40    -6400.00
02483              -0.20    -6000.00
02484              -0.40    -5600.00
02485              -1.80    -5000.00
02486              -0.80    -4600.00
02487              -0.40    -4200.00
02488              -1.60    -3800.00
02489              -1.20    -3600.00
02490              -0.20    -3000.00
02491              -0.60    -2600.00
02492              -1.60    -2000.00
02493              -0.20    -1800.00
02494              -0.40    -1200.00
02495              -1.20     -800.00
02496              -0.60     -400.00
02497               0.00        0.00
02498              -0.40      400.00
02499               1.40      600.00
02500               2.60     1200.00
02501              -2.80     1600.00
02502              -0.60     2000.00
02503               3.00     2400.00
02504              -0.40     2800.00
02505              -2.80     3200.00
02506               4.80     3400.00
02507              12.40     4000.00
02508              22.80     4800.00
02509             -21.00     5200.00
02510             -25.00     5600.00
02511              16.60     6000.00
02512              23.00     6200.00
02513             -25.00     6400.00
02514             -22.20     6800.00
02515              25.00     7600.00
02516              18.60     7600.00
02517             -25.00     8200.00
02518              25.00     8400.00
02519              25.00     8800.00
02520             -25.00     9200.00
02521              23.60     9600.00
02522              25.00    10200.00
02523             -25.00    10600.00
02524              -9.40    10800.00
02525              25.00    11200.00
02526              -6.00    11400.00
02527             -25.00    12000.00
02528              14.20    12200.00
02529              25.00    12800.00
02530             -25.00    13200.00
02531              -8.40    13400.00
02532              25.00    13800.00
02533              -2.60    14200.00
02534             -21.40    14600.00
02535               6.00    14800.00
02536              17.00    15200.00
02537             -16.00    15400.00
02538              -1.80    15800.00
02539              19.40    16000.00
02540             -11.00    16200.00
02541              -8.20    16600.00
02542              12.60    16800.00
02543              -2.80    17200.00
02544              -8.20    17400.00
02545               7.80    17800.00
02546               3.40    18000.00
02547              -4.40    18400.00
02548               0.20    18600.00
02549               2.00    18800.00
02550              -1.60    19000.00
02551              -1.20    19200.00
02552               0.60    19600.00
02553               1.80    19600.00
02554               0.60    20000.00
02555              -1.20    20200.00
02556               1.80    20400.00
02557              -0.40    20600.00
02558              -2.80    20800.00
02559               3.20    21000.00
02560               0.80    21200.00
02561              -2.80    21200.00
02562               2.80    21400.00
02563               1.00    21600.00
02564              -3.00    21600.00
02565               1.20    21600.00
02566               1.80    22000.00
02567              -1.00    22000.00
02568               0.40    22000.00
02569               1.80    22200.00
02570              -1.00    22400.00
02571              -0.20    22400.00
02572               0.80    22400.00
02573               0.40    22400.00
02574               0.80    22400.00
02575              -0.80    22400.00
02576               1.20    22600.00
02577               1.20    22400.00
02578              -1.80    22600.00
02579               0.60    22400.00
02580               1.40    22600.00
02581              -1.20    22400.00
02582               0.20    22400.00
02583               1.80    22600.00
02584              -0.60    22400.00
02585              -0.20    22600.00
02586               1.20    22400.00
02587               0.40    22400.00
02588              -0.40    22400.00
02589               1.00    22400.00
02590               0.60    22200.00
02591               0.40    22000.00
02592              -0.20    22000.00
02593               0.20    21800.00
02594               1.00    21600.00
02595              -0.20    21600.00
02596              -0.20    21400.00
02597               0.60    21400.00
02598               0.00    21200.00
02599               0.20    21200.00
02600               0.40    20800.00
02601               0.20    20800.00
02602              -0.60    20400.00
02603               1.00    20400.00
02604               0.80    20000.00
02605              -0.40    20000.00
02606               0.40    19800.00
02607               1.00    19600.00
02608              -0.60    19200.00
02609              -0.40    19000.00
02610               0.40    18800.00
02611              -0.20    18800.00
02612              -0.40    18400.00
02613               0.20    18200.00
02614               1.20    17800.00
02615              -0.60    17600.00
02616              -0.40    17200.00
02617               1.20    17200.00
02618              -0.60    16800.00
02619              -0.80    16600.00
02620               1.20    16200.00
02621               0.20    15800.00
02622              -1.20    15400.00
02623               0.60    15400.00
02624               0.40    15000.00
02625              -1.20    14600.00
02626               0.20    14200.00
02627               0.40    14000.00
02628              -1.00    13600.00
02629              -0.40    13200.00
02630               0.20    12800.00
02631              -0.20    12600.00
02632              -0.20    12200.00
02633              -0.20    11800.00
02634              -0.20    11400.00
02635              -0.20    11000.00
02636               0.20    10800.00
02637              -0.20    10200.00
02638              -0.20     9800.00
02639              -0.20     9600.00
02640              -0.60     9200.00
02641              -0.60     8800.00
02642              -0.20     8200.00
02643              -0.40     8000.00
02644              -0.20     7400.00
02645               0.20     7000.00
02646              -0.40     6600.00
02647              -0.40     6400.00
02648              -0.40     6000.00
02649              -0.40     5400.00
02650              -0.60     5000.00
02651              -0.20     4600.00
02652              -0.20     4000.00
02653              -0.60     3800.00
02654              -0.20     3400.00
02655              -0.20     3000.00
02656              -0.60     2400.00
02657              -0.40     2200.00
02658              -0.40     1800.00
02659              -0.40     1200.00
02660              -0.40      800.00
02661              -0.20      400.00
02662              -0.40     -200.00
02663               0.20     -400.00
02664               1.20     -800.00
02665               2.60    -1400.00
02666              -2.20    -1600.00
02667              -1.40    -2000.00
02668               2.00    -2400.00
02669              -0.60    -2600.00
02670              -2.60    -3200.00
02671               8.20    -3600.00
02672              25.00    -4200.00
02673              -5.20    -5000.00
02674             -25.00    -5200.00
02675               6.60    -5600.00
02676              25.00    -6000.00
02677             -25.00    -6400.00
02678             -24.60    -6400.00
02679              25.00    -7200.00
02680             -25.00    -7400.00
02681             -25.00    -7600.00
02682              25.00    -8800.00
02683               6.60    -8400.00
02684             -25.00    -9000.00
02685              25.00    -9600.00
02686              12.20    -9600.00
02687             -25.00   -10000.00
02688              21.20   -10400.00
02689              24.20   -11000.00
02690               0.40   -11400.00
02691             -25.00   -11600.00
02692              23.40   -12200.00
02693              25.00   -12400.00
02694             -25.00   -12600.00
02695              16.60   -13200.00
02696              25.00   -13200.00
02697             -22.00   -14000.00
02698             -16.20   -14400.00
02699              14.60   -14600.00
02700              10.40   -14800.00
02701             -25.00   -15200.00
02702              14.80   -15600.00
02703              15.60   -16000.00
02704             -24.20   -16200.00
02705               5.00   -16400.00
02706               5.60   -16800.00
02707              -7.80   -17000.00
02708              -2.80   -17200.00
02709               4.60   -17600.00
02710               1.80   -17800.00
02711              -4.80   -18000.00
02712               0.20   -18600.00
02713               1.00   -18600.00
02714              -2.40   -19000.00
02715              -5.20   -19200.00
02716               3.80   -19400.00
02717               1.20   -19600.00
02718              -5.20   -19600.00
02719               1.20   -20000.00
02720               2.00   -20200.00
02721              -7.00   -20400.00
02722              -2.80   -20600.00
02723               6.80   -20800.00
02724              -6.20   -20800.00
02725              -1.40   -21000.00
02726               6.00   -21200.00
02727              -5.80   -21400.00
02728              -2.80   -21600.00
02729               2.60   -21800.00
02730              -2.00   -21800.00
02731              -3.00   -21800.00
02732               1.40   -22000.00
02733              -0.20   -22000.00
02734              -3.00   -22200.00
02735              -1.00   -22400.00
02736              -0.20   -22400.00
02737              -1.20   -22400.00
02738              -2.20   -22400.00
02739              -1.40   -22600.00
02740               0.60   -22400.00
02741              -2.80   -22600.00
02742              -2.60   -22600.00
02743               1.40   -22600.00
02744              -2.80   -22600.00
02745              -2.60   -22800.00
02746               1.00   -22600.00
02747              -1.60   -22600.00
02748              -2.20   -22800.00
02749              -1.00   -22400.00
02750              -0.80   -22600.00
02751              -2.20   -22400.00
02752              -1.00   -22400.00
02753              -0.60   -22400.00
02754              -1.80   -22400.00
02755              -1.00   -22000.00
02756              -1.20   -22200.00
02757              -1.40   -22000.00
02758              -1.40   -22000.00
02759              -1.40   -21800.00
02760              -1.80   -21600.00
02761              -0.20   -21600.00
02762              -1.80   -21200.00
02763              -2.60   -21200.00
02764               0.40   -21200.00
02765              -1.40   -20800.00
02766              -2.80   -20800.00
02767               0.60   -20400.00
02768              -1.00   -20400.00
02769              -2.80   -20200.00
02770               0.20   -20000.00
02771              -1.80   -19800.00
02772              -2.60   -19600.00
02773              -0.20   -19400.00
02774              -1.20   -19200.00
02775              -1.20   -18800.00
02776              -0.20   -18600.00
02777              -0.60   -18400.00
02778              -1.40   -18200.00
02779              -0.60   -18000.00
02780              -1.40   -17400.00
02781              -1.80   -17200.00
02782              -0.40   -17000.00
02783              -0.60   -16800.00
02784              -2.20   -16400.00
02785              -0.20   -16200.00
02786              -1.20   -15800.00
02787              -2.00   -15600.00
02788              -0.40   -15200.00
02789              -1.20   -14800.00
02790              -1.40   -14600.00
02791              -0.60   -14200.00
02792              -1.20   -13800.00
02793              -1.40   -13600.00
02794              -1.00   -13200.00
02795              -1.00   -12800.00
02796              -1.00   -12400.00
02797              -0.60   -12200.00
02798              -1.20   -11800.00
02799              -1.20   -11400.00
02800              -0.60   -11000.00
02801              -1.40   -10600.00
02802              -1.20   -10200.00
02803              -0.40   -10000.00
02804              -1.20    -9400.00
02805              -1.00    -9200.00
02806              -0.40    -8800.00
02807              -1.20    -8400.00
02808              -1.40    -8000.00
02809              -0.80    -7600.00
02810              -1.20    -7200.00
02811              -1.40    -6800.00
02812              -1.20    -6200.00
02813              -0.60    -6000.00
02814              -1.40    -5600.00
02815              -0.80    -5000.00
02816              -0.60    -4600.00
02817              -1.20    -4200.00
02818              -1.00    -3600.00
02819              -0.60    -3200.00
02820              -1.40    -3000.00
02821               0.20    -2600.00
02822              -1.20    -2000.00
02823              -1.80    -1800.00
02824               0.40    -1400.00
02825              -1.40     -800.00
02826              -1.40     -400.00
02827               1.00        0.00
02828              -0.60      400.00
02829               2.00      800.00
02830               2.20     1400.00
02831              -3.80     1800.00
02832               0.20     2000.00
02833               3.00     2400.00
02834              -1.80     2800.00
02835              -1.80     3200.00
02836               6.20     3600.00
02837              14.60     4200.00
02838              20.40     4800.00
02839             -25.00     5200.00
02840             -25.00     5600.00
02841              25.00     6000.00
02842              13.40     6200.00
02843             -25.00     6400.00
02844              -7.40     7000.00
02845              25.00     7600.00
02846             -13.00     7800.00
02847             -25.00     8200.00
02848              25.00     8600.00
02849              25.00     8800.00
02850             -25.00     9400.00
02851              25.00     9800.00
02852              25.00    10000.00
02853             -25.00    10600.00
02854               6.60    10800.00
02855              25.00    11200.00
02856             -17.00    11600.00
02857             -25.00    12000.00
02858              24.20    12400.00
02859              21.20    12800.00
02860             -25.00    13200.00
02861               1.40    13400.00
02862              25.00    14000.00
02863             -10.20    14200.00
02864             -18.60    14600.00
02865              12.20    14800.00
02866              11.40    15200.00
02867             -18.60    15600.00
02868               5.80    15800.00
02869              16.20    16000.00
02870             -14.80    16400.00
02871              -2.60    16600.00
02872              11.40    16800.00
02873              -6.20    17200.00
02874              -5.20    17400.00
02875               8.40    17800.00
02876               1.00    18000.00
02877              -3.80    18400.00
02878               0.60    18600.00
02879               1.20    18800.00
02880              -1.20    19200.00
02881              -1.40    19400.00
02882               1.80    19600.00
02883               2.20    19600.00
02884              -0.60    20000.00
02885              -1.00    20000.00
02886               2.60    20400.00
02887              -2.00    20400.00
02888              -2.80    20800.00
02889               4.60    21000.00
02890              -0.60    21200.00
02891              -2.60    21200.00
02892               3.60    21400.00
02893              -0.40    21600.00
02894              -3.20    21600.00
02895               2.00    21600.00
02896               1.40    21800.00
02897              -1.40    22000.00
02898               1.80    22000.00
02899               1.60    22200.00
02900              -1.40    22200.00
02901               0.40    22400.00
02902               0.60    22400.00
02903              -0.20    22400.00
02904               0.40    22400.00
02905              -0.40    22600.00
02906               1.80    22400.00
02907               0.60    22400.00
02908              -2.00    22600.00
02909               1.40    22600.00
02910               1.00    22600.00
02911              -1.20    22600.00
02912               1.00    22600.00
02913               1.20    22600.00
02914              -0.60    22400.00
02915               0.40    22400.00
02916               1.20    22400.00
02917              -0.60    22200.00
02918               0.20    22200.00
02919               1.20    22400.00
02920              -0.20    22000.00
02921               0.20    22000.00
02922               0.40    22000.00
02923               0.00    21800.00
02924               0.40    21600.00
02925               0.20    21600.00
02926               0.20    21400.00
02927               1.40    21400.00
02928               0.20    21200.00
02929               0.40    21200.00
02930               0.80    20800.00
02931              -0.80    20800.00
02932              -0.60    20400.00
02933               1.20    20400.00
02934              -0.20    20000.00
02935              -0.60    20000.00
02936               0.80    19800.00
02937               0.40    19600.00
02938              -1.20    19200.00
02939               0.40    19000.00
02940               1.00    18800.00
02941              -1.20    18400.00
02942               0.40    18200.00
02943               1.00    18200.00
02944              -1.00    17800.00
02945              -0.20    17600.00
02946               0.60    17400.00
02947              -1.00    16800.00
02948               0.00    16800.00
02949               1.00    16400.00
02950              -1.20    16000.00
02951              -0.40    15800.00
02952               1.00    15600.00
02953              -1.00    15200.00
02954              -0.60    15000.00
02955               1.00    14400.00
02956              -0.60    14200.00
02957              -0.40    14000.00
02958               0.60    13400.00
02959              -0.60    13200.00
02960              -0.60    12800.00
02961               1.00    12400.00
02962              -0.60    12200.00
02963              -1.00    11600.00
02964               1.00    11400.00
02965              -0.20    10800.00
02966              -1.20    10600.00
02967               0.60    10200.00
02968               0.20    10000.00
02969              -1.40     9400.00
02970               0.80     9200.00
02971              -0.20     8600.00
02972              -1.40     8400.00
02973               0.60     7800.00
02974              -0.20     7600.00
02975              -1.20     7000.00
02976               0.60     6800.00
02977              -0.20     6200.00
02978              -1.20     6000.00
02979               0.60     5400.00
02980              -0.20     5000.00
02981              -1.60     4400.00
02982               0.60     4200.00
02983              -0.40     3600.00
02984              -1.40     3200.00
02985               0.40     2800.00
02986              -0.60     2400.00
02987              -1.00     2000.00
02988               0.80     1600.00
02989              -1.00     1200.00
02990              -1.20      600.00
02991               0.60      200.00
02992              -0.80     -200.00
02993              -0.40     -400.00
02994               3.00     -800.00
02995               1.20    -1200.00
02996              -3.40    -1800.00
02997               0.40    -2000.00
02998               1.40    -2400.00
02999              -2.20    -2800.00
03000              -0.60    -3200.00
03001              10.80    -3600.00
03002              25.00    -4200.00
03003             -20.20    -5000.00
03004             -25.00    -5400.00
03005              20.20    -5800.00
03006              25.00    -6200.00
03007             -25.00    -6200.00
03008               5.20    -6400.00
03009              25.00    -7200.00
03010             -25.00    -7200.00
03011             -25.00    -7800.00
03012              25.00    -8800.00
03013             -25.00    -8600.00
03014             -25.00    -9200.00
03015              25.00    -9600.00
03016             -22.60    -9800.00
03017             -25.00   -10400.00
03018              25.00   -10600.00
03019              19.80   -11000.00
03020              -7.80   -11400.00
03021             -25.00   -11600.00
03022              25.00   -12400.00
03023              15.40   -12400.00
03024             -25.00   -12800.00
03025              25.00   -13400.00
03026              18.60   -13600.00
03027             -24.00   -14000.00
03028             -12.40   -14400.00
03029              19.00   -14800.00
03030               2.20   -15000.00
03031             -25.00   -15400.00
03032              23.20   -15600.00
03033               6.00   -16000.00
03034             -22.00   -16200.00
03035               9.40   -16400.00
03036               2.00   -16800.00
03037              -8.40   -17200.00
03038              -0.60   -17200.00
03039               5.20   -17600.00
03040              -1.80   -18000.00
03041              -3.00   -18200.00
03042               0.20   -18400.00
03043              -1.20   -18800.00
03044              -2.20   -19000.00
03045              -3.80   -19200.00
03046               2.80   -19600.00
03047               0.40   -19600.00
03048              -3.60   -20000.00
03049               0.60   -20000.00
03050               1.80   -20400.00
03051              -6.60   -20400.00
03052              -1.80   -20600.00
03053               5.40   -20800.00
03054              -6.60   -20800.00
03055               0.20   -21200.00
03056               4.40   -21200.00
03057              -5.80   -21200.00
03058              -2.40   -21600.00
03059               2.20   -21600.00
03060              -2.20   -21600.00
03061              -3.60   -22000.00
03062               2.20   -22000.00
03063              -0.60   -22200.00
03064              -4.20   -22200.00
03065              -0.20   -22400.00
03066              -0.60   -22400.00
03067              -2.00   -22600.00
03068              -1.40   -22600.00
03069              -0.60   -22600.00
03070               0.20   -22400.00
03071              -2.80   -22600.00
03072              -2.00   -22600.00
03073               1.00   -22600.00
03074              -2.80   -22600.00
03075              -2.40   -22600.00
03076               0.40   -22400.00
03077              -1.00   -22600.00
03078              -2.20   -22600.00
03079              -1.40   -22600.00
03080               0.00   -22400.00
03081              -2.20   -22600.00
03082              -1.80   -22400.00
03083              -0.40   -22400.00
03084              -1.20   -22400.00
03085              -1.20   -22200.00
03086              -1.80   -22000.00
03087              -0.60   -22000.00
03088              -1.00   -21800.00
03089              -2.20   -21800.00
03090              -0.60   -21600.00
03091              -0.60   -21600.00
03092              -2.20   -21400.00
03093              -1.40   -21200.00
03094              -0.40   -21200.00
03095              -1.40   -21000.00
03096              -2.00   -20800.00
03097              -0.40   -20600.00
03098              -1.00   -20400.00
03099              -1.20   -20200.00
03100              -0.60   -20000.00
03101              -1.20   -19600.00
03102              -1.20   -19600.00
03103              -1.80   -19400.00
03104              -1.00   -19200.00
03105              -0.60   -18800.00
03106              -1.40   -18600.00
03107              -0.60   -18200.00
03108              -1.20   -18000.00
03109              -1.20   -17800.00
03110              -1.20   -17400.00
03111              -1.80   -17000.00
03112               0.20   -17000.00
03113              -1.40   -16600.00
03114              -1.80   -16400.00
03115               0.40   -16000.00
03116              -2.00   -15800.00
03117              -1.40   -15600.00
03118              -0.40   -15200.00
03119              -2.00   -14800.00
03120              -0.60   -14400.00
03121              -0.60   -14000.00
03122              -1.80   -13800.00
03123              -0.60   -13600.00
03124              -1.00   -13000.00
03125              -1.00   -12800.00
03126              -0.40   -12400.00
03127              -1.00   -12200.00
03128              -1.00   -11600.00
03129              -0.80   -11400.00
03130              -1.20   -10800.00
03131              -1.40   -10600.00
03132              -0.80   -10000.00
03133              -1.20    -9800.00
03134              -2.00    -9200.00
03135              -0.40    -9000.00
03136              -0.60    -8600.00
03137              -1.80    -8200.00
03138              -0.80    -8000.00
03139              -0.60    -7400.00
03140              -1.20    -7000.00
03141              -1.00    -6600.00
03142              -1.20    -6200.00
03143              -0.60    -5800.00
03144              -1.40    -5400.00
03145              -1.20    -5000.00
03146              -0.60    -4400.00
03147              -1.00    -4200.00
03148              -1.40    -3600.00
03149              -0.40    -3400.00
03150              -0.40    -2800.00
03151              -1.20    -2400.00
03152              -1.20    -2000.00
03153               0.20    -1800.00
03154              -1.40    -1200.00
03155              -1.80     -800.00
03156               0.40     -200.00
03157               0.20      200.00
03158              -1.00      600.00
03159               3.80     1000.00
03160               1.00     1400.00
03161              -3.80     1600.00
03162               1.00     2000.00
03163               2.60     2600.00
03164              -2.00     2800.00
03165              -1.00     3200.00
03166               7.20     3600.00
03167              17.80     4400.00
03168              14.80     4800.00
03169             -25.00     5400.00
03170             -24.60     5600.00
03171              25.00     6000.00
03172               1.80     6400.00
03173             -25.00     6400.00
03174              11.60     7200.00
03175              25.00     7800.00
03176             -25.00     7800.00
03177             -25.00     8400.00
03178              25.00     8600.00
03179              -7.60     8800.00
03180             -25.00     9600.00
03181              25.00     9600.00
03182              22.00    10200.00
03183             -25.00    10800.00
03184              21.80    10800.00
03185              25.00    11400.00
03186             -25.00    11600.00
03187             -25.00    12000.00
03188              25.00    12400.00
03189              11.40    12800.00
03190             -25.00    13200.00
03191               9.40    13400.00
03192              23.00    14000.00
03193             -16.00    14400.00
03194             -15.60    14600.00
03195              17.20    15000.00
03196               5.40    15200.00
03197             -19.60    15600.00
03198              11.80    15800.00
03199              12.20    16200.00
03200             -18.00    16400.00
03201               2.60    16800.00
03202              10.00    16800.00
03203              -8.60    17200.00
03204              -2.60    17600.00
03205               9.00    18000.00
03206              -0.80    18200.00
03207              -4.00    18400.00
03208               2.00    18600.00
03209               1.20    19000.00
03210              -2.20    19200.00
03211              -0.40    19400.00
03212               2.20    19600.00
03213               0.60    19600.00
03214              -1.00    20000.00
03215               0.00    20000.00
03216               2.20    20400.00
03217              -2.80    20600.00
03218              -0.60    21000.00
03219               5.20    21200.00
03220              -2.20    21000.00
03221              -0.60    21200.00
03222               4.20    21400.00
03223              -1.80    21400.00
03224              -2.60    21600.00
03225               2.60    21600.00
03226               0.40    22000.00
03227              -1.40    22000.00
03228               2.20    22000.00
03229               0.40    22200.00
03230              -2.00    22400.00
03231               1.20    22400.00
03232               1.40    22400.00
03233              -1.00    22400.00
03234              -0.20    22400.00
03235               1.40    22600.00
03236               2.00    22600.00
03237              -1.20    22600.00
03238              -0.60    22600.00
03239               2.60    22400.00
03240               0.20    22600.00
03241              -1.00    22600.00
03242               1.20    22600.00
03243               1.20    22600.00
03244              -0.60    22600.00
03245              -0.20    22400.00
03246               1.20    22400.00
03247              -0.20    22200.00
03248               0.20    22200.00
03249               1.20    22200.00
03250               0.20    22200.00
03251               0.20    22000.00
03252               0.20    22200.00
03253               0.40    21800.00
03254               0.40    21800.00
03255              -0.20    21600.00
03256               0.40    21400.00
03257               0.60    21200.00
03258              -0.20    21000.00
03259               0.40    21000.00
03260               0.40    21000.00
03261              -0.60    20600.00
03262              -0.20    20400.00
03263               1.00    20200.00
03264              -0.60    20000.00
03265               0.20    19800.00
03266               0.60    19600.00
03267              -0.40    19400.00
03268              -0.20    19200.00
03269               0.60    19200.00
03270              -0.20    18800.00
03271              -0.40    18600.00
03272               0.60    18400.00
03273               0.40    18000.00
03274              -0.60    17800.00
03275              -0.20    17400.00
03276               0.40    17200.00
03277              -0.60    16800.00
03278               0.20    16600.00
03279               0.40    16400.00
03280              -0.20    16000.00
03281              -0.20    15600.00
03282               0.20    15600.00
03283              -0.60    15000.00
03284               0.40    14800.00
03285              -0.20    14400.00
03286              -0.60    14200.00
03287               0.40    13600.00
03288               0.20    13400.00
03289              -1.20    13200.00
03290               0.40    12800.00
03291               0.40    12400.00
03292              -1.60    12000.00
03293              -0.20    11600.00
03294               0.40    11200.00
03295              -1.00    10800.00
03296              -0.20    10600.00
03297               0.60    10200.00
03298              -0.40     9800.00
03299              -0.20     9400.00
03300               0.20     9200.00
03301              -0.80     8600.00
03302               0.20     8200.00
03303              -0.40     7800.00
03304              -0.60     7600.00
03305               0.00     7000.00
03306              -0.60     6600.00
03307               0.40     6000.00
03308              -0.60     5800.00
03309              -0.20     5400.00
03310               0.60     4800.00
03311              -1.20     4400.00
03312              -0.20     4000.00
03313               0.40     3600.00
03314              -1.40     3200.00
03315              -0.40     2800.00
03316               0.20     2400.00
03317              -0.60     2000.00
03318              -0.60     1400.00
03319               0.20     1200.00
03320              -0.40      800.00
03321              -1.00      400.00
03322              -0.40     -200.00
03323               0.60     -400.00
03324               2.00    -1000.00
03325               0.40    -1400.00
03326              -3.00    -1800.00
03327              -0.40    -2400.00
03328               2.00    -2600.00
03329              -2.20    -2800.00
03330               0.00    -3200.00
03331              15.40    -3400.00
03332              25.00    -4400.00
03333             -25.00    -5000.00
03334             -25.00    -5400.00
03335              25.00    -5800.00
03336              13.60    -6200.00
03337             -25.00    -6200.00
03338              25.00    -6400.00
03339              25.00    -7400.00
03340             -25.00    -7200.00
03341               4.60    -8000.00
03342              25.00    -8400.00
03343             -25.00    -8600.00
03344             -25.00    -9400.00
03345              25.00    -9600.00
03346             -25.00    -9800.00
03347             -21.40   -10400.00
03348              25.00   -10600.00
03349              16.40   -11000.00
03350             -18.00   -11600.00
03351             -25.00   -11600.00
03352              25.00   -12400.00
03353              -3.40   -12400.00
03354             -25.00   -12800.00
03355              25.00   -13200.00
03356               9.20   -13600.00
03357             -24.40   -14200.00
03358              -8.60   -14400.00
03359              22.80   -14800.00
03360              -7.00   -15000.00
03361             -23.00   -15200.00
03362              25.00   -15600.00
03363              -3.60   -16000.00
03364             -18.60   -16200.00
03365              11.80   -16400.00
03366              -1.40   -16800.00
03367              -8.20   -17200.00
03368               1.00   -17400.00
03369               5.80   -17600.00
03370              -3.00   -17800.00
03371              -3.20   -18200.00
03372               1.20   -18600.00
03373              -1.20   -18600.00
03374              -3.80   -19000.00
03375              -2.20   -19200.00
03376               3.00   -19400.00
03377              -0.60   -19600.00
03378              -2.20   -20000.00
03379               0.40   -20000.00
03380               1.20   -20200.00
03381              -6.20   -20400.00
03382              -0.60   -20800.00
03383               3.80   -21000.00
03384              -6.60   -20800.00
03385               1.20   -21200.00
03386               2.60   -21200.00
03387              -5.40   -21400.00
03388              -1.40   -21600.00
03389               2.00   -21800.00
03390              -2.40   -21800.00
03391              -2.80   -21800.00
03392               2.40   -22000.00
03393              -1.20   -22000.00
03394              -3.60   -22400.00
03395              -0.40   -22400.00
03396              -1.20   -22400.00
03397              -2.00   -22400.00
03398              -1.40   -22400.00
03399              -0.40   -22400.00
03400              -0.20   -22400.00
03401              -3.00   -22600.00
03402              -1.00   -22600.00
03403               0.40   -22600.00
03404              -3.40   -22600.00
03405              -1.40   -22600.00
03406               0.60   -22600.00
03407              -1.60   -22600.00
03408              -2.20   -22600.00
03409              -0.60   -22600.00
03410              -0.60   -22600.00
03411              -2.20   -22400.00
03412              -1.00   -22400.00
03413              -0.80   -22200.00
03414              -2.00   -22200.00
03415              -1.20   -22200.00
03416              -1.80   -22000.00
03417              -0.60   -22000.00
03418              -1.00   -21800.00
03419              -1.80   -21600.00
03420              -0.20   -21600.00
03421              -1.00   -21200.00
03422              -2.00   -21200.00
03423              -1.00   -21200.00
03424              -0.60   -21000.00
03425              -1.80   -20800.00
03426              -1.40   -20600.00
03427              -0.40   -20400.00
03428              -1.40   -20200.00
03429              -1.00   -20000.00
03430              -0.40   -20000.00
03431              -1.80   -19600.00
03432              -1.20   -19600.00
03433              -0.80   -19400.00
03434              -1.20   -19000.00
03435              -1.00   -18800.00
03436              -1.00   -18600.00
03437              -1.00   -18200.00
03438              -1.20   -18000.00
03439              -1.20   -17800.00
03440              -1.20   -17400.00
03441              -1.20   -17200.00
03442              -0.40   -17000.00
03443              -1.00   -16600.00
03444              -1.20   -16400.00
03445              -0.80   -16000.00
03446              -1.60   -15600.00
03447              -1.20   -15600.00
03448              -0.60   -15200.00
03449              -1.20   -14600.00
03450              -1.00   -14400.00
03451              -0.60   -14200.00
03452              -1.00   -13800.00
03453              -1.40   -13400.00
03454              -1.40   -13000.00
03455              -1.00   -12800.00
03456              -1.20   -12400.00
03457              -1.00   -12000.00
03458              -1.20   -11800.00
03459              -1.00   -11200.00
03460              -1.00   -10800.00
03461              -1.00   -10400.00
03462              -0.80   -10000.00
03463              -1.00    -9800.00
03464              -1.40    -9200.00
03465              -1.00    -8800.00
03466              -1.20    -8800.00
03467              -1.00    -8200.00
03468              -1.20    -7800.00
03469              -0.60    -7200.00
03470              -0.60    -7200.00
03471              -1.20    -6600.00
03472              -0.80    -6000.00
03473              -0.20    -5800.00
03474              -1.80    -5200.00
03475              -1.20    -4600.00
03476              -0.60    -4400.00
03477              -1.20    -4000.00
03478              -1.20    -3600.00
03479              -0.20    -3200.00
03480              -0.60    -2800.00
03481              -0.60    -2400.00
03482              -0.60    -1800.00
03483              -0.60    -1400.00
03484              -1.00    -1000.00
03485              -1.00     -600.00
03486              -0.60     -200.00
03487              -0.20      200.00
03488               0.40      600.00
03489               3.20     1200.00
03490              -1.00     1600.00
03491              -2.20     1800.00
03492               1.80     2200.00
03493               1.80     2600.00
03494              -2.00     3000.00
03495               0.40     3200.00
03496               8.20     3600.00
03497              20.80     4400.00
03498               7.00     5000.00
03499             -25.00     5400.00
03500             -13.60     5600.00
03501              25.00     6200.00
03502             -11.00     6200.00
03503             -25.00     6800.00
03504              25.00     7200.00
03505              25.00     7600.00
03506             -25.00     7800.00
03507             -25.00     8400.00
03508              25.00     8600.00
03509             -25.00     9000.00
03510             -25.00     9600.00
03511              25.00    10000.00
03512              -3.80    10200.00
03513             -25.00    10800.00
03514              25.00    10800.00
03515              25.00    11400.00
03516             -25.00    11800.00
03517             -16.20    12000.00
03518              25.00    12400.00
03519              -1.00    12800.00
03520             -25.00    13200.00
03521              18.00    13600.00
03522              17.00    14000.00
03523             -21.00    14400.00
03524              -9.20    14600.00
03525              20.00    15000.00
03526              -2.60    15200.00
03527             -16.20    15600.00
03528              17.00    15800.00
03529               4.60    16400.00
03530             -17.20    16400.00
03531               7.60    16800.00
03532               6.60    17200.00
03533             -10.40    17400.00
03534               1.40    17600.00
03535               7.60    18000.00
03536              -2.80    18200.00
03537              -2.60    18400.00
03538               2.20    18800.00
03539              -0.20    19000.00
03540              -1.20    19200.00
03541              -0.40    19600.00
03542               2.00    19600.00
03543               1.40    19800.00
03544              -1.20    20000.00
03545               0.20    20200.00
03546               1.80    20400.00
03547              -3.40    20400.00
03548               0.40    21000.00
03549               4.40    20800.00
03550              -2.80    21200.00
03551               1.00    21200.00
03552               3.40    21400.00
03553              -2.60    21600.00
03554              -1.20    21600.00
03555               2.60    21800.00
03556              -0.40    22000.00
03557              -0.60    22000.00
03558               2.20    22000.00
03559              -0.20    22200.00
03560              -0.80    22400.00
03561               1.20    22200.00
03562               0.20    22400.00
03563               0.20    22400.00
03564               0.40    22400.00
03565               0.20    22400.00
03566               1.60    22600.00
03567              -0.60    22400.00
03568              -0.60    22400.00
03569               2.00    22400.00
03570              -0.20    22400.00
03571              -0.60    22800.00
03572               1.40    22400.00
03573               0.60    22600.00
03574              -0.60    22400.00
03575               1.00    22400.00
03576               0.60    22400.00
03577              -0.60    22200.00
03578               1.00    22400.00
03579               1.20    22200.00
03580              -0.60    22000.00
03581               0.60    22000.00
03582               0.40    22000.00
03583              -0.60    21600.00
03584               0.20    21600.00
03585               0.40    21400.00
03586              -0.60    21200.00
03587               0.60    21200.00
03588               0.40    21200.00
03589               0.20    20800.00
03590               1.00    20800.00
03591              -0.40    20600.00
03592              -0.60    20400.00
03593               1.40    20200.00
03594              -0.20    20000.00
03595              -1.20    19800.00
03596               1.00    19600.00
03597               0.40    19400.00
03598              -1.40    19200.00
03599               0.40    19000.00
03600               1.20    18800.00
03601              -0.80    18600.00
03602               0.00    18200.00
03603               1.00    18000.00
03604              -0.60    17600.00
03605              -0.40    17400.00
03606               1.00    17200.00
03607              -0.60    16800.00
03608              -0.60    16600.00
03609               0.40    16400.00
03610               0.00    16000.00
03611               0.40    15600.00
03612               0.60    15400.00
03613              -0.40    15200.00
03614              -0.20    14800.00
03615               0.20    14400.00
03616              -1.00    14200.00
03617              -0.80    13600.00
03618               0.60    13400.00
03619               0.40    13000.00
03620              -0.40    12800.00
03621               0.40    12400.00
03622              -0.20    12000.00
03623              -0.60    11600.00
03624              -0.20    11000.00
03625              -0.40    10800.00
03626              -0.20    10400.00
03627              -0.60    10200.00
03628              -0.20     9600.00
03629               0.20     9400.00
03630              -0.40     8800.00
03631              -0.40     8600.00
03632               0.40     8200.00
03633              -0.20     7800.00
03634              -0.40     7200.00
03635               0.20     7000.00
03636              -0.20     6600.00
03637              -1.00     6000.00
03638              -0.40     5800.00
03639               0.20     5200.00
03640              -0.60     4800.00
03641              -0.60     4400.00
03642               0.40     4000.00
03643              -1.00     3600.00
03644              -1.00     3000.00
03645               0.20     2800.00
03646              -0.40     2200.00
03647              -0.60     1800.00
03648               0.20     1400.00
03649              -0.60     1000.00
03650              -1.20      600.00
03651              -0.60      200.00
03652               0.20     -400.00
03653               0.20     -800.00
03654               2.80    -1000.00
03655              -0.60    -1600.00
03656              -2.60    -2000.00
03657               0.60    -2000.00
03658               1.00    -2400.00
03659              -2.60    -3000.00
03660               2.20    -3400.00
03661              19.40    -3600.00
03662              25.00    -4600.00
03663             -25.00    -5200.00
03664             -25.00    -5600.00
03665              25.00    -6000.00
03666              -1.80    -6000.00
03667             -25.00    -6000.00
03668              25.00    -6600.00
03669              25.00    -7400.00
03670             -25.00    -7200.00
03671              25.00    -8400.00
03672              25.00    -8600.00
03673             -25.00    -8800.00
03674              14.00    -9600.00
03675              25.00    -9400.00
03676             -25.00    -9800.00
03677              -6.00   -10600.00
03678              25.00   -10600.00
03679              13.40   -11200.00
03680             -25.00   -11400.00
03681             -21.40   -12000.00
03682              25.00   -12400.00
03683             -24.20   -12400.00
03684             -25.00   -13000.00
03685              25.00   -13200.00
03686              -2.80   -13600.00
03687             -23.60   -14200.00
03688              -1.80   -14400.00
03689              23.00   -14800.00
03690             -16.40   -15200.00
03691             -13.40   -15400.00
03692              25.00   -15800.00
03693             -12.80   -16000.00
03694             -11.80   -16400.00
03695              11.60   -16400.00
03696              -4.20   -16800.00
03697              -6.20   -17200.00
03698               2.00   -17200.00
03699               4.60   -17600.00
03700              -3.00   -18000.00
03701              -2.40   -18400.00
03702              -0.20   -18600.00
03703               0.20   -18600.00
03704              -4.40   -19000.00
03705              -2.00   -19400.00
03706               4.40   -19600.00
03707              -3.00   -19600.00
03708              -2.80   -20000.00
03709               2.80   -20000.00
03710              -1.00   -20200.00
03711              -7.00   -20400.00
03712               3.60   -20800.00
03713               1.00   -21000.00
03714              -6.80   -21000.00
03715               4.20   -21200.00
03716              -0.60   -21200.00
03717              -6.20   -21600.00
03718               0.40   -21600.00
03719               0.40   -21800.00
03720              -3.60   -21800.00
03721              -1.00   -21800.00
03722               1.40   -22000.00
03723              -2.60   -22000.00
03724              -2.00   -22200.00
03725              -0.60   -22400.00
03726              -1.20   -22400.00
03727              -1.20   -22600.00
03728              -2.00   -22400.00
03729              -0.20   -22600.00
03730              -0.20   -22600.00
03731              -3.80   -22400.00
03732              -0.20   -22600.00
03733               0.40   -22600.00
03734              -3.80   -22400.00
03735              -0.60   -22600.00
03736               0.40   -22600.00
03737              -2.80   -22600.00
03738              -2.60   -22600.00
03739              -0.20   -22400.00
03740              -1.20   -22600.00
03741              -2.00   -22400.00
03742              -0.20   -22400.00
03743              -0.40   -22200.00
03744              -1.20   -22200.00
03745              -0.60   -22000.00
03746              -1.80   -22000.00
03747              -1.40   -22000.00
03748              -2.00   -21800.00
03749              -3.00   -21600.00
03750              -0.60   -21400.00
03751              -0.80   -21200.00
03752              -2.00   -21200.00
03753               0.20   -21200.00
03754               0.80   -20800.00
03755              -1.00   -20800.00
03756              -1.80   -20600.00
03757              -0.80   -20400.00
03758              -2.20   -20200.00
03759              -2.80   -20000.00
03760              -0.40   -20000.00
03761              -1.40   -19600.00
03762              -1.20   -19400.00
03763               1.40   -19200.00
03764               0.20   -19000.00
03765              -2.00   -18800.00
03766              -0.60   -18400.00
03767              -2.20   -18000.00
03768              -4.20   -18000.00
03769              -1.00   -17400.00
03770               0.20   -17200.00
03771              -0.80   -17000.00
03772               1.00   -16800.00
03773               0.20   -16600.00
03774              -1.80   -16200.00
03775              -2.00   -16000.00
03776              -2.20   -15600.00
03777              -2.20   -15400.00
03778              -0.60   -15000.00
03779              -0.60   -14800.00
03780              -0.20   -14400.00
03781               0.40   -14000.00
03782              -1.20   -13800.00
03783              -2.80   -13200.00
03784              -1.80   -13000.00
03785              -1.20   -12800.00
03786              -2.00   -12400.00
03787              -0.20   -11600.00
03788              -0.40   -11600.00
03789              -1.20   -11000.00
03790              -1.00   -10800.00
03791              -1.20   -10400.00
03792              -1.20   -10000.00
03793              -1.40    -9600.00
03794              -1.60    -9200.00
03795              -0.40    -9000.00
03796              -1.00    -8400.00
03797              -1.00    -8000.00
03798              -1.40    -7600.00
03799              -1.00    -7200.00
03800              -1.00    -6800.00
03801              -1.20    -6400.00
03802              -0.20    -6000.00
03803               0.00    -5800.00
03804              -2.00    -5200.00
03805              -1.00    -4800.00
03806              -0.60    -4400.00
03807              -0.80    -4000.00
03808              -1.00    -3600.00
03809              -0.60    -3000.00
03810              -0.20    -2800.00
03811              -1.00    -2400.00
03812              -1.40    -1800.00
03813              -0.60    -1400.00
03814              -1.00    -1000.00
03815              -1.40     -400.00
03816               0.60        0.00
03817               0.60      400.00
03818               0.40      600.00
03819               3.40     1200.00
03820              -1.80     1400.00
03821              -3.00     1800.00
03822               2.80     2400.00
03823               1.80     2800.00
03824              -2.80     3000.00
03825               2.60     3200.00
03826              10.00     3800.00
03827              22.60     4600.00
03828              -3.60     5000.00
03829             -25.00     5400.00
03830              -2.20     5600.00
03831              25.00     6200.00
03832             -23.00     6400.00
03833             -25.00     6800.00
03834              25.00     7400.00
03835              25.00     7800.00
03836             -25.00     7800.00
03837               8.60     8600.00
03838              25.00     8600.00
03839             -25.00     9200.00
03840             -25.00     9600.00
03841              25.00     9800.00
03842             -25.00    10400.00
03843             -25.00    10800.00
03844              25.00    11000.00
03845              13.00    11400.00
03846             -25.00    11800.00
03847              -4.40    12200.00
03848              25.00    12600.00
03849             -12.40    13000.00
03850             -22.20    13400.00
03851              23.40    13600.00
03852               9.80    14000.00
03853             -22.60    14600.00
03854              -4.20    14600.00
03855              21.40    15000.00
03856              -9.40    15200.00
03857             -12.60    15800.00
03858              21.00    16000.00
03859              -2.20    16400.00
03860             -14.80    16600.00
03861              11.60    16800.00
03862               1.40    17000.00
03863             -10.20    17400.00
03864               5.40    17600.00
03865               5.20    18000.00
03866              -4.40    18400.00
03867              -0.40    18600.00
03868               2.20    18800.00
03869              -1.20    18800.00
03870              -0.20    19200.00
03871               0.40    19600.00
03872               1.60    19600.00
03873               1.80    20000.00
03874              -1.20    20000.00
03875               0.20    20400.00
03876               1.40    20600.00
03877              -3.60    20600.00
03878               0.60    20800.00
03879               3.40    21000.00
03880              -3.00    21200.00
03881               1.20    21200.00
03882               3.40    21400.00
03883              -2.80    21400.00
03884              -0.60    21600.00
03885               3.40    21800.00
03886              -0.60    22000.00
03887              -1.20    22000.00
03888               3.00    22200.00
03889              -0.40    22200.00
03890              -1.80    22200.00
03891               1.60    22400.00
03892               0.60    22400.00
03893              -0.40    22400.00
03894               0.40    22400.00
03895               1.60    22600.00
03896               0.40    22400.00
03897              -1.00    22800.00
03898               0.60    22600.00
03899               1.20    22400.00
03900              -0.60    22400.00
03901               0.60    22400.00
03902               1.00    22600.00
03903               0.20    22400.00
03904               0.20    22400.00
03905               0.60    22400.00
03906               0.20    22400.00
03907              -0.20    22400.00
03908               0.20    22200.00
03909               0.40    22200.00
03910               0.60    22000.00
03911              -0.20    22000.00
03912              -0.20    22000.00
03913               1.00    21600.00
03914               0.20    21600.00
03915              -0.40    21600.00
03916               0.60    21400.00
03917               0.40    21400.00
03918              -0.20    21200.00
03919              -0.20    21000.00
03920               1.00    20800.00
03921              -0.60    20600.00
03922              -0.20    20400.00
03923               1.80    20400.00
03924              -0.60    20000.00
03925              -0.40    19800.00
03926               1.40    19600.00
03927              -1.20    19400.00
03928               0.20    19200.00
03929               1.20    19000.00
03930              -1.20    18800.00
03931               0.20    18400.00
03932               1.20    18200.00
03933              -0.60    17800.00
03934              -0.20    17600.00
03935               0.40    17200.00
03936              -0.20    17000.00
03937              -0.20    16800.00
03938               0.40    16400.00
03939              -0.20    16200.00
03940               0.20    16000.00
03941               0.40    15600.00
03942              -0.20    15400.00
03943              -0.20    15000.00
03944               0.20    14600.00
03945               0.00    14400.00
03946              -0.20    14000.00
03947               0.20    13600.00
03948              -0.40    13200.00
03949              -0.40    13000.00
03950               0.20    12600.00
03951               0.20    12400.00
03952              -0.40    11800.00
03953               0.40    11400.00
03954               0.00    11200.00
03955              -0.60    10800.00
03956               0.20    10400.00
03957               0.00    10000.00
03958              -0.60     9600.00
03959               0.20     9200.00
03960               0.00     8800.00
03961              -0.60     8400.00
03962              -0.20     8000.00
03963               0.20     7800.00
03964              -0.60     7200.00
03965              -0.40     6800.00
03966               0.00     6400.00
03967              -0.60     6000.00
03968              -0.60     5600.00
03969               0.20     5200.00
03970              -0.40     4600.00
03971              -1.20     4200.00
03972               0.20     4000.00
03973              -0.40     3400.00
03974              -1.00     3000.00
03975               0.20     2400.00
03976               0.00     2200.00
03977              -1.00     1800.00
03978              -1.00     1400.00
03979              -0.60      800.00
03980              -1.00      400.00
03981              -0.60      200.00
03982              -0.20     -200.00
03983               1.00     -800.00
03984               2.80    -1200.00
03985              -1.80    -1600.00
03986              -2.20    -1800.00
03987               1.40    -2400.00
03988               0.20    -2600.00
03989              -3.20    -3000.00
03990               4.40    -3400.00
03991              23.60    -3800.00
03992              17.80    -4800.00
03993             -25.00    -5200.00
03994             -17.80    -5600.00
03995              25.00    -5800.00
03996             -18.20    -6200.00
03997             -25.00    -6000.00
03998              25.00    -6800.00
03999              25.00    -7400.00
04000             -25.00    -7200.00
04001              25.00    -8400.00
04002              25.00    -8600.00
04003             -25.00    -8800.00
04004              25.00    -9600.00
04005              25.00    -9600.00
04006             -25.00   -10000.00
04007               7.80   -10400.00
04008              25.00   -10600.00
04009               9.80   -11400.00
04010             -25.00   -11600.00
04011              -5.00   -12000.00
04012              25.00   -12400.00
04013             -25.00   -12400.00
04014              -8.20   -13200.00
04015              25.00   -13200.00
04016             -11.60   -13800.00
04017             -21.40   -14200.00
04018               3.80   -14400.00
04019              21.00   -14800.00
04020             -23.40   -15200.00
04021              -3.80   -15400.00
04022              25.00   -15800.00
04023             -19.00   -16000.00
04024              -5.80   -16400.00
04025              11.00   -16600.00
04026              -6.80   -16800.00
04027              -5.20   -17200.00
04028               2.80   -17400.00
04029               3.40   -17600.00
04030              -2.80   -18000.00
04031              -2.00   -18400.00
04032              -0.20   -18600.00
04033               0.20   -18800.00
04034              -5.40   -19000.00
04035               0.20   -19400.00
04036               3.80   -19600.00
04037              -4.00   -19800.00
04038              -1.60   -20000.00
04039               2.60   -20200.00
04040              -3.40   -20400.00
04041              -6.20   -20600.00
04042               4.40   -20800.00
04043              -1.20   -21000.00
04044              -5.20   -21000.00
04045               4.60   -21200.00
04046              -2.20   -21200.00
04047              -4.60   -21600.00
04048               0.60   -21600.00
04049              -0.40   -21800.00
04050              -3.40   -22000.00
04051              -0.60   -22000.00
04052               1.00   -22200.00
04053              -2.60   -22200.00
04054              -2.00   -22400.00
04055              -1.00   -22400.00
04056              -1.00   -22400.00
04057              -1.40   -22400.00
04058              -2.20   -22600.00
04059               0.20   -22600.00
04060              -1.00   -22600.00
04061              -3.60   -22400.00
04062               0.40   -22600.00
04063              -0.60   -22600.00
04064              -2.80   -22600.00
04065               0.20   -22600.00
04066              -0.60   -22600.00
04067              -2.20   -22600.00
04068              -1.40   -22600.00
04069              -0.60   -22600.00
04070              -1.40   -22400.00
04071              -1.40   -22400.00
04072              -0.60   -22400.00
04073              -1.00   -22200.00
04074              -1.00   -22400.00
04075              -1.40   -22000.00
04076              -1.40   -22000.00
04077              -0.40   -21800.00
04078              -2.20   -21800.00
04079              -1.20   -21600.00
04080               0.40   -21600.00
04081              -1.40   -21600.00
04082              -1.20   -21200.00
04083              -0.60   -21200.00
04084              -1.20   -21000.00
04085              -1.60   -20800.00
04086              -0.60   -20400.00
04087              -0.60   -20400.00
04088              -1.40   -20200.00
04089              -0.60   -20000.00
04090              -1.40   -19800.00
04091              -2.20   -19600.00
04092              -1.00   -19600.00
04093              -1.20   -19000.00
04094              -0.80   -19000.00
04095              -0.40   -18600.00
04096              -1.00   -18400.00
04097              -1.40   -18200.00
04098              -0.60   -17800.00
04099              -0.60   -17600.00
04100              -2.20   -17200.00
04101              -0.60   -17000.00
04102              -0.20   -16800.00
04103              -2.00   -16600.00
04104              -1.00   -16400.00
04105               0.20   -16000.00
04106              -1.80   -15600.00
04107              -2.20   -15400.00
04108              -1.00   -14800.00
04109              -1.20   -14800.00
04110              -1.80   -14400.00
04111               0.00   -14000.00
04112               0.20   -13600.00
04113              -2.80   -13200.00
04114              -1.00   -13000.00
04115               1.00   -12800.00
04116              -2.20   -12200.00
04117              -2.00   -12000.00
04118               0.00   -11400.00
04119              -1.00   -11200.00
04120              -2.80   -10800.00
04121              -0.60   -10400.00
04122               0.20   -10000.00
04123              -2.40    -9600.00
04124              -1.40    -9200.00
04125               0.20    -8800.00
04126              -1.20    -8400.00
04127              -0.60    -8000.00
04128              -0.60    -7600.00
04129              -1.20    -7200.00
04130              -1.80    -6800.00
04131              -2.00    -6400.00
04132               0.20    -6000.00
04133              -0.40    -5600.00
04134              -0.60    -5000.00
04135              -0.60    -4600.00
04136              -1.80    -4200.00
04137              -0.20    -4000.00
04138              -0.60    -3400.00
04139              -2.20    -3000.00
04140              -0.40    -2600.00
04141               0.20    -2200.00
04142              -1.20    -1800.00
04143              -0.60    -1600.00
04144               0.20    -1000.00
04145              -1.00     -400.00
04146              -0.80        0.00
04147               0.40      400.00
04148               1.20      800.00
04149               2.60     1200.00
04150              -2.20     1600.00
04151              -0.60     2000.00
04152               3.60     2400.00
04153              -0.60     2600.00
04154              -3.40     3000.00
04155               5.00     3400.00
04156              11.60     3800.00
04157              22.60     4600.00
04158             -13.60     5200.00
04159             -25.00     5600.00
04160               9.00     5800.00
04161              25.00     6200.00
04162             -25.00     6400.00
04163             -25.00     6800.00
04164              25.00     7600.00
04165              25.00     7800.00
04166             -25.00     8200.00
04167              25.00     8600.00
04168              25.00     8600.00
04169             -25.00     9400.00
04170               7.60     9600.00
04171              25.00    10000.00
04172             -25.00    10400.00
04173             -16.20    10800.00
04174              25.00    11200.00
04175              -2.60    11400.00
04176             -25.00    11800.00
04177               7.60    12200.00
04178              25.00    12600.00
04179             -19.40    13000.00
04180             -11.80    13400.00
04181              22.40    13600.00
04182               2.20    14200.00
04183             -19.80    14400.00
04184              -0.60    14800.00
04185              18.60    15200.00
04186             -11.00    15400.00
04187              -7.40    15800.00
04188              19.40    16000.00
04189              -6.00    16400.00
04190             -11.80    16600.00
04191              11.20    16600.00
04192               0.20    17200.00
04193              -9.20    17400.00
04194               6.60    17600.00
04195               4.60    18000.00
04196              -4.20    18200.00
04197              -0.60    18600.00
04198               1.40    18800.00
04199              -1.00    19000.00
04200              -1.00    19200.00
04201               0.60    19400.00
04202               2.20    19600.00
04203               1.00    20000.00
04204              -2.00    20000.00
04205               1.40    20400.00
04206               0.60    20400.00
04207              -3.40    20600.00
04208               2.80    20800.00
04209               2.40    21000.00
04210              -3.40    21200.00
04211               2.20    21200.00
04212               1.40    21600.00
04213              -3.00    21600.00
04214               0.60    21600.00
04215               2.40    21800.00
04216              -0.60    22000.00
04217               0.20    22000.00
04218               2.00    22200.00
04219              -0.80    22200.00
04220              -0.40    22200.00
04221               1.00    22200.00
04222               0.20    22400.00
04223               1.00    22400.00
04224              -0.20    22400.00
04225               0.40    22400.00
04226               1.80    22600.00
04227              -1.40    22400.00
04228              -0.20    22400.00
04229               2.00    22600.00
04230              -0.20    22400.00
04231              -0.20    22400.00
04232               1.60    22400.00
04233               0.20    22400.00
04234              -0.60    22400.00
04235               1.20    22400.00
04236               0.40    22400.00
04237              -1.00    22200.00
04238               1.20    22200.00
04239               0.40    22200.00
04240              -0.20    22000.00
04241               0.20    22000.00
04242               0.20    21800.00
04243               0.40    21600.00
04244               0.20    21600.00
04245              -0.40    21400.00
04246               0.40    21200.00
04247               0.40    21200.00
04248               0.20    20800.00
04249               0.20    21000.00
04250               0.40    20800.00
04251              -0.80    20400.00
04252               0.40    20400.00
04253               0.60    20200.00
04254              -0.60    20000.00
04255               0.20    19600.00
04256               1.20    19600.00
04257              -1.00    19200.00
04258              -0.20    19000.00
04259               0.60    19000.00
04260              -0.40    18600.00
04261              -0.20    18400.00
04262               0.80    18000.00
04263              -0.40    18000.00
04264               0.20    17600.00
04265               0.80    17200.00
04266              -0.40    17200.00
04267              -0.20    16600.00
04268               1.00    16600.00
04269              -0.60    16000.00
04270              -0.40    16000.00
04271               1.00    15600.00
04272              -0.20    15200.00
04273              -0.60    15000.00
04274               1.00    14600.00
04275               0.60    14400.00
04276              -1.00    14000.00
04277               0.20    13600.00
04278               0.40    13200.00
04279              -1.00    12800.00
04280               0.40    12600.00
04281               1.00    12200.00
04282              -0.60    11800.00
04283              -0.20    11400.00
04284               0.60    11200.00
04285              -0.20    10800.00
04286               0.00    10400.00
04287              -0.60    10000.00
04288              -0.80     9600.00
04289               0.40     9200.00
04290               0.60     8800.00
04291              -0.40     8400.00
04292              -0.60     8200.00
04293              -0.60     7600.00
04294              -0.20     7200.00
04295              -0.40     6800.00
04296              -0.20     6400.00
04297               0.20     6000.00
04298               0.20     5600.00
04299              -0.60     5000.00
04300              -1.20     4600.00
04301              -0.20     4400.00
04302              -0.20     3800.00
04303              -1.00     3200.00
04304              -0.60     3000.00
04305              -0.20     2400.00
04306              -1.00     2000.00
04307              -0.60     1600.00
04308              -0.20     1200.00
04309              -0.60      800.00
04310              -0.60      400.00
04311               0.20        0.00
04312              -0.40     -400.00
04313               0.40     -800.00
04314               3.80    -1200.00
04315              -3.00    -1600.00
04316              -2.20    -2000.00
04317               3.00    -2400.00
04318              -0.80    -2600.00
04319              -3.40    -3000.00
04320               7.00    -3400.00
04321              25.00    -4000.00
04322               3.60    -4800.00
04323             -25.00    -5400.00
04324              -3.00    -5800.00
04325              25.00    -6000.00
04326             -25.00    -6400.00
04327             -25.00    -6000.00
04328              25.00    -6800.00
04329              -6.60    -7400.00
04330             -25.00    -7400.00
04331              25.00    -8600.00
04332              25.00    -8400.00
04333             -25.00    -9000.00
04334              25.00    -9600.00
04335              25.00    -9400.00
04336             -25.00   -10200.00
04337              17.40   -10600.00
04338              25.00   -10800.00
04339               5.20   -11400.00
04340             -25.00   -11600.00
04341              12.40   -12000.00
04342              25.00   -12400.00
04343             -25.00   -12400.00
04344               7.40   -13200.00
04345              25.00   -13400.00
04346             -18.60   -13800.00
04347             -19.00   -14400.00
04348              10.80   -14600.00
04349              15.60   -14800.00
04350             -25.00   -15200.00
04351               8.20   -15600.00
04352              21.20   -15600.00
04353             -23.60   -16000.00
04354               1.20   -16600.00
04355               8.40   -16800.00
04356              -7.40   -17000.00
04357              -3.60   -17200.00
04358               4.20   -17400.00
04359               2.00   -17600.00
04360              -4.20   -18000.00
04361              -1.00   -18400.00
04362               0.40   -18600.00
04363              -1.20   -18800.00
04364              -5.20   -19200.00
04365               1.80   -19200.00
04366               2.20   -19600.00
04367              -4.60   -19800.00
04368              -0.60   -20000.00
04369               2.20   -20200.00
04370              -4.40   -20400.00
04371              -4.40   -20400.00
04372               5.40   -20600.00
04373              -4.60   -20800.00
04374              -3.60   -21000.00
04375               5.80   -21200.00
04376              -3.80   -21400.00
04377              -3.80   -21600.00
04378               2.00   -21800.00
04379              -1.20   -21800.00
04380              -3.80   -22000.00
04381               0.40   -22000.00
04382               0.40   -22200.00
04383              -3.00   -22000.00
04384              -1.40   -22400.00
04385              -1.20   -22400.00
04386              -0.60   -22400.00
04387              -2.20   -22400.00
04388              -2.80   -22600.00
04389               1.80   -22600.00
04390              -1.00   -22600.00
04391              -4.20   -22400.00
04392               1.40   -22600.00
04393              -1.40   -22400.00
04394              -3.80   -22600.00
04395               1.20   -22600.00
04396              -0.20   -22600.00
04397              -2.80   -22600.00
04398              -1.00   -22600.00
04399              -0.20   -22600.00
04400              -2.20   -22400.00
04401              -1.80   -22400.00
04402              -0.40   -22400.00
04403              -1.80   -22400.00
04404              -0.40   -22000.00
04405              -2.00   -22000.00
04406               0.00   -22000.00
04407              -0.60   -21800.00
04408              -2.60   -21800.00
04409               0.20   -21600.00
04410              -1.00   -21400.00
04411              -2.20   -21400.00
04412              -0.60   -21200.00
04413              -1.00   -21000.00
04414              -0.80   -21000.00
04415              -1.40   -20800.00
04416              -0.60   -20600.00
04417              -0.60   -20400.00
04418              -1.80   -20200.00
04419              -0.60   -20000.00
04420              -1.00   -19800.00
04421              -1.80   -19600.00
04422              -1.20   -19400.00
04423              -1.00   -19200.00
04424              -0.20   -18800.00
04425              -1.40   -18600.00
04426              -1.80   -18400.00
04427               0.00   -18000.00
04428              -1.20   -17800.00
04429              -2.20   -17400.00
04430              -1.20   -17200.00
04431              -0.20   -17200.00
04432              -1.80   -16800.00
04433              -1.80   -16400.00
04434              -0.20   -16200.00
04435              -1.00   -16000.00
04436              -2.00   -15600.00
04437              -0.40   -15200.00
04438              -0.60   -14800.00
04439              -1.40   -14600.00
04440              -1.40   -14200.00
04441              -1.00   -13800.00
04442              -1.20   -13600.00
04443              -1.60   -13200.00
04444              -1.00   -12800.00
04445              -0.60   -12400.00
04446              -1.20   -12200.00
04447              -1.00   -11800.00
04448              -1.20   -11400.00
04449              -0.60   -11000.00
04450              -1.00   -10600.00
04451              -1.20   -10200.00
04452              -0.60    -9800.00
04453              -1.20    -9600.00
04454              -1.20    -9200.00
04455              -0.60    -8800.00
04456              -1.00    -8200.00
04457              -1.80    -8000.00
04458              -0.60    -7600.00
04459               0.20    -7200.00
04460              -1.80    -6800.00
04461              -1.40    -6400.00
04462               0.40    -6000.00
04463              -1.00    -5600.00
04464              -1.80    -5000.00
04465              -0.20    -4600.00
04466              -0.60    -4200.00
04467              -1.80    -3800.00
04468              -0.20    -3400.00
04469              -0.40    -2800.00
04470              -1.20    -2600.00
04471              -0.20    -2000.00
04472              -0.60    -1600.00
04473              -1.00    -1200.00
04474              -0.40     -800.00
04475              -1.40     -400.00
04476               1.00        0.00
04477               0.40      400.00
04478               0.20      800.00
04479               3.40     1200.00
04480              -2.00     1600.00
04481              -2.20     2000.00
04482               3.80     2400.00
04483               0.40     2800.00
04484              -3.80     3200.00
04485               5.80     3400.00
04486              14.00     4000.00
04487              21.40     4800.00
04488             -24.20     5200.00
04489             -25.00     5600.00
04490              19.60     6000.00
04491              19.60     6200.00
04492             -25.00     6400.00
04493             -17.80     6800.00
04494              25.00     7400.00
04495               7.40     7800.00
04496             -25.00     8200.00
04497              25.00     8600.00
04498              25.00     8800.00
04499             -25.00     9200.00
04500              25.00     9600.00
04501              25.00    10000.00
04502             -25.00    10400.00
04503              -4.40    10800.00
04504              25.00    11200.00
04505             -10.20    11600.00
04506             -25.00    12000.00
04507              18.60    12400.00
04508              25.00    12600.00
04509             -25.00    13000.00
04510              -4.60    13400.00
04511              25.00    14000.00
04512              -6.00    14200.00
04513             -21.00    14600.00
04514               8.60    14800.00
04515              15.40    15200.00
04516             -17.40    15600.00
04517               1.20    15800.00
04518              18.20    16000.00
04519             -13.40    16400.00
04520              -6.20    16600.00
04521              12.20    16800.00
04522              -4.40    17200.00
04523              -6.80    17400.00
04524               8.00    17800.00
04525               2.80    18200.00
04526              -3.80    18400.00
04527              -0.60    18400.00
04528               2.00    19000.00
04529              -0.40    19200.00
04530              -2.00    19400.00
04531               0.80    19600.00
04532               2.60    19800.00
04533              -0.20    20000.00
04534              -2.20    20000.00
04535               3.00    20400.00
04536              -0.40    20400.00
04537              -3.40    20800.00
04538               3.80    20800.00
04539               1.20    21200.00
04540              -2.20    21200.00
04541               2.60    21400.00
04542               0.60    21600.00
04543              -2.80    21600.00
04544               1.00    21800.00
04545               2.00    21800.00
04546              -0.60    22000.00
04547               0.80    22200.00
04548               1.60    22200.00
04549              -1.00    22200.00
04550              -0.20    22200.00
04551               1.00    22200.00
04552              -0.40    22400.00
04553               0.40    22400.00
04554               0.20    22400.00
04555               1.00    22400.00
04556               0.40    22400.00
04557              -0.60    22400.00
04558               1.00    22400.00
04559               1.00    22400.00
04560              -0.60    22600.00
04561               0.20    22400.00
04562               1.00    22400.00
04563              -0.40    22400.00
04564               0.20    22400.00
04565               1.00    22400.00
04566              -0.20    22200.00
04567              -0.40    22400.00
04568               1.00    22200.00
04569               0.00    22000.00
04570               0.00    22000.00
04571               0.20    22000.00
04572               0.20    21800.00
04573               0.40    21600.00
04574              -0.60    21600.00
04575               0.20    21400.00
04576               1.80    21200.00
04577              -0.20    21200.00
04578               0.20    21000.00
04579               0.40    20800.00
04580              -0.60    20800.00
04581              -0.60    20400.00
04582               1.20    20400.00
04583              -0.20    20000.00
04584              -0.40    19800.00
04585               0.60    19600.00
04586               0.00    19600.00
04587              -0.60    19200.00
04588               0.60    19000.00
04589              -0.40    19000.00
04590               0.40    18600.00
04591               1.60    18400.00
04592              -0.20    18200.00
04593              -1.00    17600.00
04594               0.40    17600.00
04595              -0.20    17200.00
04596              -0.40    17000.00
04597               1.00    16600.00
04598               0.40    16400.00
04599              -0.80    16000.00
04600               0.60    15800.00
04601              -0.20    15600.00
04602              -1.20    15200.00
04603               1.00    14800.00
04604               0.20    14800.00
04605              -0.20    14400.00
04606               1.00    14000.00
04607              -0.40    13600.00
04608              -0.40    13200.00
04609               0.40    12800.00
04610              -0.20    12600.00
04611              -0.40    12200.00
04612               0.40    11800.00
04613              -0.40    11200.00
04614               0.20    11000.00
04615               0.40    10800.00
04616              -0.60    10200.00
04617              -0.20     9800.00
04618               0.40     9400.00
04619              -0.60     9200.00
04620              -0.20     8800.00
04621               0.40     8400.00
04622              -0.60     8000.00
04623              -0.40     7600.00
04624               0.00     7000.00
04625              -0.80     6800.00
04626              -0.60     6200.00
04627              -0.40     6000.00
04628              -0.40     5600.00
04629              -0.20     5000.00
04630              -0.40     4600.00
04631              -0.80     4200.00
04632              -0.40     3800.00
04633              -0.40     3400.00
04634              -1.00     2800.00
04635              -0.20     2400.00
04636               0.20     2000.00
04637              -0.80     1600.00
04638              -0.40     1200.00
04639              -0.40      800.00
04640              -1.00      400.00
04641              -0.60     -200.00
04642               0.20     -400.00
04643               1.20    -1000.00
04644               2.00    -1200.00
04645              -2.60    -1600.00
04646              -1.20    -2000.00
04647               2.00    -2400.00
04648              -1.00    -2800.00
04649              -2.00    -3200.00
04650               9.20    -3600.00
04651              25.00    -4200.00
04652             -10.80    -5000.00
04653             -25.00    -5200.00
04654              11.80    -5800.00
04655              25.00    -6000.00
04656             -25.00    -6200.00
04657             -13.40    -6000.00
04658              25.00    -7200.00
04659             -25.00    -7200.00
04660             -25.00    -7600.00
04661              25.00    -8600.00
04662             -12.20    -8400.00
04663             -25.00    -9000.00
04664              25.00    -9600.00
04665              -1.00    -9600.00
04666             -25.00   -10000.00
04667              24.60   -10400.00
04668              22.20   -10800.00
04669              -2.60   -11400.00
04670             -25.00   -11600.00
04671              25.00   -12200.00
04672              25.00   -12400.00
04673             -25.00   -12800.00
04674              21.20   -13200.00
04675              25.00   -13200.00
04676             -22.60   -14000.00
04677             -15.40   -14400.00
04678              16.40   -14600.00
04679               8.40   -14800.00
04680             -25.00   -15200.00
04681              18.00   -15600.00
04682              13.00   -16000.00
04683             -23.80   -16200.00
04684               6.00   -16400.00
04685               4.80   -16800.00
04686              -8.20   -17000.00
04687              -2.00   -17200.00
04688               5.20   -17600.00
04689               0.40   -17800.00
04690              -4.20   -18000.00
04691              -0.60   -18400.00
04692              -0.40   -18800.00
04693              -2.20   -19000.00
04694              -5.20   -19200.00
04695               2.80   -19400.00
04696               1.60   -19600.00
04697              -5.00   -19800.00
04698               0.40   -20000.00
04699               2.80   -20200.00
04700              -6.80   -20400.00
04701              -3.00   -20800.00
04702               6.40   -20800.00
04703              -6.20   -20800.00
04704              -2.00   -21000.00
04705               5.20   -21200.00
04706              -6.00   -21200.00
04707              -3.20   -21600.00
04708               2.20   -21600.00
04709              -2.00   -21800.00
04710              -3.40   -21800.00
04711               1.80   -22000.00
04712              -0.40   -22000.00
04713              -3.80   -22200.00
04714              -0.60   -22400.00
04715              -1.00   -22400.00
04716              -1.40   -22400.00
04717              -1.20   -22400.00
04718              -1.20   -22600.00
04719               0.20   -22600.00
04720              -2.00   -22600.00
04721              -2.60   -22600.00
04722               1.00   -22600.00
04723              -2.60   -22600.00
04724              -2.60   -22600.00
04725               0.40   -22600.00
04726              -1.20   -22600.00
04727              -1.80   -22800.00
04728              -0.60   -22400.00
04729              -0.40   -22600.00
04730              -1.80   -22400.00
04731              -1.40   -22400.00
04732              -0.60   -22400.00
04733              -1.40   -22200.00
04734              -0.80   -22200.00
04735              -1.80   -22000.00
04736              -1.00   -22000.00
04737              -1.00   -21800.00
04738              -2.20   -21600.00
04739              -0.40   -21600.00
04740              -0.40   -21600.00
04741              -2.00   -21200.00
04742              -0.60   -21200.00
04743              -0.20   -21000.00
04744              -1.80   -20800.00
04745              -1.40   -20800.00
04746              -0.60   -20600.00
04747              -1.80   -20400.00
04748              -1.40   -20200.00
04749               0.20   -20000.00
04750              -1.80   -19600.00
04751              -1.80   -19600.00
04752               0.20   -19400.00
04753              -1.60   -19200.00
04754              -1.80   -19000.00
04755              -0.60   -18600.00
04756              -1.40   -18400.00
04757              -1.20   -18000.00
04758              -0.80   -17800.00
04759              -1.20   -17400.00
04760              -1.40   -17200.00
04761              -0.80   -17000.00
04762              -1.40   -16600.00
04763              -1.20   -16400.00
04764              -1.20   -16200.00
04765              -2.00   -16000.00
04766              -0.40   -15600.00
04767              -1.40   -15200.00
04768              -2.00   -14800.00
04769              -0.20   -14400.00
04770              -1.00   -14200.00
04771              -1.80   -13800.00
04772              -0.40   -13600.00
04773              -1.20   -13000.00
04774              -1.80   -13000.00
04775              -0.60   -12400.00
04776              -1.20   -12200.00
04777              -1.60   -11800.00
04778              -0.60   -11400.00
04779              -0.60   -10800.00
04780              -1.40   -10600.00
04781              -1.00   -10200.00
04782              -1.00    -9800.00
04783              -1.40    -9600.00
04784              -1.00    -9200.00
04785              -0.60    -8600.00
04786              -1.00    -8400.00
04787              -1.00    -8000.00
04788              -0.60    -7400.00
04789              -0.80    -6800.00
04790              -1.20    -6600.00
04791              -0.60    -6200.00
04792              -0.20    -5800.00
04793              -1.40    -5600.00
04794              -1.20    -5000.00
04795              -0.20    -4600.00
04796              -1.20    -4000.00
04797              -1.20    -3600.00
04798               0.20    -3200.00
04799              -0.20    -2800.00
04800              -1.40    -2400.00
04801              -0.20    -2000.00
04802              -0.20    -1600.00
04803              -1.20    -1200.00
04804              -0.60     -800.00
04805               0.20     -400.00
04806              -0.40      200.00
04807              -0.20      400.00
04808               3.00      800.00
04809               1.20     1200.00
04810              -3.00     1800.00
04811               0.80     2000.00
04812               2.80     2400.00
04813              -1.80     2800.00
04814              -2.00     3200.00
04815               6.20     3600.00
04816              16.20     4000.00
04817              19.00     4800.00
04818             -25.00     5400.00
04819             -25.00     5600.00
04820              25.00     6000.00
04821               9.40     6200.00
04822             -25.00     6400.00
04823              -0.40     7000.00
04824              25.00     7600.00
04825             -25.00     7800.00
04826             -25.00     8400.00
04827              25.00     8400.00
04828              16.40     8800.00
04829             -25.00     9400.00
04830              25.00     9600.00
04831              25.00    10200.00
04832             -25.00    10600.00
04833              12.20    10800.00
04834              25.00    11200.00
04835             -20.20    11600.00
04836             -25.00    12000.00
04837              25.00    12400.00
04838              18.00    12800.00
04839             -25.00    13200.00
04840               3.60    13600.00
04841              25.00    13800.00
04842             -11.60    14200.00
04843             -18.80    14400.00
04844              13.80    15000.00
04845              10.00    15200.00
04846             -19.80    15600.00
04847               8.20    15800.00
04848              15.60    16000.00
04849             -16.60    16400.00
04850              -0.60    16600.00
04851              11.80    16800.00
04852              -7.80    17400.00
04853              -4.20    17600.00
04854               9.40    17600.00
04855              -0.60    18200.00
04856              -3.80    18400.00
04857               1.80    18600.00
04858               0.40    18800.00
04859              -1.20    19200.00
04860              -0.20    19400.00
04861               1.20    19600.00
04862               2.00    19600.00
04863               0.20    20000.00
04864              -1.40    20000.00
04865               2.00    20400.00
04866              -1.20    20600.00
04867              -2.20    21000.00
04868               4.40    20800.00
04869              -0.60    21200.00
04870              -1.80    21200.00
04871               3.40    21400.00
04872              -0.40    21400.00
04873              -2.60    21600.00
04874               1.80    21600.00
04875               1.20    22000.00
04876              -1.40    22000.00
04877               1.60    22200.00
04878               1.20    22000.00
04879              -1.40    22200.00
04880               0.40    22400.00
04881               0.60    22400.00
04882              -0.20    22400.00
04883               0.40    22400.00
04884              -0.20    22600.00
04885               1.00    22400.00
04886               0.40    22600.00
04887              -1.40    22400.00
04888               1.00    22400.00
04889               1.00    22600.00
04890              -1.00    22400.00
04891               0.60    22600.00
04892               0.60    22400.00
04893              -0.40    22400.00
04894               0.20    22400.00
04895               0.40    22400.00
04896               0.40    22400.00
04897               0.20    22200.00
04898              -0.40    22200.00
04899               0.60    22200.00
04900               0.80    22000.00
04901              -1.40    22000.00
04902               0.40    21800.00
04903               1.40    21600.00
04904              -1.60    21600.00
04905              -0.40    21400.00
04906               1.80    21400.00
04907              -0.80    21000.00
04908              -0.40    20800.00
04909               1.20    20800.00
04910              -0.40    20800.00
04911              -0.60    20600.00
04912               1.80    20400.00
04913               0.20    20400.00
04914              -0.60    20000.00
04915               0.40    19800.00
04916               0.20    19600.00
04917              -0.20    19200.00
04918               0.40    19000.00
04919               0.00    18800.00
04920               0.20    18600.00
04921               0.40    18400.00
04922               0.20    18200.00
04923              -0.40    17800.00
04924               0.20    17400.00
04925               0.20    17200.00
04926              -0.60    16800.00
04927               1.20    16600.00
04928               0.40    16400.00
04929              -0.60    16200.00
04930               1.00    15800.00
04931               0.20    15600.00
04932              -0.40    15000.00
04933               0.20    14800.00
04934               0.20    14600.00
04935              -0.60    14200.00
04936               0.20    13600.00
04937               0.40    13400.00
04938              -1.00    13200.00
04939               0.60    12800.00
04940               1.00    12600.00
04941              -1.00    12000.00
04942               0.40    11800.00
04943               0.40    11200.00
04944              -0.60    10800.00
04945               0.40    10600.00
04946              -0.60    10200.00
04947              -0.40     9800.00
04948               0.00     9600.00
04949              -1.00     9200.00
04950               0.40     8600.00
04951              -0.20     8400.00
04952              -1.20     7800.00
04953               0.00     7400.00
04954               0.20     7200.00
04955              -1.40     6600.00
04956              -0.20     6200.00
04957               0.40     5800.00
04958              -2.00     5400.00
04959               0.60     4800.00
04960              -0.20     4600.00
04961              -2.00     4000.00
04962               0.40     3600.00
04963              -0.20     3200.00
04964              -1.40     2800.00
04965               0.20     2400.00
04966              -0.40     2000.00
04967              -1.60     1400.00
04968              -0.20     1200.00
04969              -0.60      600.00
04970              -1.00      400.00
04971               0.40        0.00
04972              -0.20     -400.00
04973               1.40    -1000.00
04974               2.00    -1200.00
04975              -3.00    -1800.00
04976              -1.00    -2200.00
04977               2.60    -2400.00
04978              -1.80    -2800.00
04979              -1.20    -3200.00
04980              12.80    -3400.00
04981              25.00    -4400.00
04982             -25.00    -5000.00
04983             -25.00    -5400.00
04984              24.60    -5800.00
04985              22.60    -6000.00
04986             -25.00    -6000.00
04987              16.60    -6400.00
04988              25.00    -7400.00
04989             -25.00    -7200.00
04990             -25.00    -7800.00
04991              25.00    -8600.00
04992             -25.00    -8400.00
04993             -25.00    -9200.00
04994              25.00    -9600.00
04995             -25.00    -9600.00
04996             -25.00   -10400.00
04997              25.00   -10600.00
04998              18.80   -10800.00
04999             -11.60   -11600.00
05000             -25.00   -11600.00
