Unit:(mV)
                     CH1         CH2
Frequency              ? 300.011 kHz
00001              14.40    -4800.00
00002              21.80    -6400.00
00003             -25.00    -8000.00
00004             -21.20    -8000.00
00005              25.00    -8000.00
00006             -10.80    -8800.00
00007             -25.00    -8800.00
00008              25.00    -9600.00
00009              25.00   -10400.00
00010             -25.00   -11200.00
00011              25.00   -11200.00
00012              25.00   -12800.00
00013             -25.00   -12800.00
00014              25.00   -13600.00
00015              -7.80   -13600.00
00016             -21.20   -14400.00
00017              25.00   -14400.00
00018             -25.00   -14400.00
00019              25.00   -16000.00
00020              22.00   -16000.00
00021             -25.00   -16800.00
00022              25.00   -16800.00
00023              19.40   -17600.00
00024             -25.00   -17600.00
00025               8.40   -19200.00
00026              25.00   -19200.00
00027             -25.00   -20000.00
00028              18.40   -20000.00
00029              18.60   -20800.00
00030             -25.00   -21600.00
00031              21.80   -21600.00
00032              -2.00   -22400.00
00033             -17.00   -23200.00
00034              15.60   -23200.00
00035              -1.40   -23200.00
00036             -11.00   -24000.00
00037              15.40   -24000.00
00038              -5.00   -24800.00
00039              -8.60   -25600.00
00040              13.80   -25600.00
00041              -9.80   -25600.00
00042               0.20   -26400.00
00043               8.20   -27200.00
00044              -7.80   -27200.00
00045               2.20   -27200.00
00046               3.40   -27200.00
00047              -3.60   -27200.00
00048               2.60   -28000.00
00049               2.80   -28800.00
00050              -3.60   -28800.00
00051               1.20   -29600.00
00052               2.60   -29600.00
00053              -3.60   -29600.00
00054               2.80   -29600.00
00055               3.00   -30400.00
00056              -2.20   -30400.00
00057               4.40   -31200.00
00058               0.60   -30400.00
00059              -0.20   -30400.00
00060               3.60   -31200.00
00061               0.40   -31200.00
00062               2.60   -32000.00
00063               3.00   -32000.00
00064               1.40   -32000.00
00065               3.00   -32000.00
00066               3.60   -32000.00
00067               2.60   -32000.00
00068               3.60   -32000.00
00069               5.20   -32800.00
00070               5.00   -32800.00
00071               6.00   -32800.00
00072               7.60   -32000.00
00073               6.60   -32000.00
00074               9.20   -32800.00
00075              10.00   -32000.00
00076               9.80   -32800.00
00077              12.60   -32800.00
00078              11.80   -32800.00
00079              12.60   -32800.00
00080              14.60   -32000.00
00081              13.00   -32000.00
00082              14.00   -32000.00
00083              15.40   -32000.00
00084              15.60   -32000.00
00085              17.40   -32000.00
00086              23.40   -32000.00
00087              16.60   -31200.00
00088               6.80   -31200.00
00089              11.80   -30400.00
00090              11.40   -31200.00
00091               6.60   -30400.00
00092               7.40   -30400.00
00093               6.60   -30400.00
00094               6.00   -30400.00
00095               3.60   -29600.00
00096               3.60   -29600.00
00097               5.80   -29600.00
00098               2.60   -28800.00
00099               1.60   -28800.00
00100               4.80   -28800.00
00101               1.20   -28000.00
00102               1.00   -27200.00
00103               2.80   -27200.00
00104               1.00   -27200.00
00105               0.40   -27200.00
00106               1.80   -27200.00
00107               0.40   -26400.00
00108               0.20   -26400.00
00109               0.80   -25600.00
00110               0.20   -25600.00
00111               0.60   -25600.00
00112               0.60   -24000.00
00113              -0.20   -24000.00
00114               0.60   -23200.00
00115               0.40   -23200.00
00116              -0.20   -23200.00
00117               0.80   -22400.00
00118              -0.40   -20800.00
00119              -0.20   -20800.00
00120               0.40   -20800.00
00121              -0.40   -20000.00
00122              -0.20   -20000.00
00123               0.20   -19200.00
00124               0.00   -18400.00
00125               0.20   -18400.00
00126               0.40   -17600.00
00127              -0.60   -17600.00
00128              -0.20   -16800.00
00129               0.60   -16000.00
00130              -0.60   -16000.00
00131              -0.20   -15200.00
00132               0.60   -14400.00
00133              -0.60   -14400.00
00134               0.40   -13600.00
00135               0.40   -13600.00
00136              -0.60   -12800.00
00137               0.60   -12000.00
00138               0.20   -11200.00
00139              -0.60   -11200.00
00140               0.40   -10400.00
00141               0.00    -9600.00
00142              -0.40    -9600.00
00143               0.20    -8000.00
00144               0.20    -8000.00
00145              -0.60    -7200.00
00146              -0.20    -7200.00
00147               0.40    -6400.00
00148              -0.20    -5600.00
00149              -0.40    -4800.00
00150               0.20    -4800.00
00151               0.20    -4000.00
00152               0.20    -3200.00
00153               0.40    -3200.00
00154              -0.20    -1600.00
00155               0.20    -1600.00
00156               0.20        0.00
00157              -0.60     -800.00
00158               0.60        0.00
00159               0.20      800.00
00160               1.40     1600.00
00161               3.00     1600.00
00162              -2.80     2400.00
00163               0.20     3200.00
00164               2.20     3200.00
00165              -1.40     4000.00
00166               1.20     4000.00
00167              16.40     5600.00
00168              25.00     7200.00
00169             -25.00     8000.00
00170             -25.00     8000.00
00171              25.00     8000.00
00172             -14.20     8800.00
00173             -25.00     8000.00
00174              25.00     9600.00
00175              -6.80     9600.00
00176             -25.00    11200.00
00177              25.00    12000.00
00178             -25.00    12000.00
00179             -12.20    12800.00
00180              25.00    12800.00
00181             -25.00    12800.00
00182              25.00    14400.00
00183             -10.40    15200.00
00184             -25.00    15200.00
00185              25.00    16000.00
00186             -25.00    16000.00
00187              -7.00    17600.00
00188              25.00    17600.00
00189             -25.00    17600.00
00190             -22.00    18400.00
00191              25.00    19200.00
00192             -15.80    20000.00
00193             -25.00    20800.00
00194              25.00    21600.00
00195             -25.00    21600.00
00196               1.80    21600.00
00197              24.60    21600.00
00198             -25.00    22400.00
00199              14.60    23200.00
00200               5.80    23200.00
00201             -15.00    24000.00
00202              10.00    24800.00
00203               6.00    24800.00
00204             -17.80    25600.00
00205              10.60    25600.00
00206              -0.40    25600.00
00207             -10.80    26400.00
00208              14.00    26400.00
00209              -6.60    27200.00
00210              -2.00    27200.00
00211               5.20    28000.00
00212              -6.60    28000.00
00213              -1.40    28000.00
00214               2.60    28800.00
00215              -1.80    28800.00
00216              -3.00    28800.00
00217               1.40    29600.00
00218              -1.20    30400.00
00219              -4.40    30400.00
00220               5.00    30400.00
00221              -3.00    30400.00
00222              -2.20    31200.00
00223               0.60    31200.00
00224              -5.80    31200.00
00225              -1.20    31200.00
00226              -3.00    31200.00
00227              -1.80    32800.00
00228               1.00    31200.00
00229              -2.40    32000.00
00230              -2.80    32800.00
00231              -4.20    32800.00
00232              -3.80    32800.00
00233              -4.60    32800.00
00234              -5.20    32800.00
00235              -3.40    32800.00
00236              -6.00    32800.00
00237              -5.00    33600.00
00238              -5.80    32800.00
00239              -8.20    32800.00
00240              -7.40    32800.00
00241             -11.40    32800.00
00242             -10.00    33600.00
00243             -10.80    32800.00
00244             -14.20    32800.00
00245             -11.00    32800.00
00246             -14.00    32800.00
00247             -14.00    32800.00
00248             -13.40    32800.00
00249             -15.80    32800.00
00250             -15.80    32000.00
00251             -17.40    32800.00
00252             -20.40    32000.00
00253             -23.40    32800.00
00254             -14.80    32000.00
00255              -7.80    32800.00
00256             -11.60    32000.00
00257             -10.20    31200.00
00258              -7.40    31200.00
00259              -7.00    31200.00
00260              -6.80    30400.00
00261              -7.00    30400.00
00262              -4.60    29600.00
00263              -5.20    30400.00
00264              -6.00    29600.00
00265              -2.60    29600.00
00266              -2.80    28800.00
00267              -4.20    28800.00
00268              -2.20    28800.00
00269              -2.00    28800.00
00270              -3.00    28000.00
00271              -2.60    27200.00
00272              -1.20    28000.00
00273              -2.20    27200.00
00274              -1.20    27200.00
00275              -0.20    25600.00
00276              -1.60    25600.00
00277              -1.20    25600.00
00278              -0.60    24800.00
00279              -1.80    24800.00
00280              -1.20    24800.00
00281              -2.00    24000.00
00282              -0.60    24000.00
00283              -0.40    24000.00
00284              -1.80    22400.00
00285              -0.20    21600.00
00286              -1.00    21600.00
00287              -0.60    20800.00
00288               0.40    20800.00
00289              -2.20    20800.00
00290              -0.60    19200.00
00291              -0.40    18400.00
00292              -1.80    18400.00
00293               0.60    18400.00
00294              -0.60    17600.00
00295              -2.20    17600.00
00296               0.20    16000.00
00297              -0.60    16000.00
00298              -2.60    16000.00
00299               0.40    15200.00
00300              -0.20    14400.00
00301              -2.00    14400.00
00302               1.00    13600.00
00303              -1.20    12800.00
00304              -1.40    12000.00
00305               0.20    12000.00
00306              -1.20    11200.00
00307              -0.60    11200.00
00308              -1.00    10400.00
00309              -1.00     9600.00
00310               0.20     8800.00
00311              -2.00     8800.00
00312              -0.40     8000.00
00313              -0.60     6400.00
00314              -1.20     6400.00
00315              -0.20     5600.00
00316              -0.60     5600.00
00317              -1.00     4800.00
00318              -0.60     4000.00
00319              -1.00     3200.00
00320              -0.20     2400.00
00321              -0.60     1600.00
00322              -0.80     1600.00
00323              -0.40      800.00
00324              -0.20        0.00
00325              -0.40        0.00
00326               0.40     -800.00
00327               3.80     -800.00
00328              -1.20    -1600.00
00329              -1.40    -2400.00
00330               1.80    -3200.00
00331              -0.20    -3200.00
00332              -1.20    -4000.00
00333               2.60    -4000.00
00334              10.00    -4800.00
00335              25.00    -6400.00
00336             -19.60    -7200.00
00337             -25.00    -8000.00
00338              19.00    -8000.00
00339               9.40    -8800.00
00340             -25.00    -9600.00
00341               3.00    -9600.00
00342              25.00    -9600.00
00343             -25.00   -10400.00
00344             -23.40   -11200.00
00345              25.00   -11200.00
00346             -25.00   -12000.00
00347               6.80   -12800.00
00348              25.00   -13600.00
00349             -25.00   -13600.00
00350              25.00   -14400.00
00351             -25.00   -14400.00
00352              -9.80   -16000.00
00353              25.00   -16000.00
00354             -25.00   -16800.00
00355               0.60   -17600.00
00356              25.00   -17600.00
00357             -25.00   -18400.00
00358             -15.80   -19200.00
00359              25.00   -18400.00
00360             -24.80   -19200.00
00361              -9.40   -19200.00
00362              25.00   -20800.00
00363             -25.00   -20800.00
00364               4.40   -22400.00
00365              15.40   -22400.00
00366             -22.00   -22400.00
00367               7.40   -23200.00
00368               8.80   -23200.00
00369             -13.40   -23200.00
00370               8.40   -24000.00
00371               6.20   -24800.00
00372             -14.40   -24800.00
00373              10.60   -25600.00
00374              -1.40   -25600.00
00375              -8.20   -25600.00
00376              10.60   -26400.00
00377              -5.20   -27200.00
00378              -1.80   -27200.00
00379               6.60   -27200.00
00380              -3.40   -27200.00
00381               0.20   -28800.00
00382               4.80   -28800.00
00383              -1.80   -28800.00
00384              -2.00   -29600.00
00385               4.20   -29600.00
00386              -2.20   -29600.00
00387              -0.40   -29600.00
00388               4.20   -29600.00
00389              -1.20   -30400.00
00390               2.00   -30400.00
00391               2.00   -30400.00
00392               0.20   -31200.00
00393               2.60   -31200.00
00394               1.00   -32000.00
00395               2.60   -32000.00
00396               3.40   -31200.00
00397               1.00   -32000.00
00398               3.40   -32000.00
00399               3.60   -32000.00
00400               2.80   -32000.00
00401               4.20   -32000.00
00402               4.40   -32000.00
00403               5.40   -32800.00
00404               5.20   -32000.00
00405               6.60   -32800.00
00406               6.80   -32800.00
00407               8.40   -32000.00
00408               9.40   -32800.00
00409              10.00   -32800.00
00410              12.40   -32800.00
00411              11.60   -32800.00
00412              12.40   -32000.00
00413              15.00   -32000.00
00414              13.00   -32000.00
00415              14.00   -32000.00
00416              15.00   -32000.00
00417              14.40   -32000.00
00418              17.20   -32000.00
00419              23.20   -32000.00
00420              19.80   -32000.00
00421               7.80   -31200.00
00422               9.40   -30400.00
00423              12.60   -31200.00
00424               7.00   -30400.00
00425               6.60   -30400.00
00426               7.00   -29600.00
00427               5.80   -30400.00
00428               5.20   -29600.00
00429               3.80   -29600.00
00430               5.40   -28800.00
00431               4.20   -28800.00
00432               1.40   -28800.00
00433               3.60   -28800.00
00434               3.60   -28800.00
00435              -0.80   -28000.00
00436               0.60   -27200.00
00437               3.60   -27200.00
00438               1.00   -27200.00
00439               0.60   -26400.00
00440               1.20   -26400.00
00441              -0.20   -26400.00
00442               0.20   -26400.00
00443               1.00   -25600.00
00444               0.80   -24800.00
00445               0.60   -24800.00
00446               0.40   -24000.00
00447               0.40   -24000.00
00448               0.20   -23200.00
00449               0.20   -23200.00
00450               0.40   -22400.00
00451               0.20   -22400.00
00452              -0.20   -22400.00
00453              -0.20   -20800.00
00454               0.00   -20800.00
00455              -0.20   -20000.00
00456              -0.20   -19200.00
00457               0.40   -18400.00
00458               0.40   -17600.00
00459              -0.20   -18400.00
00460               0.40   -17600.00
00461              -0.20   -16800.00
00462              -0.20   -16800.00
00463               0.40   -16000.00
00464              -0.20   -16000.00
00465              -0.20   -14400.00
00466              -0.20   -14400.00
00467              -0.40   -13600.00
00468              -0.20   -12800.00
00469              -0.40   -12800.00
00470              -0.20   -12800.00
00471               0.20   -12000.00
00472               0.20   -11200.00
00473               0.20   -10400.00
00474              -0.20   -10400.00
00475              -0.20    -9600.00
00476               0.00    -8800.00
00477              -0.20    -8000.00
00478              -0.20    -8000.00
00479              -0.40    -7200.00
00480              -0.20    -6400.00
00481               0.00    -6400.00
00482              -0.60    -4800.00
00483               0.20    -4800.00
00484               0.40    -4000.00
00485              -0.40    -3200.00
00486               0.40    -3200.00
00487               0.40    -2400.00
00488              -0.60    -1600.00
00489               0.20     -800.00
00490               0.20     -800.00
00491              -0.60        0.00
00492               1.00      800.00
00493               1.00      800.00
00494               3.00     1600.00
00495              -1.80     2400.00
00496              -1.20     3200.00
00497               2.00     3200.00
00498               0.40     3200.00
00499              -1.20     4800.00
00500               9.80     5600.00
00501              25.00     7200.00
00502             -17.40     8000.00
00503             -25.00     8000.00
00504              23.00     8000.00
00505               7.40     8800.00
00506             -25.00     8800.00
00507              25.00     9600.00
00508              25.00     9600.00
00509             -25.00    11200.00
00510              25.00    11200.00
00511              21.00    12000.00
00512             -25.00    12000.00
00513              25.00    12800.00
00514             -25.00    12800.00
00515              21.80    14400.00
00516              25.00    14400.00
00517             -25.00    15200.00
00518              25.00    16000.00
00519               4.40    16000.00
00520             -25.00    16000.00
00521              25.00    17600.00
00522              -4.20    18400.00
00523             -25.00    18400.00
00524              25.00    19200.00
00525              16.40    19200.00
00526             -25.00    20800.00
00527              25.00    20800.00
00528               2.60    21600.00
00529             -25.00    21600.00
00530              25.00    22400.00
00531             -25.00    22400.00
00532              -4.20    22400.00
00533              18.20    23200.00
00534             -14.80    24000.00
00535               0.40    24000.00
00536              15.40    24800.00
00537             -14.40    24800.00
00538               1.00    25600.00
00539              10.40    25600.00
00540             -16.60    25600.00
00541               9.80    25600.00
00542               1.20    27200.00
00543              -9.20    27200.00
00544               7.40    28000.00
00545              -3.40    28000.00
00546              -3.80    28000.00
00547               3.60    28000.00
00548              -0.60    28800.00
00549              -3.80    28800.00
00550              -0.20    29600.00
00551               0.60    29600.00
00552              -5.20    30400.00
00553               2.60    30400.00
00554              -1.00    30400.00
00555              -3.60    30400.00
00556               2.60    31200.00
00557              -5.20    31200.00
00558              -2.00    31200.00
00559              -1.20    32000.00
00560              -5.00    31200.00
00561              -0.40    32800.00
00562              -2.00    32000.00
00563              -3.80    32800.00
00564              -2.80    32000.00
00565              -3.00    32800.00
00566              -3.80    32800.00
00567              -4.60    32800.00
00568              -3.60    32800.00
00569              -5.80    32000.00
00570              -6.20    33600.00
00571              -5.00    32800.00
00572              -9.20    32800.00
00573              -7.00    33600.00
00574              -9.00    32800.00
00575             -10.60    32800.00
00576              -9.20    33600.00
00577             -14.00    32000.00
00578             -12.40    32800.00
00579             -13.20    32800.00
00580             -14.80    32800.00
00581             -13.40    32800.00
00582             -15.40    32800.00
00583             -15.40    32800.00
00584             -15.00    32800.00
00585             -18.60    32000.00
00586             -23.60    32800.00
00587             -18.60    32000.00
00588              -9.00    32000.00
00589             -11.20    31200.00
00590             -11.60    31200.00
00591              -8.00    31200.00
00592              -7.00    31200.00
00593              -7.00    30400.00
00594              -7.20    30400.00
00595              -4.40    30400.00
00596              -4.80    30400.00
00597              -6.00    29600.00
00598              -2.20    28800.00
00599              -3.60    28800.00
00600              -4.60    28800.00
00601              -2.00    28800.00
00602              -2.60    28800.00
00603              -2.60    28000.00
00604              -1.40    28000.00
00605              -2.20    28000.00
00606              -1.20    27200.00
00607              -1.20    26400.00
00608              -1.00    26400.00
00609              -1.40    26400.00
00610              -1.40    25600.00
00611              -0.20    24800.00
00612              -1.20    24800.00
00613              -1.60    24800.00
00614              -1.20    24000.00
00615              -0.60    24000.00
00616              -0.80    22400.00
00617              -1.40    23200.00
00618              -0.20    22400.00
00619              -1.80    22400.00
00620              -0.60    21600.00
00621              -0.80    20800.00
00622              -2.00    20800.00
00623               1.20    20000.00
00624              -1.60    19200.00
00625              -1.80    19200.00
00626               0.40    17600.00
00627              -2.00    17600.00
00628              -1.20    17600.00
00629               0.20    16000.00
00630              -0.60    16000.00
00631              -1.20    16000.00
00632              -0.20    15200.00
00633              -0.60    15200.00
00634              -2.00    14400.00
00635               0.20    13600.00
00636              -1.00    12800.00
00637              -2.00    12000.00
00638               1.00    12000.00
00639              -0.60    11200.00
00640              -2.60    11200.00
00641               0.40     9600.00
00642              -0.40     9600.00
00643              -1.00     8800.00
00644               0.20     8800.00
00645              -0.60     8000.00
00646              -1.60     6400.00
00647              -0.60     6400.00
00648              -0.60     7200.00
00649              -0.60     5600.00
00650              -0.40     4800.00
00651              -0.60     4800.00
00652              -1.00     4000.00
00653              -1.00     3200.00
00654              -0.60     2400.00
00655              -1.20     1600.00
00656              -0.40     1600.00
00657               0.20        0.00
00658              -0.60        0.00
00659              -0.20     -800.00
00660               2.80     -800.00
00661               1.00     -800.00
00662              -2.00    -1600.00
00663               1.40    -2400.00
00664               0.60    -3200.00
00665              -1.20    -4000.00
00666               0.40    -4800.00
00667               6.20    -4800.00
00668              22.00    -6400.00
00669               4.60    -7200.00
00670             -25.00    -8000.00
00671               1.40    -8000.00
00672              23.80    -8800.00
00673             -25.00    -8800.00
00674             -22.00    -9600.00
00675              25.00    -9600.00
00676               8.60   -10400.00
00677             -25.00   -10400.00
00678              25.00   -12000.00
00679             -11.60   -12000.00
00680             -25.00   -12800.00
00681              25.00   -12800.00
00682             -25.00   -14400.00
00683              18.00   -14400.00
00684              13.00   -14400.00
00685             -25.00   -16000.00
00686              25.00   -16000.00
00687             -13.80   -16000.00
00688             -25.00   -16800.00
00689              25.00   -16800.00
00690              -6.60   -17600.00
00691             -25.00   -18400.00
00692              25.00   -19200.00
00693               2.60   -19200.00
00694             -25.00   -20000.00
00695              25.00   -20800.00
00696              -7.40   -20800.00
00697             -15.80   -20800.00
00698              24.40   -22400.00
00699             -16.60   -22400.00
00700              -5.00   -23200.00
00701              15.20   -23200.00
00702              -8.60   -24000.00
00703              -2.80   -24000.00
00704              14.20   -24800.00
00705             -12.20   -25600.00
00706               0.40   -25600.00
00707               8.60   -25600.00
00708             -11.60   -26400.00
00709               6.20   -26400.00
00710               1.60   -26400.00
00711              -5.20   -27200.00
00712               4.60   -27200.00
00713               0.20   -27200.00
00714              -2.00   -28800.00
00715               3.60   -28800.00
00716               1.40   -28800.00
00717              -3.60   -28800.00
00718               3.40   -29600.00
00719               1.00   -28800.00
00720              -3.00   -29600.00
00721               5.00   -30400.00
00722               1.00   -30400.00
00723              -1.00   -30400.00
00724               4.20   -30400.00
00725               0.40   -30400.00
00726               0.40   -31200.00
00727               2.40   -32000.00
00728               1.60   -31200.00
00729               2.60   -32000.00
00730               2.60   -32000.00
00731               2.80   -32000.00
00732               3.00   -32000.00
00733               3.40   -32000.00
00734               3.60   -32000.00
00735               3.60   -32000.00
00736               6.00   -32000.00
00737               5.20   -32800.00
00738               6.20   -32000.00
00739               7.60   -32000.00
00740               7.00   -32000.00
00741               9.40   -32800.00
00742               9.80   -32800.00
00743              11.00   -32000.00
00744              12.20   -32800.00
00745              12.00   -32000.00
00746              14.00   -32800.00
00747              14.00   -32000.00
00748              13.80   -32000.00
00749              14.80   -32000.00
00750              14.80   -32000.00
00751              16.20   -32000.00
00752              19.80   -32000.00
00753              22.20   -32000.00
00754              12.40   -32000.00
00755               7.80   -31200.00
00756              12.00   -30400.00
00757               9.20   -30400.00
00758               6.00   -30400.00
00759               6.80   -30400.00
00760               6.60   -30400.00
00761               5.40   -29600.00
00762               3.20   -29600.00
00763               4.40   -29600.00
00764               4.60   -29600.00
00765               2.60   -28800.00
00766               2.80   -28800.00
00767               3.60   -28800.00
00768               1.00   -28000.00
00769               1.20   -28000.00
00770               2.20   -28000.00
00771               0.40   -27200.00
00772               0.40   -27200.00
00773               1.80   -26400.00
00774               0.40   -26400.00
00775               0.20   -25600.00
00776               1.20   -25600.00
00777               0.20   -25600.00
00778               0.60   -24800.00
00779               1.00   -24000.00
00780               0.00   -24000.00
00781               0.80   -24000.00
00782               0.40   -23200.00
00783               0.00   -22400.00
00784               0.40   -21600.00
00785               0.20   -22400.00
00786              -0.40   -20800.00
00787               0.20   -20800.00
00788              -0.20   -20000.00
00789              -0.40   -18400.00
00790               0.20   -19200.00
00791               0.40   -18400.00
00792               0.20   -18400.00
00793               0.40   -17600.00
00794               0.20   -17600.00
00795              -0.20   -16800.00
00796               0.20   -16000.00
00797               0.20   -16000.00
00798              -0.20   -15200.00
00799               0.40   -14400.00
00800               0.00   -14400.00
00801              -0.40   -13600.00
00802               0.20   -13600.00
00803              -0.20   -12800.00
00804              -0.60   -12000.00
00805               0.40   -11200.00
00806               0.20   -11200.00
00807              -0.60   -10400.00
00808               0.40    -9600.00
00809               0.00    -9600.00
00810              -0.60    -8000.00
00811               0.40    -7200.00
00812              -0.40    -7200.00
00813              -0.60    -6400.00
00814               0.80    -5600.00
00815              -0.40    -5600.00
00816              -0.40    -4800.00
00817               0.60    -4000.00
00818              -1.00    -3200.00
00819              -0.40    -3200.00
00820               0.20    -3200.00
00821              -1.00    -2400.00
00822              -0.40    -1600.00
00823               0.40     -800.00
00824              -0.60        0.00
00825               0.40        0.00
00826               1.00     1600.00
00827               2.60     1600.00
00828               0.40     2400.00
00829              -2.20     3200.00
00830               1.00     3200.00
00831               1.00     4000.00
00832              -2.00     4000.00
00833               5.60     4800.00
00834              25.00     6400.00
00835              11.60     7200.00
00836             -25.00     8000.00
00837               1.60     8000.00
00838              25.00     8000.00
00839             -25.00     8800.00
00840              -2.40     9600.00
00841              25.00    10400.00
00842             -25.00     9600.00
00843              11.80    11200.00
00844              25.00    12000.00
00845             -25.00    12000.00
00846              25.00    12800.00
00847               7.40    13600.00
00848             -25.00    14400.00
00849              25.00    14400.00
00850             -25.00    14400.00
00851              20.40    16000.00
00852              25.00    16000.00
00853             -25.00    16000.00
00854              25.00    16800.00
00855              25.00    17600.00
00856             -25.00    18400.00
00857               2.60    19200.00
00858              25.00    19200.00
00859             -25.00    20000.00
00860               8.00    20800.00
00861              25.00    21600.00
00862             -25.00    21600.00
00863              25.00    22400.00
00864              -1.40    22400.00
00865             -24.40    22400.00
00866              22.60    23200.00
00867              -7.00    24000.00
00868             -10.00    24000.00
00869              17.00    24800.00
00870              -5.00    24800.00
00871             -11.40    25600.00
00872              16.60    25600.00
00873             -12.60    25600.00
00874              -0.60    26400.00
00875              11.00    27200.00
00876             -12.40    27200.00
00877               5.00    27200.00
00878               1.80    28000.00
00879              -6.60    28800.00
00880               2.20    28000.00
00881               1.00    28800.00
00882              -3.80    28800.00
00883              -2.00    28800.00
00884               1.60    29600.00
00885              -4.40    29600.00
00886              -0.40    29600.00
00887               2.60    30400.00
00888              -5.00    30400.00
00889               1.80    30400.00
00890              -2.20    31200.00
00891              -3.60    31200.00
00892               0.20    31200.00
00893              -5.40    31200.00
00894              -1.20    32800.00
00895              -1.40    32000.00
00896              -4.00    32000.00
00897              -2.80    32800.00
00898              -3.00    32800.00
00899              -3.40    32800.00
00900              -5.20    32800.00
00901              -3.80    32000.00
00902              -4.40    32800.00
00903              -7.60    32000.00
00904              -4.60    32800.00
00905              -7.00    32800.00
00906              -8.60    32800.00
00907              -7.60    32800.00
00908              -9.80    32800.00
00909              -9.80    33600.00
00910             -13.00    33600.00
00911             -12.40    32800.00
00912             -13.00    32800.00
00913             -15.00    32800.00
00914             -13.00    33600.00
00915             -15.40    33600.00
00916             -15.60    32000.00
00917             -14.60    32800.00
00918             -18.00    32000.00
00919             -21.20    32800.00
00920             -22.20    32000.00
00921             -11.80    32000.00
00922              -8.00    32000.00
00923             -12.40    32000.00
00924              -9.40    31200.00
00925              -6.00    31200.00
00926              -7.60    31200.00
00927              -7.80    30400.00
00928              -4.60    30400.00
00929              -4.60    30400.00
00930              -6.00    29600.00
00931              -3.40    29600.00
00932              -2.80    29600.00
00933              -4.40    28800.00
00934              -3.00    28800.00
00935              -2.00    28800.00
00936              -2.80    28000.00
00937              -2.20    28000.00
00938              -1.80    28000.00
00939              -1.20    27200.00
00940              -2.20    27200.00
00941              -1.20    27200.00
00942              -1.20    25600.00
00943              -2.00    25600.00
00944              -0.80    25600.00
00945              -1.40    24800.00
00946              -1.40    24000.00
00947              -0.60    24000.00
00948              -1.80    24000.00
00949              -0.60    23200.00
00950              -0.80    23200.00
00951              -1.40    22400.00
00952              -0.80    22400.00
00953              -0.60    21600.00
00954              -1.00    21600.00
00955              -0.60    20800.00
00956              -0.80    20800.00
00957              -1.40    19200.00
00958              -0.60    18400.00
00959              -1.20    18400.00
00960              -1.20    18400.00
00961              -0.60    17600.00
00962              -1.80    16800.00
00963              -0.60    16000.00
00964               0.20    16000.00
00965              -2.00    15200.00
00966              -0.60    15200.00
00967               0.20    14400.00
00968              -1.80    13600.00
00969              -0.80    12800.00
00970              -0.20    12000.00
00971              -2.00    12000.00
00972              -0.40    11200.00
00973              -0.20    11200.00
00974              -2.20     9600.00
00975              -1.00     9600.00
00976              -0.40     9600.00
00977              -1.20     8800.00
00978              -0.20     8000.00
00979              -0.20     7200.00
00980              -1.00     7200.00
00981               0.20     5600.00
00982              -0.60     5600.00
00983              -1.80     4800.00
00984               0.20     4000.00
00985              -1.20     4000.00
00986              -1.20     3200.00
00987               0.40     3200.00
00988              -1.20     2400.00
00989              -1.20     1600.00
00990               0.40      800.00
00991              -0.80        0.00
00992               0.20        0.00
00993               2.40     -800.00
00994               2.60    -1600.00
00995              -2.20    -1600.00
00996               0.60    -2400.00
00997               1.00    -3200.00
00998              -0.60    -4000.00
00999              -0.20    -4000.00
01000               3.80    -4800.00
01001              15.00    -4800.00
01002              21.40    -6400.00
01003             -25.00    -8000.00
01004             -20.00    -8000.00
01005              25.00    -8000.00
01006             -11.00    -8800.00
01007             -25.00    -8800.00
01008              25.00    -9600.00
01009              25.00   -10400.00
01010             -25.00   -10400.00
01011              25.00   -11200.00
01012              25.00   -12000.00
01013             -25.00   -12000.00
01014              25.00   -12800.00
01015              -8.20   -13600.00
01016             -19.80   -14400.00
01017              25.00   -14400.00
01018             -25.00   -15200.00
01019              25.00   -16000.00
01020              19.60   -16000.00
01021             -25.00   -16800.00
01022              25.00   -16800.00
01023              17.20   -17600.00
01024             -25.00   -18400.00
01025               9.00   -18400.00
01026              25.00   -19200.00
01027             -25.00   -20000.00
01028              19.00   -20000.00
01029              17.20   -20800.00
01030             -25.00   -21600.00
01031              21.20   -22400.00
01032              -2.00   -22400.00
01033             -16.40   -22400.00
01034              15.00   -23200.00
01035              -1.20   -24000.00
01036             -10.60   -24000.00
01037              14.60   -24000.00
01038              -5.20   -24800.00
01039              -8.20   -24800.00
01040              13.20   -25600.00
01041              -9.40   -25600.00
01042               0.40   -26400.00
01043               7.60   -26400.00
01044              -7.00   -27200.00
01045               2.80   -27200.00
01046               3.40   -27200.00
01047              -3.00   -27200.00
01048               2.20   -28800.00
01049               2.80   -28800.00
01050              -3.40   -28800.00
01051               0.60   -28800.00
01052               3.60   -29600.00
01053              -3.40   -29600.00
01054               2.40   -29600.00
01055               3.80   -30400.00
01056              -2.20   -30400.00
01057               3.80   -30400.00
01058               1.20   -30400.00
01059               0.20   -31200.00
01060               3.40   -30400.00
01061               0.60   -32000.00
01062               3.00   -31200.00
01063               3.00   -32000.00
01064               1.20   -32000.00
01065               3.40   -32000.00
01066               3.60   -32000.00
01067               2.60   -32000.00
01068               4.20   -32000.00
01069               5.80   -32000.00
01070               4.60   -32000.00
01071               6.00   -32800.00
01072               8.00   -32800.00
01073               6.20   -32800.00
01074               9.20   -32800.00
01075              10.00   -32000.00
01076               9.60   -32800.00
01077              12.40   -32000.00
01078              11.80   -32000.00
01079              12.60   -32800.00
01080              14.20   -32800.00
01081              13.20   -32000.00
01082              14.60   -32000.00
01083              14.80   -32000.00
01084              15.40   -32000.00
01085              18.00   -32000.00
01086              23.00   -32000.00
01087              16.40   -31200.00
01088               7.40   -31200.00
01089              11.40   -30400.00
01090              10.80   -30400.00
01091               6.20   -29600.00
01092               6.80   -30400.00
01093               7.40   -30400.00
01094               6.00   -29600.00
01095               3.40   -29600.00
01096               3.60   -29600.00
01097               5.00   -29600.00
01098               2.20   -28800.00
01099               2.20   -28800.00
01100               5.20   -28800.00
01101               1.20   -28000.00
01102               0.40   -28000.00
01103               3.40   -27200.00
01104               1.20   -27200.00
01105              -0.40   -27200.00
01106               2.80   -26400.00
01107               1.00   -25600.00
01108              -0.60   -25600.00
01109               1.20   -25600.00
01110               0.20   -24800.00
01111               0.40   -24000.00
01112               1.40   -24000.00
01113              -0.20   -24000.00
01114               1.00   -24000.00
01115               0.40   -23200.00
01116              -0.60   -23200.00
01117               0.60   -22400.00
01118               0.80   -22400.00
01119               0.20   -20800.00
01120               0.20   -20800.00
01121               1.00   -20000.00
01122              -0.40   -20000.00
01123              -0.60   -19200.00
01124               1.80   -18400.00
01125              -0.80   -18400.00
01126              -0.20   -17600.00
01127               1.40   -17600.00
01128              -1.80   -16800.00
01129               0.20   -16800.00
01130               1.60   -16000.00
01131              -1.40   -15200.00
01132               0.40   -14400.00
01133               0.40   -14400.00
01134              -1.40   -13600.00
01135               1.00   -12800.00
01136               0.20   -12800.00
01137              -1.20   -12000.00
01138               1.00   -12000.00
01139               0.20   -11200.00
01140              -1.00   -10400.00
01141               0.40    -9600.00
01142              -0.40    -9600.00
01143              -1.00    -8800.00
01144              -0.40    -8000.00
01145               0.20    -7200.00
01146              -0.60    -7200.00
01147              -0.40    -6400.00
01148               0.00    -6400.00
01149              -1.00    -4800.00
01150               0.20    -4000.00
01151               0.40    -3200.00
01152              -0.20    -3200.00
01153               0.60    -3200.00
01154              -0.60    -1600.00
01155              -1.20    -1600.00
01156               0.20     -800.00
01157              -0.80        0.00
01158              -0.20        0.00
01159               1.20     1600.00
01160               2.00     1600.00
01161               2.20     2400.00
01162              -2.80     2400.00
01163              -0.20     3200.00
01164               1.00     3200.00
01165              -1.20     4000.00
01166               2.00     4800.00
01167              16.40     5600.00
01168              25.00     7200.00
01169             -25.00     8000.00
01170             -25.00     8000.00
01171              25.00     8000.00
01172             -15.40     8800.00
01173             -25.00     8800.00
01174              25.00    10400.00
01175              -8.60    10400.00
01176             -25.00    11200.00
01177              25.00    11200.00
01178             -25.00    12000.00
01179              -9.60    12800.00
01180              25.00    12800.00
01181             -25.00    12800.00
01182              25.00    14400.00
01183             -11.80    14400.00
01184             -25.00    15200.00
01185              25.00    15200.00
01186             -25.00    16800.00
01187              -6.20    16800.00
01188              25.00    17600.00
01189             -25.00    17600.00
01190             -21.80    18400.00
01191              25.00    19200.00
01192             -15.60    20000.00
01193             -25.00    20800.00
01194              25.00    20800.00
01195             -25.00    21600.00
01196               2.20    21600.00
01197              25.00    22400.00
01198             -25.00    22400.00
01199              14.00    24000.00
01200               6.20    23200.00
01201             -16.00    24000.00
01202              10.60    24800.00
01203               7.40    24800.00
01204             -17.40    24800.00
01205              11.60    24800.00
01206              -1.20    26400.00
01207             -12.20    26400.00
01208              13.80    27200.00
01209              -7.60    27200.00
01210              -2.60    27200.00
01211               5.80    28000.00
01212              -6.20    28000.00
01213              -0.60    28800.00
01214               2.80    28800.00
01215              -2.60    28800.00
01216              -3.60    28800.00
01217               1.00    28800.00
01218              -2.00    30400.00
01219              -4.00    30400.00
01220               3.60    30400.00
01221              -3.60    30400.00
01222              -1.00    31200.00
01223               0.20    31200.00
01224              -5.00    31200.00
01225               0.40    31200.00
01226              -3.80    31200.00
01227              -2.80    32000.00
01228               0.20    32800.00
01229              -4.20    32000.00
01230              -2.80    32800.00
01231              -2.60    32000.00
01232              -3.60    32800.00
01233              -3.80    32800.00
01234              -4.40    32800.00
01235              -3.80    32800.00
01236              -6.60    32800.00
01237              -5.20    32800.00
01238              -6.60    32000.00
01239              -8.60    33600.00
01240              -6.80    33600.00
01241             -10.20    32800.00
01242              -9.00    32800.00
01243             -10.80    32800.00
01244             -14.20    32800.00
01245             -11.60    32800.00
01246             -14.00    32800.00
01247             -14.60    32000.00
01248             -14.00    32800.00
01249             -15.60    32800.00
01250             -15.00    32800.00
01251             -16.20    32000.00
01252             -19.80    32800.00
01253             -23.80    32000.00
01254             -14.20    32000.00
01255              -8.20    32000.00
01256             -12.40    32800.00
01257              -9.80    31200.00
01258              -7.00    31200.00
01259              -7.40    31200.00
01260              -7.00    31200.00
01261              -6.80    30400.00
01262              -4.40    30400.00
01263              -4.60    30400.00
01264              -5.80    30400.00
01265              -2.60    29600.00
01266              -2.60    29600.00
01267              -6.60    28800.00
01268              -1.40    28800.00
01269              -1.00    28000.00
01270              -5.80    28000.00
01271               0.60    27200.00
01272              -0.40    27200.00
01273              -4.40    27200.00
01274               1.00    27200.00
01275              -0.20    26400.00
01276              -5.40    25600.00
01277               0.00    25600.00
01278               0.40    25600.00
01279              -4.40    24800.00
01280               0.20    24000.00
01281              -0.20    24000.00
01282              -3.00    23200.00
01283               0.00    22400.00
01284              -0.40    23200.00
01285              -2.00    21600.00
01286              -0.60    22400.00
01287               0.00    21600.00
01288              -1.00    20800.00
01289              -1.20    20000.00
01290              -1.20    20000.00
01291              -0.40    19200.00
01292              -0.40    18400.00
01293              -2.00    18400.00
01294              -0.60    17600.00
01295              -1.20    16800.00
01296              -2.20    16800.00
01297               0.40    16000.00
01298               0.00    15200.00
01299              -1.20    15200.00
01300              -0.40    14400.00
01301              -1.20    14400.00
01302              -1.40    13600.00
01303              -0.60    12800.00
01304              -0.40    12000.00
01305              -0.60    11200.00
01306              -0.60    11200.00
01307              -0.40    11200.00
01308              -1.20     9600.00
01309              -1.00     9600.00
01310               0.20     8800.00
01311              -1.80     8800.00
01312              -0.60     8000.00
01313              -0.40     7200.00
01314              -0.80     6400.00
01315              -0.40     7200.00
01316              -0.40     5600.00
01317              -0.40     4800.00
01318              -0.60     4000.00
01319              -0.80     3200.00
01320              -0.20     3200.00
01321              -0.80     1600.00
01322              -1.20     1600.00
01323              -0.20      800.00
01324              -0.20      800.00
01325              -0.40        0.00
01326               0.60     -800.00
01327               3.80     -800.00
01328              -1.80    -1600.00
01329              -1.40    -2400.00
01330               2.20    -3200.00
01331              -0.40    -3200.00
01332              -1.00    -4000.00
01333               2.80    -4800.00
01334               9.40    -4800.00
01335              25.00    -6400.00
01336             -20.40    -7200.00
01337             -25.00    -8000.00
01338              19.80    -8000.00
01339               9.20    -9600.00
01340             -25.00    -9600.00
01341               3.60    -8800.00
01342              25.00   -10400.00
01343             -25.00   -10400.00
01344             -21.80   -11200.00
01345              25.00   -11200.00
01346             -25.00   -12000.00
01347               8.00   -12800.00
01348              25.00   -12800.00
01349             -25.00   -13600.00
01350              25.00   -14400.00
01351             -25.00   -14400.00
01352              -8.60   -16000.00
01353              25.00   -16000.00
01354             -25.00   -16800.00
01355               1.40   -16800.00
01356              25.00   -17600.00
01357             -25.00   -18400.00
01358             -15.60   -18400.00
01359              25.00   -19200.00
01360             -25.00   -19200.00
01361              -9.20   -20000.00
01362              25.00   -20000.00
01363             -25.00   -20800.00
01364               5.00   -21600.00
01365              15.40   -22400.00
01366             -21.80   -23200.00
01367               7.60   -22400.00
01368               9.00   -23200.00
01369             -13.80   -24000.00
01370               8.40   -24000.00
01371               6.20   -24800.00
01372             -14.80   -24800.00
01373              10.20   -25600.00
01374              -0.60   -25600.00
01375              -8.20   -26400.00
01376              10.20   -26400.00
01377              -4.20   -27200.00
01378              -2.00   -27200.00
01379               6.00   -27200.00
01380              -2.60   -27200.00
01381               0.20   -27200.00
01382               4.40   -28800.00
01383              -1.40   -28800.00
01384              -1.80   -28800.00
01385               4.40   -29600.00
01386              -2.40   -29600.00
01387              -0.20   -29600.00
01388               5.00   -29600.00
01389              -1.60   -30400.00
01390               2.20   -29600.00
01391               2.60   -30400.00
01392              -0.40   -30400.00
01393               2.60   -31200.00
01394               1.60   -31200.00
01395               2.00   -32000.00
01396               3.60   -31200.00
01397               1.80   -32000.00
01398               2.60   -32000.00
01399               3.60   -32000.00
01400               3.40   -32000.00
01401               3.00   -32000.00
01402               4.60   -32800.00
01403               5.60   -32000.00
01404               4.20   -32000.00
01405               7.60   -32000.00
01406               7.00   -32000.00
01407               7.40   -32800.00
01408              10.60   -32000.00
01409               9.00   -32000.00
01410              11.80   -32800.00
01411              12.60   -32800.00
01412              12.00   -32800.00
01413              14.20   -32800.00
01414              13.80   -32000.00
01415              13.80   -32000.00
01416              14.60   -32000.00
01417              15.40   -32000.00
01418              16.80   -32000.00
01419              21.20   -31200.00
01420              20.60   -32000.00
01421               9.20   -31200.00
01422               9.00   -32000.00
01423              12.60   -30400.00
01424               7.40   -30400.00
01425               5.80   -30400.00
01426               7.20   -30400.00
01427               6.60   -30400.00
01428               4.20   -29600.00
01429               3.80   -29600.00
01430               5.40   -29600.00
01431               3.60   -29600.00
01432               2.00   -28800.00
01433               4.20   -28800.00
01434               2.20   -28800.00
01435               0.40   -28000.00
01436               1.80   -28000.00
01437               1.40   -27200.00
01438               0.20   -27200.00
01439               1.80   -26400.00
01440               1.60   -26400.00
01441               0.60   -26400.00
01442               1.20   -25600.00
01443               1.00   -25600.00
01444               0.20   -25600.00
01445               1.00   -24000.00
01446               0.20   -24000.00
01447               0.40   -24000.00
01448               0.80   -23200.00
01449               0.20   -23200.00
01450               0.40   -22400.00
01451               0.00   -21600.00
01452              -0.60   -20800.00
01453               0.20   -20800.00
01454               0.20   -20800.00
01455               0.20   -20000.00
01456               0.00   -20000.00
01457               0.60   -18400.00
01458               0.20   -18400.00
01459               0.20   -18400.00
01460               0.60   -17600.00
01461              -0.20   -17600.00
01462              -0.20   -16800.00
01463               0.00   -16000.00
01464              -0.40   -16000.00
01465              -0.20   -14400.00
01466              -0.20   -14400.00
01467              -0.20   -13600.00
01468               0.20   -12800.00
01469              -0.40   -12800.00
01470              -0.40   -12000.00
01471               0.20   -12000.00
01472               0.20   -11200.00
01473              -0.20   -10400.00
01474               0.00   -10400.00
01475               0.20    -9600.00
01476              -0.40    -8800.00
01477              -0.20    -8000.00
01478              -0.20    -7200.00
01479              -1.00    -7200.00
01480              -0.20    -6400.00
01481              -0.40    -6400.00
01482              -0.80    -4800.00
01483              -0.20    -4000.00
01484              -0.20    -4000.00
01485              -0.40    -3200.00
01486               0.20    -3200.00
01487              -0.20    -2400.00
01488              -0.40    -1600.00
01489               0.20     -800.00
01490              -0.40        0.00
01491              -0.20        0.00
01492               0.20      800.00
01493               0.40     1600.00
01494               3.80     2400.00
01495              -2.00     2400.00
01496              -1.00     3200.00
01497               2.00     3200.00
01498              -0.40     3200.00
01499              -0.60     4800.00
01500              10.20     5600.00
01501              25.00     7200.00
01502             -17.40     7200.00
01503             -25.00     8000.00
01504              22.80     8800.00
01505               8.20     8800.00
01506             -25.00     8800.00
01507              25.00     9600.00
01508              25.00     9600.00
01509             -25.00    11200.00
01510              25.00    11200.00
01511              19.40    12000.00
01512             -25.00    12800.00
01513              25.00    12800.00
01514             -25.00    12800.00
01515              23.40    14400.00
01516              25.00    14400.00
01517             -25.00    15200.00
01518              25.00    16000.00
01519               3.40    16000.00
01520             -25.00    16800.00
01521              25.00    16800.00
01522              -3.80    17600.00
01523             -25.00    18400.00
01524              25.00    19200.00
01525              17.00    19200.00
01526             -25.00    19200.00
01527              25.00    20800.00
01528               2.20    21600.00
01529             -25.00    21600.00
01530              25.00    22400.00
01531             -25.00    22400.00
01532              -3.80    22400.00
01533              18.00    24000.00
01534             -15.00    24000.00
01535               1.00    24000.00
01536              15.40    24800.00
01537             -15.00    24800.00
01538               0.80    25600.00
01539              10.60    25600.00
01540             -17.20    26400.00
01541               9.40    26400.00
01542               1.20    27200.00
01543              -9.40    27200.00
01544               7.60    27200.00
01545              -3.80    28000.00
01546              -4.20    28800.00
01547               3.60    28800.00
01548              -0.40    28800.00
01549              -4.20    28800.00
01550              -0.40    29600.00
01551               0.60    30400.00
01552              -5.40    28800.00
01553               2.60    30400.00
01554              -0.60    31200.00
01555              -3.80    30400.00
01556               2.20    31200.00
01557              -4.60    30400.00
01558              -1.80    31200.00
01559              -1.80    31200.00
01560              -4.80    32800.00
01561               0.40    31200.00
01562              -2.40    32800.00
01563              -3.20    32800.00
01564              -2.20    32800.00
01565              -3.60    32000.00
01566              -3.00    32800.00
01567              -4.60    32800.00
01568              -3.60    32800.00
01569              -5.80    32000.00
01570              -6.00    32800.00
01571              -5.00    32800.00
01572              -8.60    32800.00
01573              -6.60    32800.00
01574              -9.20    32800.00
01575             -10.00    32800.00
01576              -9.20    32800.00
01577             -13.60    32800.00
01578             -12.40    33600.00
01579             -13.00    32800.00
01580             -14.60    32800.00
01581             -13.80    32800.00
01582             -15.00    33600.00
01583             -15.00    32800.00
01584             -15.80    32000.00
01585             -18.20    32800.00
01586             -23.40    32000.00
01587             -19.00    31200.00
01588              -8.40    32000.00
01589             -10.80    31200.00
01590             -11.80    32000.00
01591              -7.60    31200.00
01592              -7.00    31200.00
01593              -7.20    30400.00
01594              -7.00    30400.00
01595              -4.60    30400.00
01596              -4.60    30400.00
01597              -5.60    29600.00
01598              -2.80    29600.00
01599              -3.00    28800.00
01600              -4.40    28800.00
01601              -2.60    28800.00
01602              -2.20    28000.00
01603              -2.80    28000.00
01604              -2.20    28000.00
01605              -1.40    27200.00
01606              -1.80    27200.00
01607              -1.80    27200.00
01608              -0.80    27200.00
01609              -2.20    25600.00
01610              -1.80    25600.00
01611              -0.60    25600.00
01612              -1.40    24800.00
01613              -1.00    24800.00
01614              -1.20    24000.00
01615              -1.40    24000.00
01616              -1.00    24000.00
01617              -1.20    22400.00
01618              -1.00    22400.00
01619              -1.00    22400.00
01620              -0.60    21600.00
01621              -0.60    20800.00
01622              -1.40    20000.00
01623              -0.60    19200.00
01624              -1.00    19200.00
01625              -1.00    18400.00
01626              -0.40    18400.00
01627              -1.20    17600.00
01628              -1.00    17600.00
01629              -0.60    16800.00
01630              -0.80    16000.00
01631              -0.60    16000.00
01632              -0.60    15200.00
01633              -0.60    14400.00
01634              -0.60    14400.00
01635              -0.80    13600.00
01636              -0.80    13600.00
01637              -0.60    12800.00
01638              -0.40    12000.00
01639              -0.60    11200.00
01640              -1.00    11200.00
01641              -0.60    10400.00
01642              -0.60     9600.00
01643              -0.60     8800.00
01644              -0.60     8800.00
01645              -0.40     8000.00
01646              -0.60     7200.00
01647              -0.60     7200.00
01648              -0.20     6400.00
01649              -0.60     5600.00
01650              -0.60     4800.00
01651              -0.80     4000.00
01652              -0.60     4000.00
01653              -0.60     3200.00
01654              -0.60     2400.00
01655              -1.00     1600.00
01656              -0.40     1600.00
01657              -0.20        0.00
01658              -0.40        0.00
01659               0.40     -800.00
01660               2.80    -1600.00
01661               1.20    -1600.00
01662              -2.20    -1600.00
01663               0.60    -2400.00
01664               0.80    -3200.00
01665              -1.40    -3200.00
01666               0.80    -4000.00
01667               6.00    -4000.00
01668              21.40    -6400.00
01669               4.20    -7200.00
01670             -25.00    -8000.00
01671               1.80    -8000.00
01672              24.20    -8800.00
01673             -25.00    -8800.00
01674             -21.80    -8800.00
01675              25.00    -9600.00
01676               7.00   -10400.00
01677             -25.00   -11200.00
01678              25.00   -12000.00
01679             -12.60   -12000.00
01680             -25.00   -12800.00
01681              25.00   -13600.00
01682             -25.00   -13600.00
01683              18.60   -14400.00
01684              11.60   -14400.00
01685             -25.00   -16000.00
01686              25.00   -16000.00
01687             -14.80   -16000.00
01688             -25.00   -16800.00
01689              25.00   -17600.00
01690              -8.20   -17600.00
01691             -25.00   -18400.00
01692              25.00   -18400.00
01693               1.40   -19200.00
01694             -25.00   -20000.00
01695              25.00   -20000.00
01696              -8.40   -20800.00
01697             -15.80   -21600.00
01698              25.00   -22400.00
01699             -17.00   -22400.00
01700              -4.40   -23200.00
01701              15.40   -23200.00
01702             -10.00   -24000.00
01703              -2.00   -24000.00
01704              14.60   -24800.00
01705             -12.80   -24000.00
01706               2.00   -25600.00
01707               9.00   -25600.00
01708             -12.60   -25600.00
01709               7.40   -26400.00
01710               1.80   -26400.00
01711              -6.00   -27200.00
01712               5.20   -27200.00
01713               0.40   -27200.00
01714              -2.40   -28000.00
01715               4.20   -28000.00
01716               1.40   -28800.00
01717              -3.80   -28800.00
01718               3.40   -29600.00
01719               0.40   -29600.00
01720              -2.80   -29600.00
01721               4.60   -29600.00
01722               1.00   -30400.00
01723              -0.20   -29600.00
01724               4.20   -30400.00
01725              -0.40   -30400.00
01726               1.40   -30400.00
01727               2.20   -31200.00
01728               1.00   -32000.00
01729               2.80   -31200.00
01730               1.80   -32000.00
01731               2.00   -32000.00
01732               3.60   -32000.00
01733               3.60   -32000.00
01734               3.40   -32000.00
01735               4.40   -32000.00
01736               5.40   -32000.00
01737               4.80   -32000.00
01738               6.60   -32000.00
01739               7.00   -32000.00
01740               6.80   -32000.00
01741               9.40   -32000.00
01742               9.40   -32000.00
01743              11.00   -32800.00
01744              12.20   -32000.00
01745              11.80   -32800.00
01746              14.00   -32000.00
01747              13.60   -32000.00
01748              13.80   -32000.00
01749              14.80   -32800.00
01750              14.60   -32000.00
01751              16.40   -30400.00
01752              19.80   -32000.00
01753              22.60   -32000.00
01754              12.60   -32000.00
01755               7.60   -32000.00
01756              12.20   -31200.00
01757               9.40   -30400.00
01758               5.80   -30400.00
01759               6.80   -30400.00
01760               7.40   -30400.00
01761               5.20   -29600.00
01762               3.40   -29600.00
01763               4.80   -28800.00
01764               5.00   -28800.00
01765               2.00   -28800.00
01766               3.00   -28800.00
01767               3.80   -28000.00
01768               1.00   -28800.00
01769               1.80   -27200.00
01770               2.60   -27200.00
01771               0.40   -27200.00
01772               1.00   -27200.00
01773               1.80   -26400.00
01774               0.60   -26400.00
01775               0.60   -26400.00
01776               1.00   -25600.00
01777               0.20   -24800.00
01778               1.80   -24000.00
01779               0.40   -24000.00
01780               0.60   -24000.00
01781               1.20   -23200.00
01782              -0.20   -23200.00
01783               0.20   -22400.00
01784               0.60   -22400.00
01785              -0.60   -22400.00
01786               0.40   -20800.00
01787               0.20   -20800.00
01788              -0.40   -20000.00
01789               0.20   -19200.00
01790              -0.40   -18400.00
01791               0.40   -18400.00
01792               0.40   -17600.00
01793               0.20   -17600.00
01794               0.20   -17600.00
01795               0.40   -16800.00
01796              -0.40   -16000.00
01797               0.20   -16000.00
01798               0.20   -15200.00
01799              -0.80   -14400.00
01800               0.20   -14400.00
01801               0.20   -13600.00
01802              -0.60   -12800.00
01803               0.00   -12000.00
01804               0.20   -12000.00
01805              -0.60   -11200.00
01806               0.20   -11200.00
01807              -0.40    -9600.00
01808              -0.20    -9600.00
01809              -0.20    -8800.00
01810              -0.20    -8800.00
01811              -0.20    -7200.00
01812              -0.40    -7200.00
01813              -0.40    -7200.00
01814               0.20    -6400.00
01815              -0.40    -5600.00
01816              -0.40    -4800.00
01817              -0.20    -4800.00
01818              -0.60    -3200.00
01819              -0.20    -3200.00
01820               0.20    -1600.00
01821              -0.60    -1600.00
01822               0.20    -1600.00
01823              -0.20     -800.00
01824              -0.40        0.00
01825               0.20      800.00
01826               0.60     1600.00
01827               3.00     1600.00
01828               0.40     2400.00
01829              -1.80     2400.00
01830               1.20     3200.00
01831               1.20     3200.00
01832              -2.00     4800.00
01833               5.40     5600.00
01834              25.00     7200.00
01835              10.80     7200.00
01836             -25.00     8000.00
01837               2.20     8000.00
01838              25.00     8800.00
01839             -25.00     8800.00
01840              -2.00     9600.00
01841              25.00    10400.00
01842             -25.00     9600.00
01843              12.40    11200.00
01844              25.00    12000.00
01845             -25.00    12000.00
01846              25.00    12800.00
01847               6.00    12800.00
01848             -25.00    14400.00
01849              25.00    14400.00
01850             -25.00    15200.00
01851              22.00    16000.00
01852              25.00    16000.00
01853             -25.00    17600.00
01854              25.00    16800.00
01855              25.00    17600.00
01856             -25.00    17600.00
01857               2.80    19200.00
01858              25.00    19200.00
01859             -25.00    19200.00
01860               8.40    20800.00
01861              25.00    20800.00
01862             -25.00    21600.00
01863              25.00    22400.00
01864              -2.20    22400.00
01865             -23.80    22400.00
01866              21.60    23200.00
01867              -7.40    24000.00
01868              -9.20    24000.00
01869              16.20    24800.00
01870              -5.00    24800.00
01871             -10.80    24800.00
01872              15.60    25600.00
01873             -12.60    25600.00
01874               0.20    26400.00
01875               9.40    27200.00
01876             -12.20    27200.00
01877               5.00    28000.00
01878               0.60    28000.00
01879              -6.80    28000.00
01880               2.00    28000.00
01881               1.20    28800.00
01882              -4.20    28800.00
01883              -1.40    28800.00
01884               2.20    29600.00
01885              -5.20    30400.00
01886              -0.40    30400.00
01887               2.60    31200.00
01888              -5.60    31200.00
01889               2.20    31200.00
01890              -1.60    31200.00
01891              -4.20    31200.00
01892               1.00    31200.00
01893              -5.40    32800.00
01894              -2.00    32000.00
01895              -1.00    32800.00
01896              -4.40    32800.00
01897              -2.20    32000.00
01898              -2.80    32800.00
01899              -3.80    32800.00
01900              -3.40    32800.00
01901              -3.80    32800.00
01902              -5.20    33600.00
01903              -5.40    32800.00
01904              -4.60    33600.00
01905              -8.80    32800.00
01906              -7.20    32800.00
01907              -7.80    33600.00
01908             -11.40    32800.00
01909              -8.20    32800.00
01910             -12.20    32800.00
01911             -13.80    33600.00
01912             -11.80    32800.00
01913             -15.00    32800.00
01914             -14.60    32800.00
01915             -14.40    32800.00
01916             -15.00    32000.00
01917             -15.40    32800.00
01918             -17.00    32000.00
01919             -21.40    32800.00
01920             -22.20    32000.00
01921             -10.80    31200.00
01922              -9.00    32000.00
01923             -12.60    31200.00
01924              -9.00    32000.00
01925              -7.00    31200.00
01926              -7.20    30400.00
01927              -7.40    31200.00
01928              -5.40    30400.00
01929              -4.00    30400.00
01930              -6.00    29600.00
01931              -4.40    29600.00
01932              -2.20    28800.00
01933              -4.60    28800.00
01934              -3.60    28800.00
01935              -1.20    28800.00
01936              -2.80    28000.00
01937              -2.80    28000.00
01938              -1.00    27200.00
01939              -2.00    27200.00
01940              -2.20    27200.00
01941              -0.80    26400.00
01942              -2.20    25600.00
01943              -2.20    25600.00
01944              -0.40    25600.00
01945              -2.20    24800.00
01946              -1.20    24800.00
01947              -1.00    24000.00
01948              -2.20    24000.00
01949               0.20    23200.00
01950              -1.00    22400.00
01951              -1.00    22400.00
01952               0.40    22400.00
01953              -2.20    21600.00
01954              -0.20    20800.00
01955               0.20    20800.00
01956              -3.00    20000.00
01957              -0.20    19200.00
01958              -0.20    19200.00
01959              -2.80    18400.00
01960               0.20    17600.00
01961              -0.60    17600.00
01962              -2.20    17600.00
01963               1.00    16800.00
01964              -0.20    16000.00
01965              -1.80    15200.00
01966               0.40    14400.00
01967              -1.20    14400.00
01968              -1.00    13600.00
01969              -0.40    12800.00
01970              -1.20    12800.00
01971              -1.00    12000.00
01972              -0.40    12000.00
01973              -1.20    11200.00
01974              -0.60    10400.00
01975              -1.40     9600.00
01976              -0.20     9600.00
01977              -0.60     8800.00
01978              -0.60     8000.00
01979              -0.20     8000.00
01980              -1.00     7200.00
01981               0.00     6400.00
01982              -0.60     5600.00
01983              -1.20     5600.00
01984               0.00     4800.00
01985              -1.00     4000.00
01986              -1.00     3200.00
01987              -0.40     3200.00
01988              -1.40     1600.00
01989              -1.40     1600.00
01990               0.00        0.00
01991              -0.60        0.00
01992              -0.40        0.00
01993               2.00     -800.00
01994               2.60    -1600.00
01995              -2.20    -1600.00
01996               0.20    -2400.00
01997               1.00    -4000.00
01998              -0.40    -3200.00
01999              -1.00    -4000.00
02000               3.80    -4800.00
02001              15.40    -6400.00
02002              20.40    -7200.00
02003             -25.00    -8000.00
02004             -19.80    -8000.00
02005              25.00    -8800.00
02006             -11.60    -8800.00
02007             -25.00    -9600.00
02008              25.00    -9600.00
02009              25.00   -11200.00
02010             -25.00   -10400.00
02011              25.00   -11200.00
02012              25.00   -11200.00
02013             -25.00   -12000.00
02014              25.00   -13600.00
02015              -8.60   -12800.00
02016             -19.40   -13600.00
02017              25.00   -14400.00
02018             -25.00   -14400.00
02019              25.00   -16000.00
02020              18.80   -16000.00
02021             -25.00   -16800.00
02022              25.00   -16800.00
02023              16.60   -17600.00
02024             -25.00   -18400.00
02025               9.00   -19200.00
02026              25.00   -20000.00
02027             -25.00   -20000.00
02028              19.60   -20000.00
02029              17.20   -20800.00
02030             -25.00   -20800.00
02031              21.20   -22400.00
02032              -2.00   -22400.00
02033             -16.80   -22400.00
02034              14.80   -23200.00
02035              -0.40   -24000.00
02036             -10.80   -24000.00
02037              15.00   -24000.00
02038              -4.60   -24800.00
02039              -8.40   -25600.00
02040              13.20   -25600.00
02041              -9.40   -26400.00
02042               0.20   -26400.00
02043               8.20   -26400.00
02044              -7.00   -27200.00
02045               2.40   -27200.00
02046               4.00   -27200.00
02047              -3.40   -28800.00
02048               2.00   -28800.00
02049               3.60   -28800.00
02050              -3.80   -28800.00
02051               0.40   -28800.00
02052               3.40   -29600.00
02053              -3.60   -29600.00
02054               2.20   -30400.00
02055               3.60   -29600.00
02056              -1.80   -30400.00
02057               3.80   -30400.00
02058               1.20   -30400.00
02059              -0.20   -31200.00
02060               2.80   -31200.00
02061               1.00   -31200.00
02062               2.60   -31200.00
02063               2.60   -32000.00
02064               1.20   -32000.00
02065               3.40   -32000.00
02066               3.40   -32000.00
02067               2.80   -32000.00
02068               4.00   -32000.00
02069               5.40   -32000.00
02070               4.60   -32000.00
02071               6.00   -32000.00
02072               7.40   -32000.00
02073               6.20   -32800.00
02074               9.40   -32000.00
02075               9.40   -32800.00
02076               9.80   -32800.00
02077              12.60   -32000.00
02078              11.40   -32000.00
02079              13.00   -32000.00
02080              14.60   -32800.00
02081              12.60   -32000.00
02082              14.80   -32000.00
02083              15.40   -32000.00
02084              15.40   -32000.00
02085              18.60   -32000.00
02086              23.00   -32000.00
02087              16.40   -31200.00
02088               7.60   -31200.00
02089              11.00   -31200.00
02090              10.80   -31200.00
02091               6.60   -30400.00
02092               6.60   -30400.00
02093               6.80   -29600.00
02094               6.60   -30400.00
02095               3.40   -30400.00
02096               3.60   -29600.00
02097               5.80   -29600.00
02098               2.40   -28800.00
02099               1.40   -28800.00
02100               5.20   -28800.00
02101               1.60   -28800.00
02102               1.20   -28000.00
02103               3.00   -27200.00
02104               1.00   -27200.00
02105               0.20   -26400.00
02106               2.20   -26400.00
02107               0.60   -27200.00
02108               1.00   -26400.00
02109               1.20   -25600.00
02110              -0.40   -25600.00
02111               1.00   -24800.00
02112               1.20   -24000.00
02113              -0.40   -24000.00
02114               0.80   -24000.00
02115               0.40   -23200.00
02116              -0.60   -22400.00
02117               1.20   -21600.00
02118               0.40   -22400.00
02119              -0.40   -21600.00
02120               0.20   -20800.00
02121               0.60   -20000.00
02122              -0.60   -20000.00
02123              -0.60   -19200.00
02124               0.40   -18400.00
02125               0.40   -18400.00
02126               0.20   -18400.00
02127               0.40   -17600.00
02128              -0.60   -16800.00
02129              -0.20   -16000.00
02130               0.20   -16000.00
02131              -0.40   -15200.00
02132               0.20   -15200.00
02133              -0.20   -14400.00
02134              -0.40   -13600.00
02135              -0.20   -13600.00
02136               0.20   -12800.00
02137              -0.40   -12800.00
02138               0.40   -11200.00
02139               0.20   -11200.00
02140              -1.20   -10400.00
02141              -0.60    -9600.00
02142               0.40    -9600.00
02143              -0.20    -8800.00
02144               0.40    -8000.00
02145               0.20    -7200.00
02146              -1.20    -7200.00
02147              -0.20    -6400.00
02148              -0.60    -5600.00
02149              -1.00    -4800.00
02150               1.20    -4800.00
02151               0.40    -4000.00
02152               0.20    -3200.00
02153               0.60    -2400.00
02154              -0.40    -1600.00
02155              -1.20    -1600.00
02156              -0.40        0.00
02157              -0.20        0.00
02158              -0.20      800.00
02159               1.00      800.00
02160               2.20     1600.00
02161               2.20     1600.00
02162              -2.20     2400.00
02163               1.00     3200.00
02164               2.00     3200.00
02165              -1.80     4800.00
02166               1.40     4800.00
02167              16.40     5600.00
02168              25.00     7200.00
02169             -25.00     8000.00
02170             -24.40     8000.00
02171              25.00     8800.00
02172             -15.80     8800.00
02173             -25.00     8800.00
02174              25.00     9600.00
02175              -9.40     9600.00
02176             -25.00    11200.00
02177              25.00    12000.00
02178             -25.00    11200.00
02179              -8.60    12800.00
02180              25.00    12800.00
02181             -25.00    12800.00
02182              25.00    14400.00
02183             -13.80    14400.00
02184             -25.00    15200.00
02185              25.00    16000.00
02186             -25.00    16000.00
02187              -5.20    16800.00
02188              25.00    17600.00
02189             -25.00    18400.00
02190             -21.80    18400.00
02191              25.00    19200.00
02192             -16.60    19200.00
02193             -25.00    20800.00
02194              25.00    20800.00
02195             -25.00    21600.00
02196               1.80    21600.00
02197              25.00    21600.00
02198             -25.00    22400.00
02199              13.40    22400.00
02200               6.60    23200.00
02201             -16.20    24000.00
02202              10.00    24000.00
02203               7.00    24800.00
02204             -18.00    24800.00
02205              11.60    25600.00
02206              -1.00    25600.00
02207             -11.80    25600.00
02208              14.00    27200.00
02209              -7.60    27200.00
02210              -3.20    27200.00
02211               5.80    27200.00
02212              -6.20    28000.00
02213              -0.60    28800.00
02214               3.40    28800.00
02215              -2.00    28800.00
02216              -3.80    29600.00
02217               1.20    28800.00
02218              -1.80    29600.00
02219              -2.80    30400.00
02220               1.00    30400.00
02221              -3.60    30400.00
02222               2.60    31200.00
02223              -9.20    31200.00
02224               1.00    31200.00
02225              -0.40    32000.00
02226              -1.20    31200.00
02227               1.00    32000.00
02228              -5.40    32800.00
02229               3.00    32000.00
02230              -7.40    32800.00
02231              -6.20    32000.00
02232              -1.80    32800.00
02233              -5.00    32000.00
02234              -2.20    32800.00
02235              -7.00    32800.00
02236              -0.40    32800.00
02237              -9.00    32800.00
02238              -4.40    33600.00
02239              -5.00    32800.00
02240             -14.60    32800.00
02241              -7.60    33600.00
02242              -8.80    33600.00
02243             -13.40    32800.00
02244             -14.60    32800.00
02245              -8.20    33600.00
02246             -12.80    32800.00
02247             -14.40    32000.00
02248             -12.60    33600.00
02249             -19.40    32800.00
02250             -12.40    32800.00
02251             -19.60    32000.00
02252             -24.20    32000.00
02253             -19.20    32000.00
02254             -15.40    32000.00
02255              -7.00    32800.00
02256             -10.20    32000.00
02257             -10.60    32000.00
02258              -7.60    31200.00
02259              -6.60    30400.00
02260              -9.80    31200.00
02261              -7.40    30400.00
02262              -2.80    30400.00
02263              -7.40    30400.00
02264              -3.80    29600.00
02265              -1.20    28800.00
02266              -5.00    28800.00
02267              -2.20    28800.00
02268              -2.20    28800.00
02269              -4.60    28000.00
02270              -2.60    28000.00
02271              -2.00    28000.00
02272              -2.40    27200.00
02273              -1.20    27200.00
02274              -0.20    26400.00
02275              -0.60    25600.00
02276              -1.40    25600.00
02277              -2.00    24800.00
02278              -1.40    25600.00
02279              -1.20    24800.00
02280              -2.20    24000.00
02281              -2.00    24800.00
02282              -0.20    24000.00
02283              -1.20    23200.00
02284              -0.60    23200.00
02285               0.20    22400.00
02286              -1.40    22400.00
02287              -0.40    21600.00
02288               0.20    20800.00
02289              -2.20    20000.00
02290              -1.20    19200.00
02291               0.20    19200.00
02292              -1.20    18400.00
02293              -0.60    18400.00
02294               0.20    17600.00
02295              -1.20    16000.00
02296              -1.00    16000.00
02297               0.40    16000.00
02298              -1.80    15200.00
02299              -0.60    15200.00
02300               0.40    14400.00
02301              -1.20    14400.00
02302              -0.20    13600.00
02303               0.20    12800.00
02304              -1.40    12800.00
02305               0.20    12000.00
02306              -0.40    11200.00
02307              -1.80    10400.00
02308              -0.60    10400.00
02309              -0.60     9600.00
02310              -0.80     8800.00
02311              -0.60     8800.00
02312              -0.40     8000.00
02313              -0.60     7200.00
02314              -0.60     6400.00
02315              -0.60     5600.00
02316              -1.00     5600.00
02317              -1.00     4800.00
02318              -1.20     3200.00
02319              -0.80     3200.00
02320              -0.40     3200.00
02321              -0.60     2400.00
02322              -0.80     1600.00
02323              -0.20     1600.00
02324              -0.40        0.00
02325              -0.60        0.00
02326               0.40     -800.00
02327               3.00     -800.00
02328              -1.80    -1600.00
02329              -1.40    -2400.00
02330               1.40    -3200.00
02331              -0.40    -3200.00
02332              -1.20    -4000.00
02333               2.60    -4800.00
02334              10.00    -4800.00
02335              25.00    -6400.00
02336             -21.00    -7200.00
02337             -25.00    -7200.00
02338              19.60    -8000.00
02339               8.60    -8800.00
02340             -25.00    -8800.00
02341               4.20    -9600.00
02342              25.00   -10400.00
02343             -25.00   -11200.00
02344             -21.00   -11200.00
02345              25.00   -12800.00
02346             -25.00   -12800.00
02347               9.20   -12800.00
02348              25.00   -12800.00
02349             -25.00   -13600.00
02350              25.00   -14400.00
02351             -25.00   -15200.00
02352              -7.80   -16000.00
02353              25.00   -16000.00
02354             -25.00   -16800.00
02355               2.20   -17600.00
02356              25.00   -17600.00
02357             -25.00   -18400.00
02358             -14.80   -18400.00
02359              25.00   -19200.00
02360             -25.00   -20000.00
02361              -7.60   -20000.00
02362              25.00   -20000.00
02363             -25.00   -20800.00
02364               5.40   -22400.00
02365              15.40   -22400.00
02366             -22.00   -22400.00
02367               8.20   -23200.00
02368               9.00   -23200.00
02369             -13.80   -24000.00
02370               8.40   -24000.00
02371               6.00   -24800.00
02372             -14.60   -24800.00
02373              10.20   -25600.00
02374              -0.80   -25600.00
02375              -8.20   -26400.00
02376              10.20   -26400.00
02377              -3.80   -26400.00
02378              -2.00   -27200.00
02379               5.60   -27200.00
02380              -2.00   -27200.00
02381              -0.40   -28000.00
02382               3.80   -28800.00
02383              -1.20   -28800.00
02384              -2.20   -29600.00
02385               3.80   -29600.00
02386              -1.80   -29600.00
02387              -0.60   -29600.00
02388               5.00   -29600.00
02389              -1.00   -30400.00
02390               1.40   -30400.00
02391               2.60   -30400.00
02392               0.20   -30400.00
02393               1.80   -31200.00
02394               1.20   -31200.00
02395               2.40   -32000.00
02396               2.80   -32000.00
02397               2.00   -32000.00
02398               3.20   -32000.00
02399               2.60   -32000.00
02400               3.00   -32000.00
02401               3.40   -32800.00
02402               4.40   -32000.00
02403               5.40   -32000.00
02404               5.00   -32000.00
02405               7.40   -32000.00
02406               6.80   -32800.00
02407               8.00   -32800.00
02408              10.40   -32800.00
02409               9.20   -32000.00
02410              12.40   -32000.00
02411              12.20   -32800.00
02412              11.40   -32800.00
02413              14.80   -32800.00
02414              13.40   -32000.00
02415              13.80   -32000.00
02416              15.40   -32000.00
02417              15.40   -32000.00
02418              16.60   -32000.00
02419              21.80   -31200.00
02420              20.20   -30400.00
02421               9.20   -30400.00
02422               9.40   -31200.00
02423              12.20   -30400.00
02424               7.80   -30400.00
02425               6.40   -30400.00
02426               6.80   -30400.00
02427               7.60   -29600.00
02428               4.40   -29600.00
02429               3.00   -29600.00
02430               5.80   -29600.00
02431               3.60   -28800.00
02432               1.20   -28800.00
02433               4.20   -28800.00
02434               2.60   -28000.00
02435               0.60   -28000.00
02436               2.40   -27200.00
02437               2.00   -27200.00
02438               0.00   -27200.00
02439               1.80   -26400.00
02440               1.40   -26400.00
02441               0.20   -25600.00
02442               1.40   -25600.00
02443               1.00   -25600.00
02444               0.20   -24800.00
02445               1.40   -24800.00
02446               0.20   -24000.00
02447               0.20   -24000.00
02448               1.00   -23200.00
02449              -0.40   -23200.00
02450               0.20   -22400.00
02451               0.20   -21600.00
02452              -0.40   -21600.00
02453               0.20   -20800.00
02454               0.20   -20800.00
02455               0.20   -20000.00
02456               0.20   -19200.00
02457               0.40   -18400.00
02458               0.20   -18400.00
02459               0.20   -17600.00
02460               0.20   -17600.00
02461              -0.20   -16800.00
02462               0.20   -16000.00
02463              -0.40   -16000.00
02464              -0.60   -16000.00
02465              -0.20   -15200.00
02466              -0.60   -14400.00
02467              -0.20   -14400.00
02468               0.20   -13600.00
02469              -0.60   -12800.00
02470               0.20   -12800.00
02471               0.20   -11200.00
02472              -0.20   -11200.00
02473               0.40   -10400.00
02474              -0.20    -9600.00
02475              -0.40    -9600.00
02476              -0.40    -8000.00
02477              -0.40    -8000.00
02478              -0.20    -8000.00
02479              -0.20    -6400.00
02480              -0.80    -6400.00
02481               0.60    -5600.00
02482              -0.20    -4800.00
02483              -0.40    -4800.00
02484               0.40    -4000.00
02485              -0.40    -3200.00
02486               0.40    -3200.00
02487              -0.20    -1600.00
02488              -0.60    -1600.00
02489               0.40     -800.00
02490              -0.20     -800.00
02491              -0.60      800.00
02492               1.20      800.00
02493               0.40     1600.00
02494               3.60     2400.00
02495              -1.40     2400.00
02496              -1.20     2400.00
02497               2.60     3200.00
02498              -1.00     4000.00
02499              -0.40     4800.00
02500              10.60     5600.00
02501              25.00     7200.00
02502             -17.80     7200.00
02503             -25.00     8000.00
02504              23.40     8000.00
02505               7.00     8800.00
02506             -25.00     8000.00
02507              25.00    10400.00
02508              25.00    10400.00
02509             -25.00    10400.00
02510              25.00    12000.00
02511              17.80    12000.00
02512             -25.00    12000.00
02513              25.00    12800.00
02514             -25.00    12800.00
02515              24.40    14400.00
02516              25.00    14400.00
02517             -25.00    15200.00
02518              25.00    16000.00
02519               2.40    16000.00
02520             -25.00    17600.00
02521              25.00    16800.00
02522              -5.00    17600.00
02523             -25.00    17600.00
02524              25.00    19200.00
02525              16.40    19200.00
02526             -25.00    20000.00
02527              25.00    20800.00
02528               1.80    20800.00
02529             -25.00    21600.00
02530              25.00    22400.00
02531             -25.00    22400.00
02532              -4.60    22400.00
02533              18.60    24000.00
02534             -14.80    23200.00
02535               0.20    24000.00
02536              15.60    24000.00
02537             -15.00    24800.00
02538               0.60    25600.00
02539              10.60    25600.00
02540             -17.20    25600.00
02541               9.40    26400.00
02542               1.40    27200.00
02543             -10.20    27200.00
02544               7.40    27200.00
02545              -2.60    28000.00
02546              -4.40    28000.00
02547               3.60    28800.00
02548               0.20    28000.00
02549              -4.40    29600.00
02550               0.00    28800.00
02551               1.20    30400.00
02552              -5.40    30400.00
02553               2.20    30400.00
02554              -0.60    30400.00
02555              -3.60    31200.00
02556               2.00    31200.00
02557              -4.80    31200.00
02558              -1.20    31200.00
02559              -1.40    31200.00
02560              -4.60    32000.00
02561              -0.20    32800.00
02562              -2.00    31200.00
02563              -3.60    32800.00
02564              -2.80    32000.00
02565              -2.60    32800.00
02566              -3.80    32800.00
02567              -5.00    32800.00
02568              -3.00    32800.00
02569              -6.00    32800.00
02570              -6.20    32000.00
02571              -5.00    32800.00
02572              -8.60    32800.00
02573              -7.00    32800.00
02574              -9.40    32800.00
02575             -10.20    33600.00
02576              -9.20    32800.00
02577             -14.20    32800.00
02578             -11.60    33600.00
02579             -12.60    33600.00
02580             -15.60    32800.00
02581             -13.60    32800.00
02582             -15.00    32800.00
02583             -16.00    32000.00
02584             -15.40    32800.00
02585             -18.20    32000.00
02586             -24.00    32800.00
02587             -18.80    32000.00
02588              -8.60    32000.00
02589             -11.40    32000.00
02590             -11.60    31200.00
02591              -7.80    31200.00
02592              -7.00    31200.00
02593              -7.20    30400.00
02594              -7.00    31200.00
02595              -4.60    30400.00
02596              -4.60    29600.00
02597              -6.00    30400.00
02598              -3.00    28800.00
02599              -2.80    29600.00
02600              -5.00    28800.00
02601              -2.80    28800.00
02602              -1.60    28800.00
02603              -3.00    28000.00
02604              -1.80    27200.00
02605              -1.00    27200.00
02606              -1.80    27200.00
02607              -1.80    27200.00
02608              -1.20    25600.00
02609              -2.20    25600.00
02610              -1.40    25600.00
02611              -0.60    25600.00
02612              -1.20    25600.00
02613              -0.60    24000.00
02614              -0.60    24000.00
02615              -1.20    24000.00
02616              -0.60    24000.00
02617              -1.20    22400.00
02618              -1.00    22400.00
02619              -1.00    21600.00
02620              -1.00    20800.00
02621              -0.40    20800.00
02622              -0.80    20000.00
02623              -0.80    20000.00
02624              -0.80    19200.00
02625              -0.20    18400.00
02626              -1.00    18400.00
02627              -1.20    17600.00
02628              -0.40    17600.00
02629              -1.00    16800.00
02630               0.00    16000.00
02631              -0.20    16000.00
02632              -1.20    15200.00
02633              -0.40    14400.00
02634              -0.60    14400.00
02635              -1.20    13600.00
02636              -0.60    12800.00
02637              -1.20    12800.00
02638              -0.60    12000.00
02639              -0.40    11200.00
02640              -1.20    11200.00
02641              -0.40    10400.00
02642              -1.00     9600.00
02643              -0.40     8800.00
02644              -1.20     8000.00
02645              -0.60     8000.00
02646              -0.80     7200.00
02647              -0.60     6400.00
02648              -0.80     6400.00
02649              -0.40     5600.00
02650              -1.40     5600.00
02651              -0.40     4800.00
02652              -1.00     3200.00
02653              -0.60     3200.00
02654              -0.60     2400.00
02655              -1.00     1600.00
02656              -0.80     1600.00
02657              -0.20      800.00
02658              -0.20        0.00
02659               0.20     -800.00
02660               2.80    -1600.00
02661               1.00     -800.00
02662              -2.60    -1600.00
02663               1.00    -3200.00
02664               0.40    -3200.00
02665              -1.40    -3200.00
02666               0.60    -4000.00
02667               6.60    -4800.00
02668              22.00    -6400.00
02669               3.20    -7200.00
02670             -25.00    -8000.00
02671               2.40    -8800.00
02672              23.60    -8800.00
02673             -25.00    -9600.00
02674             -21.40    -9600.00
02675              25.00    -9600.00
02676               6.80   -11200.00
02677             -25.00   -10400.00
02678              25.00   -12800.00
02679             -13.40   -12000.00
02680             -25.00   -13600.00
02681              25.00   -13600.00
02682             -25.00   -13600.00
02683              19.00   -14400.00
02684              11.80   -14400.00
02685             -25.00   -16000.00
02686              25.00   -16000.00
02687             -14.60   -16800.00
02688             -25.00   -16800.00
02689              25.00   -16800.00
02690              -7.80   -18400.00
02691             -25.00   -19200.00
02692              25.00   -18400.00
02693               1.60   -18400.00
02694             -25.00   -20000.00
02695              25.00   -20800.00
02696              -8.40   -20800.00
02697             -15.80   -21600.00
02698              25.00   -22400.00
02699             -17.20   -22400.00
02700              -4.40   -22400.00
02701              15.60   -23200.00
02702              -9.40   -23200.00
02703              -1.80   -24000.00
02704              14.60   -24800.00
02705             -13.40   -24800.00
02706               1.40   -25600.00
02707               8.60   -25600.00
02708             -13.00   -26400.00
02709               7.00   -26400.00
02710               1.60   -27200.00
02711              -6.00   -27200.00
02712               5.20   -27200.00
02713               1.00   -28000.00
02714              -2.60   -28800.00
02715               3.60   -28800.00
02716               1.20   -28800.00
02717              -3.80   -28800.00
02718               2.60   -29600.00
02719               1.00   -29600.00
02720              -2.80   -28800.00
02721               4.60   -29600.00
02722               1.40   -29600.00
02723              -0.60   -30400.00
02724               3.80   -31200.00
02725               0.00   -30400.00
02726               0.40   -30400.00
02727               2.20   -32000.00
02728               0.40   -31200.00
02729               2.60   -32000.00
02730               2.20   -32000.00
02731               2.20   -32000.00
02732               3.40   -32000.00
02733               3.60   -32000.00
02734               3.60   -31200.00
02735               3.80   -32000.00
02736               5.80   -32000.00
02737               4.80   -32800.00
02738               5.80   -32800.00
02739               7.40   -32000.00
02740               7.40   -32000.00
02741               9.40   -32000.00
02742               9.40   -32800.00
02743              11.00   -32800.00
02744              12.40   -32000.00
02745              11.60   -32000.00
02746              13.80   -32000.00
02747              13.80   -32000.00
02748              13.40   -32000.00
02749              15.00   -32000.00
02750              15.40   -32000.00
02751              16.40   -32000.00
02752              20.20   -32000.00
02753              22.80   -31200.00
02754              12.20   -31200.00
02755               7.80   -30400.00
02756              12.20   -31200.00
02757               9.00   -31200.00
02758               5.80   -30400.00
02759               6.80   -30400.00
02760               7.40   -30400.00
02761               5.80   -29600.00
02762               3.60   -29600.00
02763               5.40   -29600.00
02764               5.00   -28800.00
02765               1.80   -28800.00
02766               2.80   -28800.00
02767               3.40   -28800.00
02768               0.40   -28000.00
02769               1.40   -28800.00
02770               2.20   -27200.00
02771               0.20   -27200.00
02772               1.20   -27200.00
02773               1.40   -27200.00
02774               0.60   -25600.00
02775               0.60   -25600.00
02776               0.60   -25600.00
02777               1.00   -24800.00
02778               0.60   -25600.00
02779               0.40   -24000.00
02780               0.80   -24000.00
02781              -0.40   -23200.00
02782               0.60   -23200.00
02783               0.40   -22400.00
02784              -1.00   -22400.00
02785               1.00   -20800.00
02786              -0.40   -21600.00
02787              -1.00   -20000.00
02788               1.80   -20000.00
02789              -0.40   -20000.00
02790              -1.20   -18400.00
02791               1.80   -19200.00
02792              -0.80   -17600.00
02793              -0.20   -17600.00
02794               1.40   -16800.00
02795              -1.40   -16800.00
02796               0.20   -16000.00
02797               0.80   -16000.00
02798              -1.00   -15200.00
02799               0.20   -14400.00
02800               0.40   -14400.00
02801              -0.60   -13600.00
02802              -0.40   -12800.00
02803               0.20   -12800.00
02804              -0.20   -12000.00
02805              -0.20   -11200.00
02806               0.40   -10400.00
02807               0.20   -10400.00
02808              -0.20    -9600.00
02809               0.20    -8800.00
02810              -0.60    -8800.00
02811               0.20    -8000.00
02812              -0.20    -7200.00
02813              -0.60    -6400.00
02814               0.20    -6400.00
02815               0.00    -5600.00
02816              -0.60    -4800.00
02817               0.40    -4000.00
02818              -0.20    -3200.00
02819               0.00    -3200.00
02820               0.40    -2400.00
02821              -0.40    -1600.00
02822              -0.20     -800.00
02823              -0.20     -800.00
02824              -0.40        0.00
02825               0.40      800.00
02826               0.60     1600.00
02827               3.60     1600.00
02828               0.20     2400.00
02829              -1.80     2400.00
02830               2.00     3200.00
02831               1.20     3200.00
02832              -1.80     4800.00
02833               5.80     4800.00
02834              25.00     7200.00
02835              10.00     8000.00
02836             -25.00     8000.00
02837               2.60     8000.00
02838              25.00     8800.00
02839             -25.00     8800.00
02840              -0.60     9600.00
02841              25.00    10400.00
02842             -25.00    10400.00
02843              13.40    12000.00
02844              25.00    11200.00
02845             -25.00    12000.00
02846              25.00    12800.00
02847               4.20    12800.00
02848             -25.00    14400.00
02849              25.00    14400.00
02850             -25.00    14400.00
02851              24.40    16000.00
02852              25.00    16000.00
02853             -25.00    16000.00
02854              25.00    17600.00
02855              25.00    17600.00
02856             -25.00    18400.00
02857               3.40    19200.00
02858              25.00    19200.00
02859             -25.00    19200.00
02860               8.60    20800.00
02861              25.00    20800.00
02862             -25.00    20800.00
02863              25.00    22400.00
02864              -2.40    22400.00
02865             -22.80    23200.00
02866              21.80    23200.00
02867              -7.00    24000.00
02868              -9.00    24000.00
02869              16.60    24800.00
02870              -5.20    24800.00
02871             -11.20    25600.00
02872              15.80    25600.00
02873             -12.60    26400.00
02874              -0.40    27200.00
02875              10.60    27200.00
02876             -11.00    27200.00
02877               3.60    28000.00
02878               1.40    28000.00
02879              -5.80    28000.00
02880               1.00    28800.00
02881               1.60    28800.00
02882              -2.80    28800.00
02883              -2.80    30400.00
02884               2.60    29600.00
02885              -3.80    29600.00
02886              -1.40    30400.00
02887               3.00    30400.00
02888              -4.60    30400.00
02889               0.60    31200.00
02890              -1.20    31200.00
02891              -3.80    31200.00
02892              -0.40    31200.00
02893              -4.00    31200.00
02894              -1.20    32000.00
02895              -1.80    32800.00
02896              -3.60    32000.00
02897              -2.60    32800.00
02898              -3.60    32800.00
02899              -2.80    32000.00
02900              -4.60    32800.00
02901              -3.80    32800.00
02902              -4.20    32800.00
02903              -7.00    32800.00
02904              -5.00    32800.00
02905              -7.80    32800.00
02906              -8.40    32800.00
02907              -7.60    33600.00
02908             -10.60    32800.00
02909              -9.00    33600.00
02910             -12.60    32800.00
02911             -13.40    32000.00
02912             -12.40    33600.00
02913             -15.00    32800.00
02914             -14.40    32800.00
02915             -15.00    32800.00
02916             -15.60    32800.00
02917             -15.60    32800.00
02918             -17.40    32000.00
02919             -21.40    32000.00
02920             -22.20    32000.00
02921             -10.60    32000.00
02922              -9.00    32000.00
02923             -13.00    31200.00
02924              -9.00    32000.00
02925              -7.00    31200.00
02926              -7.40    31200.00
02927              -7.00    31200.00
02928              -5.40    31200.00
02929              -4.40    30400.00
02930              -5.80    30400.00
02931              -4.20    30400.00
02932              -2.60    28800.00
02933              -4.40    28800.00
02934              -3.40    28800.00
02935              -1.40    28800.00
02936              -2.80    28000.00
02937              -2.60    28000.00
02938              -1.40    27200.00
02939              -1.80    27200.00
02940              -2.00    26400.00
02941              -1.00    26400.00
02942              -1.80    25600.00
02943              -2.20    25600.00
02944              -0.60    25600.00
02945              -1.20    24800.00
02946              -1.20    24800.00
02947              -0.60    24000.00
02948              -1.20    24000.00
02949              -0.40    23200.00
02950              -0.60    22400.00
02951              -0.60    22400.00
02952              -0.60    22400.00
02953              -0.80    21600.00
02954              -0.60    20800.00
02955              -1.00    20800.00
02956              -1.00    20000.00
02957              -1.00    19200.00
02958              -0.60    18400.00
02959              -0.60    19200.00
02960              -1.20    17600.00
02961              -0.40    17600.00
02962              -0.40    16800.00
02963              -0.60    16000.00
02964               0.20    16000.00
02965              -0.80    15200.00
02966              -0.60    15200.00
02967              -0.60    14400.00
02968              -1.00    14400.00
02969              -1.20    12800.00
02970              -1.00    13600.00
02971              -1.20    12000.00
02972              -0.80    11200.00
02973              -1.00    11200.00
02974              -1.00    10400.00
02975              -0.60     9600.00
02976              -0.40     8800.00
02977              -0.60     8800.00
02978              -0.60     8000.00
02979              -0.60     8000.00
02980              -1.20     7200.00
02981              -0.20     5600.00
02982              -0.20     6400.00
02983              -1.40     4800.00
02984              -0.60     4800.00
02985              -1.00     3200.00
02986              -0.60     3200.00
02987              -0.60     2400.00
02988              -0.40     2400.00
02989              -0.20     1600.00
02990              -0.80     1600.00
02991              -0.80        0.00
02992              -0.20        0.00
02993               1.40     -800.00
02994               3.00    -1600.00
02995              -1.80    -1600.00
02996               0.20    -2400.00
02997               1.20    -3200.00
02998              -1.20    -3200.00
02999              -0.80    -4000.00
03000               5.00    -4000.00
03001              15.40    -5600.00
03002              20.60    -7200.00
03003             -25.00    -8000.00
03004             -20.20    -8000.00
03005              25.00    -8000.00
03006             -11.40    -8800.00
03007             -25.00    -8800.00
03008              25.00    -9600.00
03009              25.00   -11200.00
03010             -25.00   -10400.00
03011              25.00   -11200.00
03012              25.00   -12000.00
03013             -25.00   -12800.00
03014              25.00   -12800.00
03015              -9.80   -13600.00
03016             -19.60   -13600.00
03017              25.00   -14400.00
03018             -25.00   -15200.00
03019              25.00   -16000.00
03020              18.80   -16000.00
03021             -25.00   -16800.00
03022              25.00   -16800.00
03023              16.20   -17600.00
03024             -25.00   -17600.00
03025               9.20   -18400.00
03026              25.00   -19200.00
03027             -25.00   -20000.00
03028              20.00   -20000.00
03029              17.00   -20800.00
03030             -25.00   -20800.00
03031              21.80   -22400.00
03032              -1.40   -21600.00
03033             -16.60   -22400.00
03034              14.80   -23200.00
03035              -1.00   -23200.00
03036             -11.60   -24000.00
03037              14.20   -24000.00
03038              -4.40   -24800.00
03039              -7.60   -24800.00
03040              14.00   -25600.00
03041              -9.40   -26400.00
03042              -0.40   -26400.00
03043               7.00   -26400.00
03044              -7.60   -26400.00
03045               2.00   -27200.00
03046               3.80   -27200.00
03047              -3.00   -27200.00
03048               2.00   -28800.00
03049               3.20   -28000.00
03050              -4.20   -28800.00
03051              -0.20   -28800.00
03052               3.40   -29600.00
03053              -3.60   -28800.00
03054               2.60   -29600.00
03055               3.80   -30400.00
03056              -1.80   -30400.00
03057               3.60   -29600.00
03058               1.60   -30400.00
03059               0.00   -30400.00
03060               2.20   -31200.00
03061               0.60   -31200.00
03062               2.80   -32000.00
03063               2.40   -32000.00
03064               1.80   -32000.00
03065               3.40   -32000.00
03066               3.20   -32000.00
03067               3.00   -32000.00
03068               3.80   -32000.00
03069               5.60   -32000.00
03070               5.20   -32800.00
03071               6.00   -32800.00
03072               7.80   -32000.00
03073               6.20   -32000.00
03074               8.60   -32800.00
03075              10.00   -32800.00
03076               9.80   -32000.00
03077              12.60   -32000.00
03078              11.60   -32000.00
03079              13.00   -32800.00
03080              14.20   -32000.00
03081              13.20   -32000.00
03082              14.60   -32000.00
03083              15.60   -32000.00
03084              15.80   -32000.00
03085              18.60   -32000.00
03086              23.40   -32000.00
03087              15.60   -31200.00
03088               7.40   -31200.00
03089              11.40   -30400.00
03090              10.80   -30400.00
03091               6.80   -31200.00
03092               6.80   -30400.00
03093               6.80   -30400.00
03094               6.40   -29600.00
03095               2.80   -29600.00
03096               3.80   -29600.00
03097               5.80   -28800.00
03098               2.00   -28800.00
03099               2.20   -28800.00
03100               4.60   -28800.00
03101               0.60   -28800.00
03102               1.20   -28000.00
03103               2.60   -27200.00
03104               0.40   -27200.00
03105               0.60   -27200.00
03106               1.80   -26400.00
03107               0.40   -26400.00
03108               0.40   -25600.00
03109               1.00   -25600.00
03110               0.20   -25600.00
03111               0.60   -24000.00
03112               0.60   -24000.00
03113              -0.20   -24000.00
03114               0.60   -24000.00
03115               0.20   -23200.00
03116              -0.40   -22400.00
03117               0.40   -22400.00
03118              -0.20   -22400.00
03119               0.20   -21600.00
03120               0.40   -20800.00
03121              -0.20   -20000.00
03122              -0.20   -20000.00
03123               0.20   -19200.00
03124              -0.20   -18400.00
03125               0.40   -17600.00
03126               0.40   -17600.00
03127               0.00   -17600.00
03128              -0.20   -16800.00
03129               0.20   -16000.00
03130              -0.20   -16000.00
03131               0.20   -15200.00
03132               0.20   -14400.00
03133              -0.20   -14400.00
03134               0.40   -14400.00
03135               0.20   -13600.00
03136               0.20   -12800.00
03137               0.20   -12000.00
03138              -0.40   -11200.00
03139               0.20   -11200.00
03140               0.20   -10400.00
03141              -0.60   -10400.00
03142              -0.20    -9600.00
03143              -0.20    -8800.00
03144              -0.60    -8000.00
03145               0.40    -7200.00
03146               0.40    -7200.00
03147               0.20    -6400.00
03148              -0.40    -5600.00
03149               0.60    -5600.00
03150              -0.60    -4000.00
03151              -0.20    -4000.00
03152               0.80    -3200.00
03153              -1.00    -3200.00
03154               1.00    -1600.00
03155              -0.20    -1600.00
03156              -2.20     -800.00
03157               2.20        0.00
03158              -1.80        0.00
03159               0.20      800.00
03160               5.20     1600.00
03161              -0.20     1600.00
03162              -2.60     2400.00
03163               3.40     3200.00
03164              -0.60     3200.00
03165              -2.80     4800.00
03166               5.00     4000.00
03167              14.80     5600.00
03168              25.00     7200.00
03169             -25.00     8000.00
03170             -25.00     8000.00
03171              25.00     8800.00
03172             -14.00     8800.00
03173             -25.00     8800.00
03174              25.00    10400.00
03175              -9.60     9600.00
03176             -25.00    11200.00
03177              25.00    12000.00
03178             -25.00    11200.00
03179              -7.00    12800.00
03180              25.00    12800.00
03181             -25.00    12800.00
03182              25.00    14400.00
03183             -14.80    14400.00
03184             -25.00    16000.00
03185              25.00    16000.00
03186             -25.00    16000.00
03187              -4.20    16000.00
03188              25.00    17600.00
03189             -25.00    18400.00
03190             -21.40    18400.00
03191              25.00    19200.00
03192             -16.20    19200.00
03193             -25.00    20800.00
03194              25.00    20800.00
03195             -25.00    21600.00
03196               3.00    21600.00
03197              23.40    22400.00
03198             -25.00    22400.00
03199              14.00    22400.00
03200               5.80    24000.00
03201             -15.60    24000.00
03202              11.40    24800.00
03203               7.40    24800.00
03204             -18.00    24800.00
03205              12.60    25600.00
03206              -1.00    25600.00
03207             -12.60    25600.00
03208              14.20    26400.00
03209              -7.40    27200.00
03210              -3.20    27200.00
03211               6.20    28000.00
03212              -5.40    28000.00
03213              -0.80    28000.00
03214               2.80    28800.00
03215              -1.80    28800.00
03216              -3.80    28800.00
03217               1.00    28800.00
03218              -1.40    30400.00
03219              -3.80    29600.00
03220               3.40    30400.00
03221              -3.00    30400.00
03222              -1.20    31200.00
03223               0.20    31200.00
03224              -4.40    31200.00
03225               0.00    31200.00
03226              -3.80    32000.00
03227              -2.40    32000.00
03228              -0.20    32800.00
03229              -3.80    32000.00
03230              -2.20    32000.00
03231              -3.00    32800.00
03232              -3.80    32800.00
03233              -3.80    32800.00
03234              -4.60    32800.00
03235              -4.20    32800.00
03236              -6.80    32800.00
03237              -5.20    33600.00
03238              -6.80    32800.00
03239              -8.60    32800.00
03240              -6.20    33600.00
03241             -10.20    32800.00
03242              -9.40    32800.00
03243             -10.80    33600.00
03244             -14.00    33600.00
03245             -12.20    32800.00
03246             -14.00    32800.00
03247             -14.60    33600.00
03248             -15.00    32800.00
03249             -15.80    32800.00
03250             -15.00    32000.00
03251             -17.20    32800.00
03252             -19.80    32800.00
03253             -23.20    32800.00
03254             -15.00    32000.00
03255              -7.40    31200.00
03256             -11.60    31200.00
03257             -10.80    31200.00
03258              -7.00    31200.00
03259              -6.80    31200.00
03260              -8.00    31200.00
03261              -6.20    30400.00
03262              -4.20    30400.00
03263              -5.80    30400.00
03264              -4.80    30400.00
03265              -2.20    29600.00
03266              -3.80    28800.00
03267              -3.80    28800.00
03268              -2.00    28800.00
03269              -2.20    28000.00
03270              -2.60    28000.00
03271              -2.00    27200.00
03272              -1.20    27200.00
03273              -2.20    27200.00
03274              -1.40    26400.00
03275              -1.00    26400.00
03276              -2.40    25600.00
03277              -1.20    25600.00
03278              -0.60    24800.00
03279              -1.40    24800.00
03280              -1.00    24800.00
03281              -1.00    24000.00
03282              -1.00    24000.00
03283              -0.60    23200.00
03284              -0.60    22400.00
03285              -0.40    22400.00
03286              -1.20    21600.00
03287              -0.40    20800.00
03288              -1.00    21600.00
03289              -1.20    20800.00
03290              -1.20    19200.00
03291              -1.20    19200.00
03292              -0.20    18400.00
03293              -1.00    18400.00
03294              -1.80    17600.00
03295              -0.20    17600.00
03296              -1.20    16800.00
03297              -0.60    16000.00
03298              -0.60    15200.00
03299              -1.40    15200.00
03300               0.20    14400.00
03301              -0.60    14400.00
03302              -1.60    14400.00
03303              -0.60    12800.00
03304              -0.60    12000.00
03305              -1.40    12000.00
03306              -0.20    11200.00
03307              -1.00    11200.00
03308              -1.40     9600.00
03309              -0.40     9600.00
03310              -0.20     8800.00
03311              -1.60     8800.00
03312              -0.40     8000.00
03313              -0.40     6400.00
03314              -1.00     7200.00
03315              -0.40     6400.00
03316              -0.60     4800.00
03317              -1.00     4800.00
03318              -0.40     4000.00
03319              -0.60     4000.00
03320              -0.60     2400.00
03321              -0.40     2400.00
03322              -1.20     1600.00
03323              -0.60     1600.00
03324               0.40        0.00
03325              -1.00        0.00
03326               0.40     -800.00
03327               4.20     -800.00
03328              -1.40    -1600.00
03329              -1.80    -1600.00
03330               2.40    -2400.00
03331              -0.40    -3200.00
03332              -1.40    -3200.00
03333               2.80    -4000.00
03334              10.20    -4800.00
03335              25.00    -6400.00
03336             -21.00    -7200.00
03337             -25.00    -8000.00
03338              20.40    -8000.00
03339               8.40    -8000.00
03340             -25.00    -9600.00
03341               4.20    -8800.00
03342              25.00   -10400.00
03343             -25.00    -9600.00
03344             -19.60   -11200.00
03345              25.00   -12000.00
03346             -25.00   -11200.00
03347              10.20   -12800.00
03348              25.00   -13600.00
03349             -25.00   -13600.00
03350              25.00   -14400.00
03351             -25.00   -14400.00
03352              -7.00   -15200.00
03353              25.00   -16000.00
03354             -25.00   -16800.00
03355               2.80   -17600.00
03356              25.00   -17600.00
03357             -25.00   -17600.00
03358             -14.80   -18400.00
03359              25.00   -19200.00
03360             -25.00   -19200.00
03361              -7.40   -20000.00
03362              25.00   -20800.00
03363             -25.00   -21600.00
03364               5.60   -22400.00
03365              14.40   -22400.00
03366             -22.20   -22400.00
03367               7.60   -22400.00
03368               8.40   -23200.00
03369             -13.40   -24000.00
03370               8.40   -24000.00
03371               5.80   -24800.00
03372             -14.40   -25600.00
03373              10.40   -25600.00
03374              -0.60   -25600.00
03375              -8.20   -25600.00
03376              10.00   -26400.00
03377              -4.20   -26400.00
03378              -2.20   -27200.00
03379               5.60   -27200.00
03380              -2.20   -27200.00
03381              -0.40   -28800.00
03382               4.20   -28800.00
03383              -1.80   -28800.00
03384              -2.60   -28800.00
03385               4.20   -28800.00
03386              -2.20   -29600.00
03387              -0.40   -29600.00
03388               5.20   -29600.00
03389              -1.20   -30400.00
03390               1.80   -30400.00
03391               2.80   -30400.00
03392              -0.60   -30400.00
03393               2.60   -30400.00
03394               1.80   -31200.00
03395               2.00   -31200.00
03396               2.80   -32000.00
03397               1.80   -32000.00
03398               2.80   -32000.00
03399               3.40   -32000.00
03400               3.40   -32000.00
03401               3.80   -32000.00
03402               4.80   -32800.00
03403               5.80   -32800.00
03404               5.00   -32000.00
03405               7.40   -32000.00
03406               7.40   -32000.00
03407               7.60   -32800.00
03408              10.00   -32000.00
03409               9.80   -32000.00
03410              11.60   -32800.00
03411              11.80   -32800.00
03412              12.60   -32000.00
03413              14.20   -32000.00
03414              13.80   -32000.00
03415              14.60   -32800.00
03416              14.60   -32000.00
03417              15.40   -32000.00
03418              16.80   -32000.00
03419              21.80   -32000.00
03420              20.20   -31200.00
03421               8.60   -32000.00
03422               9.20   -30400.00
03423              12.20   -30400.00
03424               7.20   -30400.00
03425               6.00   -30400.00
03426               6.80   -30400.00
03427               6.40   -29600.00
03428               4.40   -29600.00
03429               3.60   -29600.00
03430               5.20   -29600.00
03431               3.60   -29600.00
03432               1.40   -28800.00
03433               3.40   -28800.00
03434               2.60   -28800.00
03435               0.40   -28800.00
03436               2.00   -27200.00
03437               2.00   -27200.00
03438              -0.20   -27200.00
03439               1.80   -26400.00
03440               1.20   -26400.00
03441               0.40   -25600.00
03442               1.00   -25600.00
03443               0.80   -25600.00
03444              -0.20   -24800.00
03445               1.20   -24000.00
03446              -0.40   -24000.00
03447               0.20   -23200.00
03448               0.80   -23200.00
03449              -0.20   -22400.00
03450               0.20   -22400.00
03451               0.40   -22400.00
03452              -0.40   -20800.00
03453               0.20   -20800.00
03454               0.40   -20800.00
03455              -0.40   -20000.00
03456               1.00   -19200.00
03457               0.40   -18400.00
03458               0.20   -18400.00
03459               0.40   -17600.00
03460              -0.20   -17600.00
03461              -0.40   -16800.00
03462               0.20   -16800.00
03463              -0.40   -16000.00
03464              -0.20   -16000.00
03465               0.40   -14400.00
03466              -0.60   -14400.00
03467               0.40   -14400.00
03468               0.40   -13600.00
03469              -0.60   -12800.00
03470               0.40   -12000.00
03471               0.20   -11200.00
03472               0.20   -11200.00
03473               0.40   -10400.00
03474              -0.20   -10400.00
03475              -0.20    -9600.00
03476              -0.40    -8000.00
03477              -0.20    -8000.00
03478              -0.20    -8000.00
03479              -0.60    -7200.00
03480               0.20    -6400.00
03481               0.20    -6400.00
03482               0.00    -4800.00
03483               0.20    -4000.00
03484               0.40    -4000.00
03485               0.20    -4000.00
03486              -0.20    -3200.00
03487              -0.20    -1600.00
03488              -0.40    -1600.00
03489              -0.60     -800.00
03490               0.00     -800.00
03491               0.20        0.00
03492               0.20        0.00
03493               1.20     1600.00
03494               3.40     1600.00
03495              -2.00     2400.00
03496              -0.40     2400.00
03497               1.80     3200.00
03498              -0.40     4800.00
03499              -0.40     4000.00
03500              10.00     5600.00
03501              25.00     6400.00
03502             -18.80     8000.00
03503             -25.00     8000.00
03504              23.40     8000.00
03505               7.00     8800.00
03506             -25.00     8800.00
03507              25.00     9600.00
03508              25.00    10400.00
03509             -25.00    11200.00
03510              25.00    11200.00
03511              16.80    11200.00
03512             -25.00    12000.00
03513              25.00    12800.00
03514             -25.00    12800.00
03515              25.00    14400.00
03516              25.00    14400.00
03517             -25.00    15200.00
03518              25.00    16000.00
03519               0.20    16000.00
03520             -25.00    16800.00
03521              25.00    17600.00
03522              -5.20    17600.00
03523             -25.00    18400.00
03524              25.00    19200.00
03525              15.80    19200.00
03526             -25.00    20000.00
03527              25.00    20800.00
03528               1.20    21600.00
03529             -25.00    22400.00
03530              25.00    22400.00
03531             -25.00    22400.00
03532              -3.80    22400.00
03533              18.20    24000.00
03534             -14.80    24000.00
03535               0.40    24800.00
03536              15.60    24800.00
03537             -15.20    25600.00
03538               0.80    25600.00
03539              10.60    25600.00
03540             -16.60    25600.00
03541               9.40    27200.00
03542               1.40    27200.00
03543              -9.20    27200.00
03544               7.00    28000.00
03545              -2.60    28000.00
03546              -3.80    28000.00
03547               3.00    28800.00
03548               0.20    28800.00
03549              -4.40    28800.00
03550              -0.40    29600.00
03551               1.00    28800.00
03552              -6.00    30400.00
03553               2.60    30400.00
03554              -1.00    30400.00
03555              -4.20    31200.00
03556               2.00    31200.00
03557              -5.00    31200.00
03558              -1.60    31200.00
03559              -1.20    32000.00
03560              -4.60    32000.00
03561               0.40    32800.00
03562              -2.20    32800.00
03563              -3.60    32000.00
03564              -2.80    32800.00
03565              -3.60    32000.00
03566              -3.80    32800.00
03567              -5.00    32800.00
03568              -3.80    32800.00
03569              -5.80    32000.00
03570              -6.20    32800.00
03571              -5.20    32800.00
03572              -8.80    32800.00
03573              -7.00    32800.00
03574              -9.00    33600.00
03575             -10.00    33600.00
03576              -9.20    32800.00
03577             -13.80    32800.00
03578             -12.20    32800.00
03579             -13.00    32800.00
03580             -15.00    32000.00
03581             -14.00    32800.00
03582             -15.60    32000.00
03583             -15.40    32800.00
03584             -16.40    32800.00
03585             -18.80    32000.00
03586             -23.00    32800.00
03587             -18.80    32000.00
03588              -8.20    32000.00
03589             -10.60    32000.00
03590             -11.80    31200.00
03591              -7.60    31200.00
03592              -7.00    31200.00
03593              -7.60    31200.00
03594              -7.00    31200.00
03595              -4.40    30400.00
03596              -4.60    30400.00
03597              -5.80    30400.00
03598              -2.80    29600.00
03599              -3.00    29600.00
03600              -4.40    28800.00
03601              -2.80    28800.00
03602              -2.00    28000.00
03603              -3.00    28000.00
03604              -2.20    28000.00
03605              -1.20    27200.00
03606              -2.20    27200.00
03607              -1.20    27200.00
03608              -1.00    26400.00
03609              -1.80    25600.00
03610              -1.20    25600.00
03611              -1.40    25600.00
03612              -0.80    24800.00
03613              -1.20    24800.00
03614              -2.00    24000.00
03615               0.20    24000.00
03616              -1.80    23200.00
03617              -1.80    22400.00
03618               0.60    21600.00
03619              -2.00    21600.00
03620              -1.20    21600.00
03621               1.00    20800.00
03622              -2.80    20800.00
03623              -0.60    20000.00
03624               0.00    19200.00
03625              -2.00    18400.00
03626              -0.20    18400.00
03627              -0.60    17600.00
03628              -1.20    17600.00
03629              -0.60    17600.00
03630              -0.60    16000.00
03631              -0.60    15200.00
03632              -1.20    15200.00
03633              -0.60    14400.00
03634              -1.20    14400.00
03635              -1.20    13600.00
03636              -1.00    12800.00
03637              -1.00    12000.00
03638              -0.60    12000.00
03639              -0.20    11200.00
03640              -0.60    10400.00
03641              -0.60    10400.00
03642              -0.60     9600.00
03643              -0.20     8800.00
03644              -1.20     8800.00
03645              -0.60     8000.00
03646              -1.00     7200.00
03647              -1.00     6400.00
03648              -0.60     6400.00
03649              -0.60     5600.00
03650              -1.00     4800.00
03651              -0.20     4800.00
03652              -0.60     3200.00
03653              -0.60     3200.00
03654              -0.40     2400.00
03655              -0.60     1600.00
03656              -0.60     1600.00
03657               0.20      800.00
03658              -0.20        0.00
03659              -0.20     -800.00
03660               2.80     -800.00
03661               1.00    -1600.00
03662              -2.80    -1600.00
03663               1.40    -2400.00
03664               1.00    -3200.00
03665              -1.40    -3200.00
03666               1.20    -4800.00
03667               6.60    -4800.00
03668              22.60    -5600.00
03669               3.00    -7200.00
03670             -25.00    -8000.00
03671               3.00    -8000.00
03672              23.60    -8000.00
03673             -25.00    -9600.00
03674             -20.80    -8800.00
03675              25.00    -9600.00
03676               5.00   -10400.00
03677             -25.00   -11200.00
03678              25.00   -12000.00
03679             -15.20   -12000.00
03680             -25.00   -12800.00
03681              25.00   -13600.00
03682             -25.00   -13600.00
03683              20.60   -14400.00
03684              10.00   -14400.00
03685             -25.00   -16000.00
03686              25.00   -16000.00
03687             -16.40   -16800.00
03688             -24.00   -17600.00
03689              25.00   -17600.00
03690              -9.20   -17600.00
03691             -25.00   -18400.00
03692              25.00   -19200.00
03693               0.40   -20000.00
03694             -25.00   -20000.00
03695              25.00   -20800.00
03696              -9.00   -20800.00
03697             -14.60   -21600.00
03698              24.00   -22400.00
03699             -17.00   -23200.00
03700              -3.40   -23200.00
03701              14.60   -23200.00
03702             -10.00   -24000.00
03703              -1.20   -24800.00
03704              13.20   -24000.00
03705             -13.40   -25600.00
03706               2.40   -25600.00
03707               8.40   -26400.00
03708             -12.40   -25600.00
03709               7.80   -26400.00
03710               1.80   -27200.00
03711              -6.20   -27200.00
03712               5.20   -27200.00
03713               0.20   -28000.00
03714              -2.60   -28800.00
03715               3.40   -28800.00
03716               2.00   -28800.00
03717              -3.60   -29600.00
03718               2.60   -28800.00
03719               1.40   -29600.00
03720              -2.60   -29600.00
03721               4.00   -30400.00
03722               1.40   -30400.00
03723               0.00   -30400.00
03724               3.60   -30400.00
03725              -0.20   -30400.00
03726               1.20   -32000.00
03727               2.00   -31200.00
03728               1.00   -32000.00
03729               3.00   -32000.00
03730               2.20   -32000.00
03731               2.60   -32000.00
03732               3.60   -32000.00
03733               4.20   -32000.00
03734               3.60   -32000.00
03735               4.00   -32000.00
03736               6.00   -32000.00
03737               4.40   -32000.00
03738               6.60   -32800.00
03739               7.40   -32000.00
03740               6.80   -32000.00
03741              10.00   -32000.00
03742               9.40   -32000.00
03743              11.00   -32800.00
03744              12.60   -32000.00
03745              10.80   -32800.00
03746              14.20   -32800.00
03747              14.80   -32000.00
03748              13.00   -32000.00
03749              15.40   -32000.00
03750              15.40   -32000.00
03751              15.80   -32000.00
03752              20.20   -32000.00
03753              22.60   -31200.00
03754              11.20   -32000.00
03755               8.20   -31200.00
03756              11.40   -31200.00
03757               8.40   -31200.00
03758               6.60   -30400.00
03759               6.60   -30400.00
03760               7.00   -30400.00
03761               6.80   -30400.00
03762               2.20   -29600.00
03763               5.00   -28800.00
03764               5.60   -29600.00
03765              -0.40   -28800.00
03766               3.60   -28800.00
03767               4.20   -28800.00
03768              -1.20   -28800.00
03769               2.20   -28000.00
03770               2.60   -27200.00
03771              -0.60   -27200.00
03772               1.00   -26400.00
03773               2.20   -26400.00
03774              -0.40   -26400.00
03775               1.20   -25600.00
03776               1.60   -25600.00
03777              -0.40   -25600.00
03778               1.00   -24800.00
03779               0.60   -24000.00
03780               0.20   -24000.00
03781               0.60   -23200.00
03782              -0.20   -23200.00
03783              -0.20   -23200.00
03784               0.00   -22400.00
03785              -0.60   -21600.00
03786               0.80   -20800.00
03787               1.00   -20000.00
03788              -0.40   -20000.00
03789               0.40   -20000.00
03790               0.60   -18400.00
03791              -0.60   -19200.00
03792               0.00   -18400.00
03793               1.00   -17600.00
03794              -0.60   -17600.00
03795              -0.20   -16800.00
03796               0.40   -16000.00
03797              -0.20   -16000.00
03798              -0.20   -15200.00
03799               0.40   -14400.00
03800               0.20   -14400.00
03801               0.20   -13600.00
03802              -0.40   -12800.00
03803              -0.20   -12000.00
03804              -0.40   -12000.00
03805               0.40   -11200.00
03806               0.60   -11200.00
03807               0.20   -10400.00
03808              -0.20    -9600.00
03809              -0.40    -9600.00
03810              -0.60    -8000.00
03811              -0.40    -8000.00
03812              -0.40    -7200.00
03813              -0.20    -7200.00
03814               0.40    -6400.00
03815              -0.60    -4800.00
03816              -0.20    -4800.00
03817               0.20    -4000.00
03818              -0.40    -4000.00
03819               0.20    -3200.00
03820              -0.40    -2400.00
03821              -1.00    -1600.00
03822               0.20    -1600.00
03823              -0.60     -800.00
03824              -0.40        0.00
03825               1.20      800.00
03826              -0.20      800.00
03827               3.60     1600.00
03828               0.40     1600.00
03829              -2.20     2400.00
03830               2.00     3200.00
03831               0.20     4000.00
03832              -1.80     4000.00
03833               6.60     4800.00
03834              25.00     6400.00
03835               9.80     7200.00
03836             -25.00     8000.00
03837               2.60     8000.00
03838              25.00     8000.00
03839             -25.00     8800.00
03840              -0.20     9600.00
03841              25.00    10400.00
03842             -25.00    10400.00
03843              15.60    12000.00
03844              25.00    11200.00
03845             -25.00    12000.00
03846              25.00    12800.00
03847               2.80    12800.00
03848             -25.00    14400.00
03849              25.00    14400.00
03850             -25.00    15200.00
03851              25.00    15200.00
03852              25.00    16000.00
03853             -25.00    16000.00
03854              25.00    17600.00
03855              25.00    17600.00
03856             -25.00    18400.00
03857               2.80    18400.00
03858              25.00    19200.00
03859             -25.00    20000.00
03860               9.80    20800.00
03861              25.00    21600.00
03862             -25.00    20800.00
03863              25.00    21600.00
03864              -2.60    22400.00
03865             -23.80    22400.00
03866              22.00    23200.00
03867              -6.80    24000.00
03868              -9.20    24000.00
03869              17.40    24000.00
03870              -4.80    24800.00
03871             -11.20    24800.00
03872              16.20    25600.00
03873             -13.20    25600.00
03874              -0.80    27200.00
03875              10.00    26400.00
03876             -12.20    27200.00
03877               3.60    27200.00
03878               1.80    28000.00
03879              -6.20    28000.00
03880               2.20    28000.00
03881               2.00    28800.00
03882              -3.60    28800.00
03883              -2.20    28800.00
03884               1.80    29600.00
03885              -4.60    29600.00
03886              -0.60    30400.00
03887               2.20    30400.00
03888              -4.40    30400.00
03889               1.80    31200.00
03890              -2.80    31200.00
03891              -4.00    31200.00
03892              -0.20    31200.00
03893              -5.20    32800.00
03894              -1.00    32000.00
03895              -1.00    32800.00
03896              -3.80    32000.00
03897              -2.40    32800.00
03898              -3.60    32000.00
03899              -3.40    32800.00
03900              -4.80    32800.00
03901              -4.20    32800.00
03902              -4.60    32800.00
03903              -7.00    32800.00
03904              -4.60    33600.00
03905              -8.40    32000.00
03906              -7.60    32800.00
03907              -7.60    33600.00
03908             -11.00    33600.00
03909              -8.40    32800.00
03910             -12.60    33600.00
03911             -13.80    32800.00
03912             -12.00    33600.00
03913             -14.80    32800.00
03914             -14.20    33600.00
03915             -14.80    32800.00
03916             -15.40    32800.00
03917             -15.60    32800.00
03918             -17.20    32800.00
03919             -21.40    32000.00
03920             -22.00    32000.00
03921             -10.20    32800.00
03922              -9.00    31200.00
03923             -12.60    31200.00
03924              -8.60    31200.00
03925              -7.00    31200.00
03926              -7.60    31200.00
03927              -7.00    31200.00
03928              -5.80    30400.00
03929              -4.20    30400.00
03930              -5.40    30400.00
03931              -3.80    29600.00
03932              -2.20    30400.00
03933              -4.40    28800.00
03934              -3.40    28800.00
03935              -1.60    28000.00
03936              -2.60    28000.00
03937              -2.80    28000.00
03938              -1.20    28000.00
03939              -2.00    27200.00
03940              -2.20    26400.00
03941              -1.00    25600.00
03942              -2.00    26400.00
03943              -2.20    25600.00
03944              -0.60    25600.00
03945              -1.20    24800.00
03946              -1.40    24800.00
03947              -0.80    24000.00
03948              -1.20    24000.00
03949              -1.20    24000.00
03950              -1.00    23200.00
03951              -1.00    22400.00
03952              -1.20    21600.00
03953              -1.20    21600.00
03954              -0.80    21600.00
03955              -1.40    20800.00
03956              -1.20    20000.00
03957              -1.20    20000.00
03958              -1.00    18400.00
03959              -0.40    18400.00
03960              -1.20    18400.00
03961              -0.60    17600.00
03962              -0.60    17600.00
03963              -0.80    16000.00
03964              -0.20    16000.00
03965              -1.00    15200.00
03966              -1.00    15200.00
03967              -0.60    14400.00
03968              -1.20    13600.00
03969              -1.00    13600.00
03970              -1.20    12800.00
03971              -1.00    12000.00
03972              -0.40    11200.00
03973              -0.60    11200.00
03974              -0.80     9600.00
03975              -1.00     9600.00
03976              -0.20     8800.00
03977              -0.60     8800.00
03978              -0.80     8000.00
03979              -0.40     7200.00
03980              -1.00     7200.00
03981              -0.60     5600.00
03982              -0.40     5600.00
03983              -1.00     4800.00
03984              -1.00     4000.00
03985              -0.60     3200.00
03986              -0.40     3200.00
03987              -0.60     2400.00
03988              -0.40     1600.00
03989              -0.60     1600.00
03990               0.00      800.00
03991              -0.20        0.00
03992              -0.20     -800.00
03993               1.60     -800.00
03994               3.00    -1600.00
03995              -2.80    -1600.00
03996               0.20    -2400.00
03997               1.80    -3200.00
03998              -1.20    -3200.00
03999              -0.60    -4000.00
04000               4.60    -4800.00
04001              15.60    -5600.00
04002              20.40    -6400.00
04003             -25.00    -8000.00
04004             -18.80    -8000.00
04005              25.00    -9600.00
04006             -12.60    -8800.00
04007             -25.00    -8800.00
04008              25.00    -9600.00
04009              25.00   -11200.00
04010             -25.00   -10400.00
04011              25.00   -11200.00
04012              25.00   -12000.00
04013             -25.00   -12800.00
04014              25.00   -13600.00
04015             -10.20   -14400.00
04016             -18.00   -13600.00
04017              25.00   -14400.00
04018             -25.00   -16000.00
04019              25.00   -16000.00
04020              17.20   -16000.00
04021             -25.00   -16800.00
04022              25.00   -17600.00
04023              15.40   -17600.00
04024             -25.00   -18400.00
04025               9.80   -18400.00
04026              25.00   -20000.00
04027             -25.00   -20000.00
04028              20.20   -20000.00
04029              16.60   -20800.00
04030             -25.00   -21600.00
04031              21.00   -21600.00
04032              -1.80   -22400.00
04033             -16.60   -22400.00
04034              15.20   -23200.00
04035              -0.20   -24000.00
04036             -11.20   -24000.00
04037              14.00   -24000.00
04038              -4.40   -25600.00
04039              -9.00   -24800.00
04040              13.20   -25600.00
04041              -7.60   -26400.00
04042               0.20   -26400.00
04043               7.00   -27200.00
04044              -5.80   -26400.00
04045               1.20   -27200.00
04046               2.60   -27200.00
04047              -2.80   -28000.00
04048               1.40   -28800.00
04049               3.60   -28800.00
04050              -2.20   -28800.00
04051               0.60   -28800.00
04052               3.00   -29600.00
04053              -2.80   -29600.00
04054               2.00   -29600.00
04055               3.40   -29600.00
04056              -1.60   -30400.00
04057               3.60   -30400.00
04058               1.40   -31200.00
04059               0.40   -30400.00
04060               2.20   -31200.00
04061               1.20   -31200.00
04062               2.60   -32000.00
04063               2.00   -32000.00
04064               1.80   -32000.00
04065               3.20   -32000.00
04066               3.40   -32000.00
04067               3.80   -32000.00
04068               3.80   -32000.00
04069               5.80   -32000.00
04070               5.20   -32000.00
04071               5.40   -32000.00
04072               7.60   -32000.00
04073               6.20   -32800.00
04074               8.60   -32800.00
04075               9.80   -32800.00
04076               9.40   -32000.00
04077              12.20   -32800.00
04078              12.00   -32800.00
04079              12.60   -32800.00
04080              14.80   -32000.00
04081              13.80   -32000.00
04082              14.00   -32000.00
04083              15.40   -32000.00
04084              15.80   -32000.00
04085              17.40   -32000.00
04086              23.40   -32000.00
04087              16.20   -32000.00
04088               7.00   -30400.00
04089              11.60   -31200.00
04090              10.20   -30400.00
04091               5.40   -31200.00
04092               6.80   -30400.00
04093               6.60   -30400.00
04094               6.00   -30400.00
04095               4.20   -30400.00
04096               3.60   -29600.00
04097               5.00   -29600.00
04098               3.40   -28800.00
04099               1.40   -28800.00
04100               3.60   -28800.00
04101               2.00   -28000.00
04102               1.00   -28800.00
04103               2.40   -28000.00
04104               1.80   -27200.00
04105               0.40   -27200.00
04106               1.80   -26400.00
04107               0.60   -26400.00
04108               0.00   -25600.00
04109               1.80   -25600.00
04110               0.40   -25600.00
04111              -0.20   -24800.00
04112               1.20   -24000.00
04113               0.40   -24000.00
04114               0.40   -23200.00
04115               0.60   -23200.00
04116              -0.20   -22400.00
04117               0.60   -22400.00
04118              -0.40   -22400.00
04119               0.20   -20800.00
04120               0.20   -20800.00
04121               0.20   -20000.00
04122               0.60   -20000.00
04123              -0.20   -19200.00
04124               0.20   -18400.00
04125              -0.20   -18400.00
04126              -0.60   -18400.00
04127               0.40   -17600.00
04128              -0.40   -16800.00
04129               0.20   -16800.00
04130               0.40   -16000.00
04131              -0.20   -15200.00
04132              -0.20   -14400.00
04133               0.40   -14400.00
04134              -0.20   -13600.00
04135               0.40   -12800.00
04136               0.20   -12800.00
04137              -0.60   -12000.00
04138               0.20   -11200.00
04139              -0.20   -10400.00
04140              -0.80   -10400.00
04141               0.00    -9600.00
04142              -0.20    -9600.00
04143              -0.60    -8800.00
04144              -0.20    -8000.00
04145              -0.20    -7200.00
04146              -0.20    -6400.00
04147               0.20    -6400.00
04148               0.20    -4800.00
04149              -0.40    -4800.00
04150               0.00    -4800.00
04151              -0.40    -4000.00
04152              -0.20    -3200.00
04153              -0.20    -2400.00
04154              -1.00    -2400.00
04155              -0.20    -1600.00
04156              -0.40     -800.00
04157              -0.60        0.00
04158               0.40        0.00
04159               0.40     1600.00
04160               2.00     1600.00
04161               2.80     2400.00
04162              -2.60     2400.00
04163               0.60     2400.00
04164               1.80     3200.00
04165              -1.40     4800.00
04166               2.20     4800.00
04167              16.60     6400.00
04168              25.00     7200.00
04169             -25.00     8000.00
04170             -23.60     8000.00
04171              25.00     8800.00
04172             -16.60     8800.00
04173             -25.00     8800.00
04174              25.00    10400.00
04175             -13.40    10400.00
04176             -25.00    11200.00
04177              25.00    12000.00
04178             -25.00    11200.00
04179              -3.80    12800.00
04180              25.00    12800.00
04181             -25.00    12800.00
04182              25.00    14400.00
04183             -17.40    15200.00
04184             -25.00    14400.00
04185              25.00    16000.00
04186             -25.00    16000.00
04187              -2.60    17600.00
04188              25.00    17600.00
04189             -25.00    17600.00
04190             -20.40    18400.00
04191              25.00    19200.00
04192             -18.00    20000.00
04193             -25.00    20800.00
04194              25.00    20800.00
04195             -25.00    21600.00
04196               4.00    21600.00
04197              23.40    22400.00
04198             -25.00    22400.00
04199              14.60    23200.00
04200               6.00    24000.00
04201             -16.00    24000.00
04202              11.60    24000.00
04203               7.00    24800.00
04204             -18.20    24800.00
04205              12.60    24800.00
04206              -1.40    26400.00
04207             -11.80    26400.00
04208              14.00    26400.00
04209              -7.80    27200.00
04210              -3.00    28000.00
04211               6.20    27200.00
04212              -6.20    28000.00
04213              -1.20    28800.00
04214               3.60    28800.00
04215              -2.60    28800.00
04216              -3.80    28800.00
04217               1.80    29600.00
04218              -2.20    30400.00
04219              -3.80    30400.00
04220               4.20    30400.00
04221              -4.20    30400.00
04222              -1.20    30400.00
04223               0.60    31200.00
04224              -5.80    31200.00
04225               0.40    31200.00
04226              -3.00    32000.00
04227              -3.20    31200.00
04228               0.20    32800.00
04229              -3.60    32000.00
04230              -3.20    32000.00
04231              -2.80    32800.00
04232              -3.40    32800.00
04233              -4.40    32000.00
04234              -4.40    32800.00
04235              -4.40    32800.00
04236              -6.80    32800.00
04237              -4.40    33600.00
04238              -6.80    33600.00
04239              -8.20    32800.00
04240              -6.40    33600.00
04241             -10.20    32800.00
04242              -8.60    33600.00
04243             -10.80    33600.00
04244             -14.20    33600.00
04245             -11.60    32800.00
04246             -14.80    32800.00
04247             -14.80    32800.00
04248             -14.20    32000.00
04249             -15.40    32800.00
04250             -15.40    32800.00
04251             -16.40    32000.00
04252             -19.60    32800.00
04253             -23.40    32000.00
04254             -14.20    32000.00
04255              -7.60    32000.00
04256             -11.80    32000.00
04257             -10.20    31200.00
04258              -7.00    31200.00
04259              -7.00    31200.00
04260              -7.60    31200.00
04261              -6.60    30400.00
04262              -4.40    29600.00
04263              -5.40    30400.00
04264              -5.00    29600.00
04265              -2.20    29600.00
04266              -3.60    28800.00
04267              -3.80    28800.00
04268              -2.00    28800.00
04269              -2.60    28000.00
04270              -2.80    28800.00
04271              -1.80    28000.00
04272              -1.40    27200.00
04273              -2.20    27200.00
04274              -1.40    27200.00
04275              -1.40    26400.00
04276              -2.20    25600.00
04277              -1.00    25600.00
04278              -1.00    24800.00
04279              -1.60    24800.00
04280              -1.00    24800.00
04281              -1.40    24000.00
04282              -1.00    24000.00
04283              -0.60    22400.00
04284              -0.60    22400.00
04285              -0.60    22400.00
04286              -1.20    21600.00
04287              -1.00    21600.00
04288              -1.20    20800.00
04289              -1.40    20000.00
04290              -1.20    19200.00
04291              -1.00    19200.00
04292              -0.80    18400.00
04293              -1.00    18400.00
04294              -0.60    17600.00
04295              -1.20    16800.00
04296              -0.60    16000.00
04297              -0.40    16000.00
04298              -1.00    15200.00
04299              -0.60    15200.00
04300              -0.40    14400.00
04301              -1.20    14400.00
04302              -0.80    13600.00
04303              -1.00    12800.00
04304              -0.80    12800.00
04305              -0.60    11200.00
04306              -0.60    11200.00
04307              -0.60    11200.00
04308              -0.60     9600.00
04309              -1.00     9600.00
04310              -0.20     8800.00
04311              -1.00     8000.00
04312              -0.60     8000.00
04313              -0.40     7200.00
04314              -0.60     7200.00
04315              -0.80     6400.00
04316              -0.40     4800.00
04317              -0.80     4800.00
04318              -0.60     3200.00
04319              -0.60     3200.00
04320              -0.60     2400.00
04321              -0.60     2400.00
04322              -1.00     1600.00
04323              -0.40      800.00
04324              -0.40      800.00
04325              -0.40        0.00
04326               0.40     -800.00
04327               3.60     -800.00
04328              -1.40    -1600.00
04329              -1.00    -1600.00
04330               1.80    -2400.00
04331              -0.20    -3200.00
04332              -1.20    -4000.00
04333               2.80    -4000.00
04334              10.00    -4800.00
04335              25.00    -7200.00
04336             -22.20    -7200.00
04337             -25.00    -8000.00
04338              20.60    -8000.00
04339               7.60    -8800.00
04340             -25.00    -8800.00
04341               6.00    -9600.00
04342              25.00   -10400.00
04343             -25.00   -10400.00
04344             -17.20   -11200.00
04345              25.00   -11200.00
04346             -25.00   -12000.00
04347              12.20   -12800.00
04348              25.00   -12800.00
04349             -25.00   -13600.00
04350              25.00   -14400.00
04351             -25.00   -14400.00
04352              -5.80   -16000.00
04353              25.00   -16000.00
04354             -25.00   -16800.00
04355               3.80   -16800.00
04356              25.00   -17600.00
04357             -25.00   -17600.00
04358             -13.40   -18400.00
04359              25.00   -19200.00
04360             -25.00   -20000.00
04361              -5.80   -20000.00
04362              25.00   -20000.00
04363             -25.00   -20800.00
04364               6.60   -22400.00
04365              13.80   -22400.00
04366             -22.20   -22400.00
04367               8.20   -23200.00
04368               7.80   -24000.00
04369             -13.40   -24000.00
04370               9.00   -24000.00
04371               5.40   -24000.00
04372             -13.80   -25600.00
04373              10.80   -25600.00
04374              -0.60   -26400.00
04375              -7.60   -26400.00
04376              10.20   -26400.00
04377              -3.60   -27200.00
04378              -2.20   -27200.00
04379               5.40   -27200.00
04380              -2.00   -27200.00
04381              -0.60   -28000.00
04382               4.40   -28800.00
04383              -1.40   -28800.00
04384              -2.40   -28800.00
04385               4.60   -29600.00
04386              -1.40   -29600.00
04387              -0.60   -29600.00
04388               5.80   -30400.00
04389              -1.20   -30400.00
04390               1.80   -30400.00
04391               3.00   -30400.00
04392              -0.60   -30400.00
04393               2.20   -31200.00
04394               2.00   -30400.00
04395               2.00   -32000.00
04396               2.80   -32000.00
04397               1.80   -32000.00
04398               2.60   -32000.00
04399               3.40   -32000.00
04400               3.40   -32000.00
04401               3.40   -32000.00
04402               5.00   -32000.00
04403               5.40   -32000.00
04404               4.60   -32000.00
04405               7.40   -32800.00
04406               6.80   -32800.00
04407               7.40   -32000.00
04408              10.00   -32000.00
04409               9.20   -32800.00
04410              11.60   -32000.00
04411              12.20   -32000.00
04412              12.40   -32000.00
04413              14.60   -32800.00
04414              13.20   -32000.00
04415              14.00   -32800.00
04416              15.40   -32000.00
04417              14.60   -32000.00
04418              17.20   -32000.00
04419              22.20   -32000.00
04420              19.40   -32000.00
04421               9.00   -32000.00
04422               9.20   -32000.00
04423              11.60   -30400.00
04424               7.80   -31200.00
04425               5.40   -30400.00
04426               7.40   -30400.00
04427               7.60   -30400.00
04428               3.40   -30400.00
04429               4.20   -29600.00
04430               6.00   -28800.00
04431               2.60   -29600.00
04432               2.20   -28800.00
04433               4.40   -28800.00
04434               2.60   -28800.00
04435               0.40   -27200.00
04436               2.00   -28000.00
04437               2.20   -27200.00
04438              -0.60   -26400.00
04439               2.20   -26400.00
04440               2.40   -26400.00
04441              -0.60   -25600.00
04442               1.80   -25600.00
04443               1.60   -25600.00
04444              -1.40   -24800.00
04445               1.40   -24000.00
04446               1.40   -24000.00
04447              -1.20   -23200.00
04448               1.00   -23200.00
04449               0.40   -23200.00
04450              -1.40   -22400.00
04451               1.40   -22400.00
04452               0.40   -21600.00
04453              -0.60   -20800.00
04454               1.40   -20800.00
04455               0.20   -20000.00
04456              -0.40   -18400.00
04457               0.60   -19200.00
04458               0.00   -18400.00
04459              -0.20   -17600.00
04460               0.20   -17600.00
04461              -0.40   -16800.00
04462              -0.60   -16800.00
04463              -0.20   -16000.00
04464              -0.20   -15200.00
04465              -0.20   -14400.00
04466              -0.20   -14400.00
04467               0.00   -14400.00
04468               0.40   -13600.00
04469              -0.20   -12800.00
04470               0.20   -12800.00
04471              -0.20   -12000.00
04472              -0.60   -11200.00
04473               0.20   -10400.00
04474              -0.60    -9600.00
04475              -0.60    -9600.00
04476              -0.60    -8800.00
04477              -0.60    -8000.00
04478               0.00    -7200.00
04479               0.20    -7200.00
04480              -0.20    -6400.00
04481               0.20    -6400.00
04482              -0.40    -4800.00
04483              -0.40    -4800.00
04484              -0.20    -3200.00
04485               0.20    -3200.00
04486               0.20    -3200.00
04487               0.40    -1600.00
04488              -0.20    -1600.00
04489              -0.60     -800.00
04490              -0.40     -800.00
04491              -0.20        0.00
04492               0.20     1600.00
04493               1.00     1600.00
04494               3.60     1600.00
04495              -2.00     2400.00
04496              -0.20     3200.00
04497               2.20     3200.00
04498              -0.40     3200.00
04499              -0.60     4800.00
04500              10.80     5600.00
04501              25.00     7200.00
04502             -20.60     7200.00
04503             -25.00     8000.00
04504              24.20     8000.00
04505               5.40     8800.00
04506             -25.00     8800.00
04507              25.00     9600.00
04508              25.00     9600.00
04509             -25.00    10400.00
04510              25.00    12000.00
04511              13.00    11200.00
04512             -25.00    12800.00
04513              25.00    12800.00
04514             -25.00    12800.00
04515              25.00    14400.00
04516              25.00    14400.00
04517             -25.00    15200.00
04518              25.00    16000.00
04519              -3.00    16000.00
04520             -25.00    16800.00
04521              25.00    17600.00
04522              -7.00    18400.00
04523             -25.00    19200.00
04524              25.00    19200.00
04525              14.20    19200.00
04526             -25.00    20000.00
04527              25.00    20800.00
04528              -1.20    20800.00
04529             -25.00    21600.00
04530              25.00    22400.00
04531             -25.00    22400.00
04532              -2.20    22400.00
04533              17.60    24000.00
04534             -15.40    24000.00
04535               1.20    24000.00
04536              15.00    24800.00
04537             -16.20    24800.00
04538               1.80    25600.00
04539               9.80    25600.00
04540             -17.20    25600.00
04541              10.00    27200.00
04542               0.40    27200.00
04543              -9.20    27200.00
04544               7.40    27200.00
04545              -3.40    28000.00
04546              -3.80    28000.00
04547               3.20    28800.00
04548              -0.40    28800.00
04549              -4.20    28800.00
04550              -0.20    29600.00
04551               0.40    30400.00
04552              -5.40    30400.00
04553               2.40    30400.00
04554              -1.00    30400.00
04555              -3.60    31200.00
04556               1.80    31200.00
04557              -4.40    31200.00
04558              -1.20    31200.00
04559              -1.60    32800.00
04560              -4.20    31200.00
04561               0.40    32800.00
04562              -2.60    32000.00
04563              -3.00    32800.00
04564              -2.60    32000.00
04565              -3.40    32800.00
04566              -3.40    32800.00
04567              -5.20    32800.00
04568              -3.80    33600.00
04569              -5.80    33600.00
04570              -6.20    32000.00
04571              -5.40    33600.00
04572              -8.40    33600.00
04573              -6.60    32800.00
04574              -9.00    32800.00
04575              -9.80    32000.00
04576              -9.00    32800.00
04577             -13.80    32800.00
04578             -12.20    33600.00
04579             -13.20    32800.00
04580             -15.00    32800.00
04581             -14.00    32800.00
04582             -15.40    32800.00
04583             -15.20    32800.00
04584             -16.20    32000.00
04585             -18.40    32800.00
04586             -23.20    32000.00
04587             -18.60    32000.00
04588              -7.80    32000.00
04589             -10.80    32800.00
04590             -11.40    31200.00
04591              -7.60    31200.00
04592              -7.20    31200.00
04593              -7.60    31200.00
04594              -7.00    30400.00
04595              -5.20    30400.00
04596              -5.40    30400.00
04597              -5.20    30400.00
04598              -2.80    30400.00
04599              -4.20    28800.00
04600              -4.40    28800.00
04601              -2.60    28800.00
04602              -2.80    28000.00
04603              -2.20    28000.00
04604              -2.00    28000.00
04605              -2.00    27200.00
04606              -2.00    27200.00
04607              -1.60    27200.00
04608              -1.20    27200.00
04609              -2.20    25600.00
04610              -1.40    26400.00
04611              -0.60    24800.00
04612              -2.00    24800.00
04613              -1.20    24800.00
04614              -1.00    24000.00
04615              -1.00    24000.00
04616              -1.40    22400.00
04617              -1.20    23200.00
04618              -0.40    22400.00
04619              -1.20    22400.00
04620              -1.00    21600.00
04621              -0.20    20800.00
04622              -1.40    20800.00
04623              -0.80    20000.00
04624              -0.60    19200.00
04625              -1.00    19200.00
04626              -0.80    18400.00
04627              -0.80    17600.00
04628              -0.60    17600.00
04629              -1.40    16800.00
04630              -0.20    16000.00
04631              -0.20    15200.00
04632              -1.60    15200.00
04633              -0.40    14400.00
04634              -0.60    14400.00
04635              -1.00    13600.00
04636              -0.60    12800.00
04637              -0.60    12800.00
04638              -0.80    12000.00
04639              -0.40    11200.00
04640              -0.60    11200.00
04641              -0.20    10400.00
04642              -1.20     9600.00
04643              -0.20     8800.00
04644              -0.60     8000.00
04645              -0.60     8000.00
04646              -0.60     7200.00
04647              -0.40     6400.00
04648              -1.00     7200.00
04649              -0.60     5600.00
04650              -1.00     5600.00
04651              -0.60     4000.00
04652              -1.00     3200.00
04653               0.20     3200.00
04654              -0.40     2400.00
04655              -0.60     1600.00
04656               0.20      800.00
04657              -0.40        0.00
04658              -0.40        0.00
04659              -0.20     -800.00
04660               2.60     -800.00
04661               0.20    -1600.00
04662              -2.80    -1600.00
04663               1.00    -2400.00
04664               1.20    -3200.00
04665              -1.20    -4000.00
04666               0.60    -4000.00
04667               7.40    -4800.00
04668              22.60    -6400.00
04669               0.80    -7200.00
04670             -25.00    -8000.00
04671               3.60    -8000.00
04672              21.80    -8800.00
04673             -25.00    -8800.00
04674             -19.40    -9600.00
04675              25.00   -10400.00
04676               2.80   -10400.00
04677             -25.00   -10400.00
04678              25.00   -12000.00
04679             -18.60   -12800.00
04680             -25.00   -12000.00
04681              25.00   -13600.00
04682             -25.00   -13600.00
04683              22.00   -14400.00
04684               8.40   -14400.00
04685             -25.00   -16000.00
04686              25.00   -16000.00
04687             -18.60   -16000.00
04688             -23.20   -16800.00
04689              25.00   -17600.00
04690             -10.60   -18400.00
04691             -25.00   -18400.00
04692              25.00   -19200.00
04693              -0.60   -19200.00
04694             -25.00   -20000.00
04695              25.00   -20800.00
04696              -9.80   -21600.00
04697             -14.80   -21600.00
04698              25.00   -22400.00
04699             -17.80   -22400.00
04700              -3.80   -23200.00
04701              15.00   -23200.00
04702             -10.00   -24000.00
04703              -1.00   -24000.00
04704              13.80   -24000.00
04705             -13.40   -24800.00
04706               2.60   -25600.00
04707               8.20   -25600.00
04708             -12.40   -26400.00
04709               8.40   -26400.00
04710               1.80   -27200.00
04711              -6.00   -27200.00
04712               6.00   -27200.00
04713               0.20   -28000.00
04714              -2.80   -28000.00
04715               4.40   -28800.00
04716               1.00   -28800.00
04717              -3.80   -28800.00
04718               3.80   -28800.00
04719               0.40   -29600.00
04720              -2.20   -29600.00
04721               4.60   -30400.00
04722               0.80   -30400.00
04723              -0.40   -30400.00
04724               3.60   -30400.00
04725              -0.40   -30400.00
04726               1.00   -30400.00
04727               2.60   -31200.00
04728               1.00   -31200.00
04729               2.60   -32000.00
04730               3.00   -32000.00
04731               2.00   -32000.00
04732               2.80   -32000.00
04733               4.20   -32000.00
04734               3.40   -32800.00
04735               3.80   -32000.00
04736               6.20   -32000.00
04737               4.60   -32800.00
04738               5.80   -32000.00
04739               8.20   -32000.00
04740               6.60   -32800.00
04741               8.20   -32000.00
04742              10.00   -32800.00
04743              10.80   -32800.00
04744              11.60   -32000.00
04745              13.00   -32800.00
04746              14.60   -32000.00
04747              13.40   -32000.00
04748              14.20   -32000.00
04749              15.00   -32000.00
04750              14.40   -32000.00
04751              16.40   -32000.00
04752              19.80   -32000.00
04753              22.00   -32000.00
04754              11.80   -31200.00
04755               8.20   -31200.00
04756              12.40   -31200.00
04757               8.60   -30400.00
04758               5.80   -29600.00
04759               7.40   -30400.00
04760               7.40   -30400.00
04761               5.40   -29600.00
04762               3.80   -29600.00
04763               5.40   -29600.00
04764               3.80   -29600.00
04765               2.00   -28800.00
04766               3.40   -28800.00
04767               2.60   -28800.00
04768               0.60   -28800.00
04769               2.00   -28000.00
04770               1.80   -27200.00
04771               0.40   -27200.00
04772               1.40   -27200.00
04773               2.20   -26400.00
04774               0.20   -26400.00
04775               0.40   -25600.00
04776               1.80   -25600.00
04777              -0.20   -25600.00
04778               0.60   -24800.00
04779               1.40   -24000.00
04780               0.00   -24000.00
04781               0.40   -23200.00
04782               0.60   -23200.00
04783               0.20   -22400.00
04784               0.00   -21600.00
04785               0.00   -22400.00
04786               0.20   -20800.00
04787               0.20   -20000.00
04788               0.20   -20000.00
04789               0.20   -20000.00
04790               0.40   -19200.00
04791               0.20   -18400.00
04792               0.20   -18400.00
04793               0.00   -17600.00
04794              -0.20   -17600.00
04795              -0.60   -16800.00
04796              -0.40   -16000.00
04797               0.00   -16000.00
04798               0.20   -15200.00
04799              -0.60   -14400.00
04800              -0.20   -14400.00
04801               0.80   -13600.00
04802              -1.00   -12800.00
04803              -0.20   -12800.00
04804               0.40   -12000.00
04805              -0.60   -11200.00
04806              -0.20   -10400.00
04807               0.40   -10400.00
04808              -1.00    -9600.00
04809              -0.20    -8800.00
04810               0.00    -8000.00
04811              -0.60    -8000.00
04812              -0.40    -6400.00
04813               0.00    -7200.00
04814               0.20    -6400.00
04815              -0.40    -4800.00
04816              -0.60    -4000.00
04817               0.40    -4800.00
04818              -0.20    -3200.00
04819              -0.40    -3200.00
04820               0.20    -2400.00
04821              -0.20    -1600.00
04822              -1.00     -800.00
04823               0.20        0.00
04824               0.40        0.00
04825              -0.20      800.00
04826               0.60     1600.00
04827               3.60     1600.00
04828              -0.20     1600.00
04829              -1.80     2400.00
04830               1.80     3200.00
04831               0.40     3200.00
04832              -1.80     4800.00
04833               6.00     4800.00
04834              25.00     7200.00
04835               8.80     8000.00
04836             -25.00     8000.00
04837               4.20     8000.00
04838              25.00     8800.00
04839             -25.00     8000.00
04840               2.20     8800.00
04841              25.00    10400.00
04842             -25.00     9600.00
04843              19.00    11200.00
04844              25.00    12000.00
04845             -25.00    12000.00
04846              25.00    12800.00
04847              -0.20    12800.00
04848             -25.00    14400.00
04849              25.00    14400.00
04850             -25.00    15200.00
04851              25.00    15200.00
04852              25.00    16000.00
04853             -25.00    16000.00
04854              25.00    17600.00
04855              25.00    17600.00
04856             -25.00    18400.00
04857               5.20    18400.00
04858              25.00    19200.00
04859             -25.00    20000.00
04860              11.60    20800.00
04861              25.00    20800.00
04862             -25.00    21600.00
04863              25.00    22400.00
04864              -5.40    22400.00
04865             -22.20    23200.00
04866              23.20    24000.00
04867              -8.60    24000.00
04868              -8.60    24000.00
04869              18.00    24000.00
04870              -6.80    24800.00
04871             -10.00    25600.00
04872              16.80    25600.00
04873             -15.20    25600.00
04874              -0.60    26400.00
04875              11.00    27200.00
04876             -13.20    27200.00
04877               4.20    28000.00
04878               3.00    28000.00
04879              -7.40    28000.00
04880               1.60    28000.00
04881               3.20    28800.00
04882              -4.20    28800.00
04883              -2.20    28800.00
04884               3.00    29600.00
04885              -5.20    30400.00
04886              -1.00    30400.00
04887               2.80    30400.00
04888              -5.20    30400.00
04889               1.20    30400.00
04890              -1.80    31200.00
04891              -3.60    31200.00
04892              -0.20    32000.00
04893              -4.80    32000.00
04894              -1.00    32800.00
04895              -1.00    32800.00
04896              -3.60    32000.00
04897              -2.20    32800.00
04898              -2.80    32800.00
04899              -3.60    32000.00
04900              -4.60    32800.00
04901              -3.60    33600.00
04902              -4.80    33600.00
04903              -6.60    32800.00
04904              -4.40    32800.00
04905              -7.60    33600.00
04906              -7.60    33600.00
04907              -7.60    32800.00
04908             -10.20    33600.00
04909              -8.60    33600.00
04910             -12.60    33600.00
04911             -13.40    33600.00
04912             -11.60    32800.00
04913             -14.60    32800.00
04914             -14.80    32800.00
04915             -14.00    32800.00
04916             -14.80    32800.00
04917             -15.80    32800.00
04918             -17.40    32000.00
04919             -21.80    32800.00
04920             -22.00    32000.00
04921             -11.00    32000.00
04922              -9.40    32000.00
04923             -11.40    32000.00
04924              -8.60    31200.00
04925              -7.40    31200.00
04926              -7.60    31200.00
04927              -7.80    31200.00
04928              -6.00    30400.00
04929              -4.40    30400.00
04930              -5.00    30400.00
04931              -3.80    30400.00
04932              -2.80    29600.00
04933              -4.60    29600.00
04934              -3.20    28800.00
04935              -2.20    28800.00
04936              -2.80    28000.00
04937              -1.80    28000.00
04938              -2.20    28000.00
04939              -2.00    27200.00
04940              -2.60    27200.00
04941              -1.40    26400.00
04942              -0.60    26400.00
04943              -2.60    25600.00
04944              -0.60    25600.00
04945              -0.80    24800.00
04946              -2.60    24800.00
04947              -0.60    24000.00
04948              -0.60    24000.00
04949              -1.00    24000.00
04950              -0.40    23200.00
04951              -0.60    22400.00
04952              -2.00    22400.00
04953              -1.20    21600.00
04954              -0.40    20800.00
04955              -1.20    20800.00
04956              -1.00    20000.00
04957              -1.20    19200.00
04958              -0.60    19200.00
04959              -0.40    18400.00
04960              -1.20    18400.00
04961               0.20    17600.00
04962               0.20    17600.00
04963              -1.20    16800.00
04964               0.20    16000.00
04965              -1.20    16000.00
04966              -1.80    14400.00
04967              -0.60    14400.00
04968              -0.60    13600.00
04969              -0.40    12800.00
04970              -1.00    12800.00
04971              -1.20    12800.00
04972              -0.20    12000.00
04973              -0.60    11200.00
04974              -0.60    11200.00
04975              -0.20     9600.00
04976               0.40     9600.00
04977              -1.00     8800.00
04978              -1.20     8000.00
04979              -0.40     8000.00
04980              -1.00     6400.00
04981              -1.20     6400.00
04982               0.40     5600.00
04983              -0.60     4800.00
04984              -1.60     4800.00
04985              -1.20     3200.00
04986              -1.00     3200.00
04987              -1.40     2400.00
04988              -0.60     1600.00
04989               0.20     1600.00
04990               0.20        0.00
04991              -0.20     -800.00
04992              -0.20        0.00
04993               1.00     -800.00
04994               2.60    -1600.00
04995              -2.80    -1600.00
04996              -0.40    -2400.00
04997               1.40    -3200.00
04998              -1.20    -3200.00
04999              -0.60    -4000.00
05000               5.00    -4800.00
