Unit:(mV)
                     CH1         CH2
Frequency              ? 299.996 kHz
00001              19.00    -6400.00
00002              10.40    -7200.00
00003             -25.00    -7200.00
00004              -6.40    -8000.00
00005              25.00    -8800.00
00006             -23.00    -8800.00
00007             -25.00    -9600.00
00008              25.00    -9600.00
00009              25.00   -11200.00
00010             -25.00   -10400.00
00011              25.00   -11200.00
00012              22.20   -12000.00
00013             -25.00   -12000.00
00014              25.00   -13600.00
00015             -24.00   -13600.00
00016              -4.20   -14400.00
00017              25.00   -14400.00
00018             -25.00   -14400.00
00019              25.00   -16000.00
00020               3.00   -16000.00
00021             -25.00   -16800.00
00022              25.00   -16800.00
00023               7.20   -17600.00
00024             -25.00   -18400.00
00025              17.00   -18400.00
00026              17.80   -19200.00
00027             -25.00   -19200.00
00028              25.00   -20000.00
00029               6.00   -20000.00
00030             -25.00   -21600.00
00031              23.20   -22400.00
00032              -8.40   -22400.00
00033             -13.40   -22400.00
00034              15.60   -23200.00
00035              -4.40   -24000.00
00036             -10.20   -24000.00
00037              16.40   -24000.00
00038              -8.60   -24800.00
00039              -5.80   -24800.00
00040              13.20   -25600.00
00041             -11.40   -26400.00
00042               1.40   -26400.00
00043               5.20   -26400.00
00044              -7.00   -27200.00
00045               1.40   -27200.00
00046               2.20   -27200.00
00047              -3.80   -28000.00
00048               1.60   -28000.00
00049               2.80   -28800.00
00050              -4.60   -28800.00
00051               2.00   -28800.00
00052               2.20   -29600.00
00053              -4.00   -29600.00
00054               3.60   -29600.00
00055               1.40   -29600.00
00056              -2.20   -30400.00
00057               3.40   -30400.00
00058              -0.60   -30400.00
00059              -0.60   -31200.00
00060               2.60   -31200.00
00061               0.00   -32000.00
00062               2.00   -31200.00
00063               2.00   -32000.00
00064               1.40   -32000.00
00065               2.20   -32000.00
00066               3.00   -32000.00
00067               2.60   -32000.00
00068               3.40   -32000.00
00069               4.60   -32000.00
00070               4.00   -32000.00
00071               5.00   -32000.00
00072               6.40   -32800.00
00073               5.40   -32000.00
00074               8.20   -32000.00
00075               8.60   -32000.00
00076               9.20   -32800.00
00077              11.60   -32000.00
00078              11.00   -32000.00
00079              12.80   -32000.00
00080              13.20   -32000.00
00081              12.80   -32000.00
00082              13.80   -32000.00
00083              14.00   -32000.00
00084              15.40   -32000.00
00085              18.80   -32000.00
00086              25.00   -32000.00
00087              17.80   -32000.00
00088               5.20   -30400.00
00089              10.60   -30400.00
00090              12.00   -30400.00
00091               5.60   -30400.00
00092               4.80   -29600.00
00093               8.20   -29600.00
00094               5.80   -29600.00
00095               2.00   -29600.00
00096               4.20   -29600.00
00097               5.40   -28800.00
00098               0.60   -28800.00
00099               2.20   -28800.00
00100               3.60   -28800.00
00101               0.60   -28000.00
00102               1.00   -27200.00
00103               2.60   -27200.00
00104               0.60   -27200.00
00105               0.20   -27200.00
00106               1.80   -26400.00
00107               0.80   -25600.00
00108              -0.60   -25600.00
00109               0.80   -25600.00
00110              -0.40   -24800.00
00111              -0.40   -24000.00
00112               1.00   -24000.00
00113              -0.60   -24000.00
00114              -0.20   -23200.00
00115               0.80   -22400.00
00116              -0.60   -23200.00
00117               0.20   -22400.00
00118               0.20   -21600.00
00119              -0.40   -20800.00
00120               1.00   -20800.00
00121              -0.80   -20000.00
00122              -0.60   -19200.00
00123               0.20   -18400.00
00124              -0.60   -19200.00
00125              -0.40   -17600.00
00126               0.20   -17600.00
00127              -1.20   -16800.00
00128              -0.20   -16800.00
00129               0.40   -16000.00
00130              -1.00   -16000.00
00131              -0.20   -15200.00
00132               0.40   -15200.00
00133              -0.60   -14400.00
00134              -0.20   -13600.00
00135              -0.40   -12800.00
00136              -1.00   -12000.00
00137              -0.40   -12000.00
00138              -1.40   -11200.00
00139              -0.60   -10400.00
00140               0.00   -10400.00
00141              -0.80    -9600.00
00142               0.00    -9600.00
00143               0.20    -8000.00
00144              -0.40    -8000.00
00145               0.40    -7200.00
00146               0.00    -6400.00
00147              -1.00    -6400.00
00148               0.20    -6400.00
00149              -0.60    -4800.00
00150              -1.00    -4000.00
00151              -0.40    -3200.00
00152              -0.60    -3200.00
00153              -0.20    -2400.00
00154               0.00    -1600.00
00155              -1.00     -800.00
00156               0.20        0.00
00157               0.60        0.00
00158              -0.40        0.00
00159               1.00     1600.00
00160               3.60     1600.00
00161               0.40     2400.00
00162              -1.40     3200.00
00163               1.20     3200.00
00164               0.40     4000.00
00165              -1.20     4000.00
00166               4.20     4800.00
00167              20.60     6400.00
00168              20.60     7200.00
00169             -25.00     8000.00
00170              -7.80     8800.00
00171              25.00     8800.00
00172             -25.00     8800.00
00173             -23.80     9600.00
00174              25.00     9600.00
00175             -25.00    11200.00
00176             -25.00    11200.00
00177              25.00    12000.00
00178             -25.00    12000.00
00179              20.40    12800.00
00180              25.00    12800.00
00181             -25.00    14400.00
00182              25.00    14400.00
00183             -25.00    15200.00
00184             -23.60    15200.00
00185              25.00    16000.00
00186             -25.00    16800.00
00187              10.80    17600.00
00188              25.00    17600.00
00189             -25.00    18400.00
00190             -17.20    19200.00
00191              25.00    19200.00
00192             -25.00    19200.00
00193             -16.60    20000.00
00194              25.00    20800.00
00195             -25.00    21600.00
00196              13.00    21600.00
00197              17.40    22400.00
00198             -25.00    22400.00
00199              16.60    23200.00
00200               4.60    24000.00
00201             -15.60    24000.00
00202              12.20    24800.00
00203               6.80    24800.00
00204             -18.60    25600.00
00205              14.80    25600.00
00206              -2.80    25600.00
00207              -9.80    27200.00
00208              13.80    27200.00
00209              -7.80    27200.00
00210              -0.60    27200.00
00211               5.00    28000.00
00212              -3.80    28000.00
00213              -0.60    28000.00
00214               3.60    28800.00
00215              -1.80    28800.00
00216              -4.40    28800.00
00217               3.40    28800.00
00218              -3.00    29600.00
00219              -2.60    29600.00
00220               4.40    30400.00
00221              -4.00    31200.00
00222               0.60    30400.00
00223               1.00    31200.00
00224              -3.80    31200.00
00225               0.60    32000.00
00226              -2.20    31200.00
00227              -2.00    32000.00
00228              -0.20    32800.00
00229              -2.60    32000.00
00230              -3.00    32000.00
00231              -2.20    32800.00
00232              -2.60    32800.00
00233              -4.20    32800.00
00234              -2.80    32800.00
00235              -3.00    32800.00
00236              -6.20    32800.00
00237              -3.00    32800.00
00238              -6.20    32800.00
00239              -7.60    32800.00
00240              -5.00    33600.00
00241              -9.60    32800.00
00242              -8.60    32000.00
00243             -10.20    33600.00
00244             -13.40    32800.00
00245             -11.00    33600.00
00246             -13.20    32800.00
00247             -14.60    32800.00
00248             -13.40    32000.00
00249             -14.20    32800.00
00250             -15.00    32000.00
00251             -15.40    32000.00
00252             -20.40    32800.00
00253             -25.00    32000.00
00254             -14.00    31200.00
00255              -6.00    31200.00
00256             -13.00    31200.00
00257             -10.80    32800.00
00258              -7.40    31200.00
00259              -6.20    30400.00
00260              -7.80    30400.00
00261              -6.80    30400.00
00262              -2.60    30400.00
00263              -5.20    30400.00
00264              -5.40    29600.00
00265              -1.00    28800.00
00266              -3.00    28800.00
00267              -5.40    28800.00
00268               0.40    28800.00
00269              -2.60    28800.00
00270              -3.40    27200.00
00271               0.20    27200.00
00272              -1.80    27200.00
00273              -2.80    27200.00
00274               0.20    27200.00
00275              -1.20    26400.00
00276              -2.60    25600.00
00277               0.80    25600.00
00278              -0.60    24800.00
00279              -1.40    24800.00
00280               0.60    24000.00
00281              -1.20    24000.00
00282              -1.00    24000.00
00283               0.60    23200.00
00284              -1.20    22400.00
00285              -0.60    22400.00
00286               0.20    21600.00
00287              -1.20    21600.00
00288              -0.40    20800.00
00289               0.40    20800.00
00290              -1.20    19200.00
00291              -0.20    18400.00
00292               0.60    19200.00
00293              -2.00    17600.00
00294              -0.20    17600.00
00295               0.20    16800.00
00296              -1.60    16000.00
00297               0.40    16000.00
00298              -0.20    16000.00
00299              -1.40    15200.00
00300               0.60    14400.00
00301              -0.60    14400.00
00302              -0.80    13600.00
00303              -0.20    12800.00
00304              -0.60    12000.00
00305              -0.20    12000.00
00306              -0.20    11200.00
00307              -1.20    11200.00
00308              -0.60     9600.00
00309              -0.20     9600.00
00310              -1.00     8800.00
00311              -0.60     8000.00
00312               0.40     7200.00
00313              -1.40     6400.00
00314              -0.60     7200.00
00315               0.40     5600.00
00316              -1.20     4800.00
00317              -0.40     4800.00
00318               0.00     3200.00
00319              -1.20     3200.00
00320              -0.40     2400.00
00321              -0.40     2400.00
00322              -1.40     1600.00
00323              -0.20      800.00
00324              -0.20        0.00
00325              -1.00        0.00
00326               1.20     -800.00
00327               3.00     -800.00
00328              -2.80    -1600.00
00329               0.20    -2400.00
00330               1.40    -3200.00
00331              -0.60    -3200.00
00332              -0.60    -4000.00
00333               3.60    -4800.00
00334              12.40    -4800.00
00335              23.40    -7200.00
00336             -25.00    -7200.00
00337             -25.00    -8000.00
00338              24.40    -8800.00
00339              -3.40    -9600.00
00340             -25.00    -8800.00
00341              16.20    -9600.00
00342              25.00   -10400.00
00343             -25.00   -10400.00
00344               1.00   -11200.00
00345              25.00   -12000.00
00346             -25.00   -12000.00
00347              24.40   -12800.00
00348              18.40   -13600.00
00349             -25.00   -14400.00
00350              25.00   -14400.00
00351             -25.00   -14400.00
00352               6.80   -16000.00
00353              25.00   -16000.00
00354             -25.00   -16800.00
00355              11.00   -17600.00
00356              25.00   -17600.00
00357             -25.00   -17600.00
00358              -7.00   -18400.00
00359              25.00   -18400.00
00360             -25.00   -19200.00
00361               1.80   -20000.00
00362              25.00   -20800.00
00363             -25.00   -20800.00
00364              10.60   -22400.00
00365              10.00   -22400.00
00366             -22.00   -22400.00
00367               9.60   -23200.00
00368               6.60   -23200.00
00369             -16.60   -24000.00
00370              10.60   -24000.00
00371               4.20   -24800.00
00372             -14.60   -24800.00
00373              13.20   -25600.00
00374              -3.60   -25600.00
00375              -7.20   -26400.00
00376               9.40   -26400.00
00377              -6.00   -27200.00
00378              -3.00   -27200.00
00379               6.00   -27200.00
00380              -2.60   -28000.00
00381              -1.80   -28000.00
00382               5.00   -28800.00
00383              -3.00   -28800.00
00384              -3.00   -28800.00
00385               4.60   -28800.00
00386              -3.80   -29600.00
00387               0.20   -29600.00
00388               4.60   -29600.00
00389              -3.00   -30400.00
00390               2.20   -30400.00
00391               1.80   -30400.00
00392              -1.40   -30400.00
00393               2.20   -30400.00
00394              -0.20   -32000.00
00395               0.20   -31200.00
00396               3.40   -32000.00
00397               1.20   -32000.00
00398               1.80   -32000.00
00399               3.40   -32000.00
00400               2.20   -32000.00
00401               2.60   -32000.00
00402               3.80   -32000.00
00403               4.00   -32000.00
00404               4.40   -32800.00
00405               6.20   -32000.00
00406               5.40   -32000.00
00407               7.60   -32800.00
00408               9.00   -32000.00
00409               9.00   -32800.00
00410              11.60   -32800.00
00411              10.60   -32800.00
00412              12.00   -32800.00
00413              13.20   -32000.00
00414              12.20   -32000.00
00415              13.40   -32000.00
00416              14.20   -32000.00
00417              14.80   -32000.00
00418              17.00   -32000.00
00419              24.40   -32000.00
00420              23.00   -32000.00
00421               6.80   -31200.00
00422               8.00   -31200.00
00423              13.20   -30400.00
00424               7.40   -32000.00
00425               5.20   -30400.00
00426               7.80   -30400.00
00427               7.60   -30400.00
00428               2.20   -29600.00
00429               2.80   -29600.00
00430               5.80   -28800.00
00431               1.80   -28800.00
00432               0.60   -28800.00
00433               3.80   -28800.00
00434               1.80   -28000.00
00435               0.60   -28000.00
00436               2.60   -27200.00
00437               1.80   -27200.00
00438              -0.20   -26400.00
00439               1.20   -26400.00
00440               1.20   -26400.00
00441              -0.40   -25600.00
00442               0.60   -25600.00
00443               0.20   -25600.00
00444               0.00   -24800.00
00445               0.60   -24000.00
00446              -0.40   -24000.00
00447               0.20   -23200.00
00448               0.20   -23200.00
00449              -0.60   -22400.00
00450               0.40   -22400.00
00451               0.20   -21600.00
00452              -0.20   -20800.00
00453               0.40   -20800.00
00454              -0.20   -20000.00
00455              -0.40   -20800.00
00456              -0.20   -18400.00
00457              -0.60   -19200.00
00458              -0.60   -17600.00
00459              -0.20   -17600.00
00460              -0.60   -17600.00
00461              -0.60   -16800.00
00462               0.40   -16000.00
00463              -0.60   -16000.00
00464              -0.80   -16000.00
00465               0.40   -14400.00
00466              -0.60   -14400.00
00467              -0.60   -14400.00
00468               0.20   -12800.00
00469              -1.00   -12800.00
00470               0.00   -11200.00
00471              -0.40   -11200.00
00472              -0.80   -11200.00
00473              -0.20   -10400.00
00474              -0.60    -9600.00
00475              -0.60    -9600.00
00476               0.20    -8800.00
00477              -0.60    -8000.00
00478              -0.60    -7200.00
00479               0.40    -7200.00
00480              -0.40    -6400.00
00481              -0.60    -5600.00
00482               0.40    -6400.00
00483              -0.40    -4000.00
00484              -0.40    -4000.00
00485               0.20    -3200.00
00486              -0.20    -3200.00
00487              -1.00    -1600.00
00488              -0.20    -1600.00
00489              -0.40     -800.00
00490              -0.40        0.00
00491               0.20      800.00
00492               0.40      800.00
00493               2.00     1600.00
00494               3.00     1600.00
00495              -2.80     2400.00
00496               0.40     3200.00
00497               2.00     3200.00
00498              -1.60     4000.00
00499               1.40     4800.00
00500              13.00     5600.00
00501              25.00     7200.00
00502             -25.00     8000.00
00503             -25.00     8000.00
00504              25.00     8000.00
00505              -3.40     8800.00
00506             -25.00     8800.00
00507              25.00     9600.00
00508              25.00    10400.00
00509             -25.00    10400.00
00510              25.00    11200.00
00511              -5.20    12000.00
00512             -25.00    12800.00
00513              25.00    12800.00
00514             -25.00    12800.00
00515              25.00    14400.00
00516              25.00    15200.00
00517             -25.00    15200.00
00518              25.00    16000.00
00519             -21.20    16800.00
00520             -25.00    16800.00
00521              25.00    17600.00
00522             -11.40    18400.00
00523             -25.00    18400.00
00524              25.00    19200.00
00525               9.00    19200.00
00526             -25.00    20000.00
00527              25.00    20800.00
00528              -9.20    21600.00
00529             -19.00    21600.00
00530              25.00    22400.00
00531             -25.00    23200.00
00532               1.40    22400.00
00533              16.20    23200.00
00534             -14.80    24000.00
00535               1.00    24800.00
00536              16.20    24000.00
00537             -17.40    24800.00
00538               3.40    25600.00
00539              10.00    25600.00
00540             -16.60    27200.00
00541              11.00    27200.00
00542              -0.40    27200.00
00543              -7.00    27200.00
00544               6.80    28000.00
00545              -1.40    28800.00
00546              -2.80    28800.00
00547               3.60    28800.00
00548               1.20    29600.00
00549              -5.40    28800.00
00550               1.60    28800.00
00551               0.40    30400.00
00552              -5.80    29600.00
00553               4.00    30400.00
00554              -1.60    30400.00
00555              -2.80    30400.00
00556               2.80    31200.00
00557              -3.80    31200.00
00558              -0.40    31200.00
00559              -0.60    31200.00
00560              -3.60    32800.00
00561               0.20    32800.00
00562              -1.20    32000.00
00563              -3.00    32800.00
00564              -1.80    32800.00
00565              -2.00    32800.00
00566              -4.40    32800.00
00567              -4.20    32000.00
00568              -2.00    32800.00
00569              -5.80    32800.00
00570              -4.40    32800.00
00571              -3.80    33600.00
00572              -8.80    32800.00
00573              -5.20    32800.00
00574              -8.40    32800.00
00575              -9.20    32800.00
00576              -7.80    33600.00
00577             -13.20    32800.00
00578             -11.80    32800.00
00579             -12.20    32800.00
00580             -14.60    32000.00
00581             -13.40    32800.00
00582             -13.40    32800.00
00583             -15.00    32000.00
00584             -15.60    32800.00
00585             -18.20    32800.00
00586             -25.00    32000.00
00587             -20.00    32800.00
00588              -5.80    32000.00
00589             -11.00    31200.00
00590             -12.60    31200.00
00591              -7.60    31200.00
00592              -7.00    30400.00
00593              -7.00    31200.00
00594              -7.00    31200.00
00595              -3.80    30400.00
00596              -2.80    29600.00
00597              -7.00    29600.00
00598              -3.20    28800.00
00599              -1.40    28800.00
00600              -6.20    28800.00
00601              -2.00    28800.00
00602               0.40    28000.00
00603              -4.40    28000.00
00604              -1.60    27200.00
00605               0.40    27200.00
00606              -2.60    27200.00
00607              -1.80    26400.00
00608              -0.20    25600.00
00609              -1.80    25600.00
00610              -0.20    25600.00
00611              -0.20    24800.00
00612              -1.20    24800.00
00613               0.20    24800.00
00614              -1.20    24000.00
00615              -0.60    23200.00
00616               0.40    22400.00
00617              -1.20    22400.00
00618              -1.40    22400.00
00619              -0.60    21600.00
00620              -0.80    21600.00
00621              -0.60    20800.00
00622               0.40    20800.00
00623               0.40    19200.00
00624              -0.60    18400.00
00625               0.00    18400.00
00626              -0.40    17600.00
00627              -1.20    17600.00
00628               0.40    16800.00
00629              -0.80    16000.00
00630              -1.00    16000.00
00631               0.20    15200.00
00632              -1.00    15200.00
00633              -0.40    14400.00
00634              -0.20    14400.00
00635              -0.60    13600.00
00636              -0.60    12800.00
00637               0.20    12800.00
00638              -0.40    12000.00
00639               0.20    11200.00
00640               0.20    10400.00
00641              -1.00     9600.00
00642              -0.80     9600.00
00643              -0.40     8800.00
00644              -2.00     8800.00
00645              -0.20     8000.00
00646              -0.60     7200.00
00647              -1.00     5600.00
00648               0.20     5600.00
00649              -0.60     5600.00
00650              -1.00     4800.00
00651              -0.40     3200.00
00652              -0.60     3200.00
00653              -0.40     2400.00
00654              -1.20     2400.00
00655              -0.40     1600.00
00656              -1.00     1600.00
00657              -1.20        0.00
00658               0.80        0.00
00659              -1.40        0.00
00660               3.80    -1600.00
00661               0.20    -1600.00
00662              -3.80    -1600.00
00663               2.60    -2400.00
00664               0.60    -3200.00
00665              -3.40    -4000.00
00666               3.60    -4000.00
00667               8.40    -4800.00
00668              22.60    -6400.00
00669              -9.00    -7200.00
00670             -25.00    -8000.00
00671              11.00    -8000.00
00672              16.60    -8000.00
00673             -25.00    -9600.00
00674             -10.60    -9600.00
00675              25.00   -10400.00
00676             -13.40   -10400.00
00677             -25.00   -11200.00
00678              25.00   -12000.00
00679             -25.00   -12000.00
00680             -25.00   -12800.00
00681              25.00   -13600.00
00682             -25.00   -14400.00
00683              25.00   -14400.00
00684              -4.40   -14400.00
00685             -25.00   -16000.00
00686              25.00   -16000.00
00687             -24.20   -16800.00
00688             -15.00   -17600.00
00689              25.00   -17600.00
00690             -14.80   -17600.00
00691             -25.00   -18400.00
00692              25.00   -19200.00
00693              -8.40   -19200.00
00694             -25.00   -20000.00
00695              25.00   -20800.00
00696             -16.20   -20800.00
00697              -9.20   -21600.00
00698              21.80   -22400.00
00699             -19.60   -22400.00
00700              -1.20   -22400.00
00701              13.80   -24000.00
00702             -12.40   -24000.00
00703               0.40   -24000.00
00704              13.00   -24000.00
00705             -15.60   -25600.00
00706               5.00   -25600.00
00707               6.60   -25600.00
00708             -12.60   -26400.00
00709               7.80   -26400.00
00710              -0.60   -27200.00
00711              -6.60   -27200.00
00712               5.00   -27200.00
00713              -0.20   -28000.00
00714              -3.40   -28000.00
00715               4.20   -28800.00
00716               0.20   -28800.00
00717              -4.60   -28800.00
00718               4.40   -29600.00
00719              -1.40   -29600.00
00720              -2.60   -29600.00
00721               5.00   -30400.00
00722              -2.00   -30400.00
00723              -0.40   -30400.00
00724               3.00   -30400.00
00725              -2.60   -30400.00
00726               1.00   -31200.00
00727               2.00   -30400.00
00728              -0.40   -32000.00
00729               2.80   -32000.00
00730               1.60   -32000.00
00731               1.20   -32000.00
00732               2.80   -32000.00
00733               3.40   -32000.00
00734               2.20   -32000.00
00735               3.40   -32000.00
00736               4.60   -32000.00
00737               3.20   -32800.00
00738               5.60   -32800.00
00739               6.00   -32800.00
00740               6.00   -32800.00
00741               9.20   -32800.00
00742               8.60   -32000.00
00743              10.20   -32000.00
00744              12.20   -32000.00
00745              11.40   -32000.00
00746              13.00   -32000.00
00747              13.40   -32000.00
00748              13.00   -32000.00
00749              13.40   -32000.00
00750              15.00   -32000.00
00751              15.80   -32000.00
00752              20.20   -31200.00
00753              25.00   -31200.00
00754              12.60   -32000.00
00755               5.00   -32000.00
00756              12.20   -30400.00
00757              10.80   -30400.00
00758               4.60   -30400.00
00759               6.40   -29600.00
00760               9.20   -29600.00
00761               3.60   -29600.00
00762               2.20   -29600.00
00763               6.00   -29600.00
00764               3.40   -28800.00
00765               0.80   -28800.00
00766               3.00   -28800.00
00767               2.60   -28800.00
00768               0.40   -28000.00
00769               0.40   -27200.00
00770               2.60   -27200.00
00771               1.40   -27200.00
00772              -0.40   -26400.00
00773               1.40   -26400.00
00774               1.20   -26400.00
00775              -1.00   -25600.00
00776               0.60   -25600.00
00777               0.60   -25600.00
00778              -0.60   -24000.00
00779               0.20   -24000.00
00780              -0.40   -24000.00
00781              -0.40   -23200.00
00782               0.00   -23200.00
00783              -0.40   -22400.00
00784              -0.60   -22400.00
00785               0.20   -21600.00
00786              -0.40   -20800.00
00787              -0.60   -20000.00
00788               0.40   -20000.00
00789              -1.00   -19200.00
00790              -0.40   -18400.00
00791              -0.20   -18400.00
00792              -1.00   -17600.00
00793               0.40   -17600.00
00794              -0.60   -16800.00
00795              -0.80   -16800.00
00796               0.60   -16000.00
00797              -1.20   -16000.00
00798               0.00   -16000.00
00799              -0.20   -14400.00
00800              -1.00   -13600.00
00801               0.20   -13600.00
00802              -1.40   -12800.00
00803              -0.60   -12800.00
00804              -0.20   -12000.00
00805              -1.00   -11200.00
00806               0.40   -10400.00
00807               0.00   -10400.00
00808              -1.20    -9600.00
00809               0.40    -8800.00
00810               0.40    -8000.00
00811              -1.40    -8000.00
00812               0.40    -7200.00
00813               0.40    -6400.00
00814              -1.40    -6400.00
00815               0.20    -5600.00
00816               0.20    -4800.00
00817              -1.20    -4000.00
00818              -0.20    -3200.00
00819               0.20    -2400.00
00820              -0.60    -1600.00
00821               0.00    -1600.00
00822              -0.20    -1600.00
00823               0.20        0.00
00824               0.60        0.00
00825               0.60        0.00
00826               1.20     1600.00
00827               3.60     1600.00
00828              -2.00     2400.00
00829              -0.20     2400.00
00830               1.40     3200.00
00831              -0.60     3200.00
00832              -0.20     4800.00
00833               7.80     4800.00
00834              25.00     7200.00
00835              -3.80     7200.00
00836             -25.00     8000.00
00837              14.80     8000.00
00838              18.00     8800.00
00839             -25.00     8800.00
00840              14.80     9600.00
00841              25.00    11200.00
00842             -25.00    10400.00
00843              25.00    11200.00
00844              25.00    12000.00
00845             -25.00    12000.00
00846              25.00    12800.00
00847             -19.80    12800.00
00848             -23.60    14400.00
00849              25.00    14400.00
00850             -25.00    14400.00
00851              25.00    15200.00
00852              25.00    16000.00
00853             -25.00    16000.00
00854              25.00    17600.00
00855              21.40    17600.00
00856             -25.00    17600.00
00857               9.20    19200.00
00858              25.00    19200.00
00859             -25.00    19200.00
00860              21.20    20800.00
00861              25.00    20800.00
00862             -25.00    21600.00
00863              25.00    21600.00
00864              -9.20    22400.00
00865             -18.20    22400.00
00866              22.20    24000.00
00867              -7.00    24000.00
00868              -9.40    24000.00
00869              18.00    24800.00
00870              -6.80    24800.00
00871              -9.80    25600.00
00872              17.20    25600.00
00873             -14.60    25600.00
00874               2.60    26400.00
00875               9.20    27200.00
00876             -11.20    27200.00
00877               5.40    27200.00
00878               1.80    28000.00
00879              -5.00    28000.00
00880               2.20    28000.00
00881               2.20    28800.00
00882              -4.20    28800.00
00883              -0.80    28800.00
00884               2.80    28800.00
00885              -4.60    30400.00
00886               1.40    30400.00
00887               2.60    30400.00
00888              -3.80    30400.00
00889               2.00    31200.00
00890              -2.60    31200.00
00891              -2.20    31200.00
00892               0.40    32000.00
00893              -3.00    31200.00
00894              -0.80    32800.00
00895              -0.60    32800.00
00896              -2.60    32000.00
00897              -3.40    32800.00
00898              -2.20    32800.00
00899              -2.40    32800.00
00900              -4.60    32800.00
00901              -2.60    32800.00
00902              -3.80    32800.00
00903              -6.00    32800.00
00904              -3.00    32800.00
00905              -7.00    32800.00
00906              -6.80    32800.00
00907              -7.00    32800.00
00908              -9.80    32800.00
00909              -8.60    33600.00
00910             -12.00    32800.00
00911             -12.40    32800.00
00912             -12.00    33600.00
00913             -13.40    32000.00
00914             -13.80    32800.00
00915             -14.00    32800.00
00916             -13.80    32800.00
00917             -15.40    32000.00
00918             -17.20    32000.00
00919             -23.60    32800.00
00920             -25.00    32000.00
00921              -9.40    31200.00
00922              -7.60    32000.00
00923             -13.80    32800.00
00924              -9.20    31200.00
00925              -6.20    31200.00
00926              -7.00    31200.00
00927              -8.40    30400.00
00928              -5.20    31200.00
00929              -2.60    30400.00
00930              -6.00    30400.00
00931              -3.80    29600.00
00932              -0.60    28800.00
00933              -4.20    28800.00
00934              -3.80    28800.00
00935              -0.60    28800.00
00936              -3.00    28000.00
00937              -2.80    28000.00
00938              -0.20    27200.00
00939              -1.60    27200.00
00940              -2.20    27200.00
00941               0.20    25600.00
00942              -1.20    26400.00
00943              -1.60    24800.00
00944               0.20    24800.00
00945              -0.40    25600.00
00946              -0.60    24800.00
00947              -0.60    24000.00
00948              -0.80    24000.00
00949              -0.20    23200.00
00950              -1.00    22400.00
00951              -0.60    22400.00
00952              -0.20    21600.00
00953              -0.60    21600.00
00954              -0.20    20800.00
00955              -0.40    20800.00
00956              -1.20    20000.00
00957              -0.40    19200.00
00958               0.20    19200.00
00959              -0.20    18400.00
00960              -0.60    17600.00
00961               0.00    17600.00
00962              -0.20    16000.00
00963              -0.20    16000.00
00964              -0.20    16000.00
00965              -1.00    15200.00
00966               0.00    15200.00
00967              -0.60    14400.00
00968              -0.60    12800.00
00969              -0.40    12800.00
00970              -1.20    12800.00
00971               0.00    12000.00
00972               0.00    11200.00
00973              -0.60    11200.00
00974              -0.20    10400.00
00975              -1.00     9600.00
00976              -0.20     8800.00
00977              -0.60     8800.00
00978              -1.00     8000.00
00979              -0.60     7200.00
00980              -0.60     6400.00
00981              -0.60     7200.00
00982              -0.40     5600.00
00983              -0.60     4800.00
00984              -0.60     4000.00
00985              -1.00     3200.00
00986              -0.60     3200.00
00987              -0.20     2400.00
00988              -1.00     1600.00
00989              -1.40     1600.00
00990              -0.20        0.00
00991              -0.60        0.00
00992              -0.60     -800.00
00993               2.60     -800.00
00994               1.20    -1600.00
00995              -2.80    -1600.00
00996               1.40    -2400.00
00997               0.60    -3200.00
00998              -1.20    -4000.00
00999               0.40    -4000.00
01000               5.00    -4000.00
01001              18.40    -6400.00
01002              12.20    -7200.00
01003             -25.00    -8000.00
01004              -7.60    -8000.00
01005              25.00    -8000.00
01006             -21.80    -9600.00
01007             -25.00    -8800.00
01008              25.00    -9600.00
01009              25.00   -10400.00
01010             -25.00   -10400.00
01011              25.00   -11200.00
01012              25.00   -12000.00
01013             -25.00   -12800.00
01014              25.00   -13600.00
01015             -21.40   -13600.00
01016              -5.80   -13600.00
01017              25.00   -14400.00
01018             -25.00   -15200.00
01019              25.00   -16000.00
01020               5.20   -16800.00
01021             -25.00   -16800.00
01022              25.00   -17600.00
01023               9.00   -17600.00
01024             -25.00   -18400.00
01025              15.40   -18400.00
01026              19.40   -19200.00
01027             -25.00   -20000.00
01028              25.00   -20000.00
01029               7.80   -20800.00
01030             -25.00   -20800.00
01031              22.20   -22400.00
01032              -7.80   -22400.00
01033             -13.40   -23200.00
01034              15.00   -23200.00
01035              -4.00   -24000.00
01036              -9.80   -24000.00
01037              15.80   -24000.00
01038              -8.40   -24800.00
01039              -6.00   -25600.00
01040              13.40   -25600.00
01041             -11.60   -25600.00
01042               1.40   -26400.00
01043               5.40   -26400.00
01044              -8.40   -27200.00
01045               1.40   -27200.00
01046               3.00   -28000.00
01047              -4.60   -27200.00
01048               1.80   -28800.00
01049               3.60   -28800.00
01050              -5.40   -28800.00
01051               1.40   -29600.00
01052               2.60   -28800.00
01053              -4.60   -29600.00
01054               3.60   -29600.00
01055               2.20   -30400.00
01056              -2.80   -30400.00
01057               2.80   -30400.00
01058              -0.60   -31200.00
01059              -1.20   -31200.00
01060               2.20   -32000.00
01061               0.40   -31200.00
01062               1.40   -32000.00
01063               2.00   -32000.00
01064               1.20   -32000.00
01065               2.00   -32000.00
01066               3.40   -32000.00
01067               2.60   -32000.00
01068               2.60   -32000.00
01069               5.00   -32000.00
01070               4.20   -32000.00
01071               4.60   -32000.00
01072               6.60   -32800.00
01073               5.80   -32000.00
01074               8.20   -32000.00
01075               9.00   -32000.00
01076               9.00   -32800.00
01077              11.60   -32000.00
01078              11.20   -32000.00
01079              12.40   -32000.00
01080              13.40   -32000.00
01081              13.00   -32000.00
01082              13.80   -32000.00
01083              14.00   -32000.00
01084              15.40   -32000.00
01085              19.00   -31200.00
01086              25.00   -31200.00
01087              18.60   -31200.00
01088               5.20   -31200.00
01089              10.80   -31200.00
01090              12.20   -30400.00
01091               5.40   -30400.00
01092               5.20   -30400.00
01093               8.20   -30400.00
01094               5.40   -29600.00
01095               2.60   -29600.00
01096               4.20   -29600.00
01097               5.20   -28800.00
01098               1.20   -28800.00
01099               2.20   -28800.00
01100               3.40   -28800.00
01101               1.60   -28000.00
01102               1.00   -28000.00
01103               2.20   -27200.00
01104               1.40   -27200.00
01105              -0.60   -27200.00
01106               1.20   -26400.00
01107               1.80   -26400.00
01108              -1.20   -25600.00
01109               0.40   -25600.00
01110               0.60   -25600.00
01111              -1.40   -24800.00
01112               0.00   -24800.00
01113               0.60   -24000.00
01114              -1.00   -23200.00
01115              -0.40   -23200.00
01116               0.60   -23200.00
01117              -0.60   -22400.00
01118              -0.40   -20800.00
01119               0.40   -20800.00
01120              -0.40   -20800.00
01121              -0.60   -20000.00
01122              -0.20   -20000.00
01123              -1.00   -19200.00
01124              -0.60   -18400.00
01125              -1.00   -17600.00
01126              -0.60   -17600.00
01127              -0.60   -17600.00
01128              -0.80   -16800.00
01129               0.20   -16000.00
01130              -0.20   -16000.00
01131              -0.40   -15200.00
01132               0.20   -14400.00
01133               0.20   -14400.00
01134              -0.40   -13600.00
01135              -0.20   -12800.00
01136              -0.60   -12800.00
01137              -0.60   -12000.00
01138              -0.60   -11200.00
01139              -0.40   -11200.00
01140              -0.40   -10400.00
01141              -0.60    -9600.00
01142               0.20    -8800.00
01143              -0.20    -8000.00
01144              -0.20    -8000.00
01145               0.20    -7200.00
01146              -0.40    -7200.00
01147               0.20    -6400.00
01148              -0.20    -5600.00
01149              -0.40    -4800.00
01150              -0.20    -4000.00
01151              -0.20    -4000.00
01152              -0.40    -3200.00
01153               0.40    -2400.00
01154              -0.20    -1600.00
01155              -0.40     -800.00
01156               0.40     -800.00
01157              -0.20        0.00
01158               0.60      800.00
01159               0.60     1600.00
01160               3.40     1600.00
01161               0.80     2400.00
01162              -1.80     3200.00
01163               1.40     3200.00
01164               1.00     4000.00
01165              -1.20     4800.00
01166               4.40     4800.00
01167              20.20     7200.00
01168              21.80     8000.00
01169             -25.00     8000.00
01170             -10.00     8000.00
01171              25.00     8000.00
01172             -25.00     8800.00
01173             -25.00     8800.00
01174              25.00    10400.00
01175             -25.00    10400.00
01176             -25.00    11200.00
01177              25.00    12000.00
01178             -25.00    12000.00
01179              14.80    12800.00
01180              25.00    12800.00
01181             -25.00    14400.00
01182              25.00    14400.00
01183             -25.00    15200.00
01184             -25.00    16000.00
01185              25.00    16000.00
01186             -25.00    16000.00
01187               8.40    17600.00
01188              25.00    17600.00
01189             -25.00    18400.00
01190             -17.40    18400.00
01191              25.00    19200.00
01192             -25.00    19200.00
01193             -18.00    20800.00
01194              25.00    20800.00
01195             -25.00    21600.00
01196              11.80    21600.00
01197              18.60    22400.00
01198             -25.00    23200.00
01199              16.40    24000.00
01200               4.80    24000.00
01201             -15.40    24000.00
01202              12.40    24800.00
01203               6.00    24800.00
01204             -18.60    25600.00
01205              15.20    25600.00
01206              -3.20    25600.00
01207             -10.20    26400.00
01208              14.80    27200.00
01209              -8.20    27200.00
01210              -1.20    27200.00
01211               6.00    28000.00
01212              -3.80    28000.00
01213              -0.60    28800.00
01214               4.40    28800.00
01215              -2.00    28800.00
01216              -4.40    28800.00
01217               3.40    29600.00
01218              -3.00    30400.00
01219              -2.20    29600.00
01220               4.40    30400.00
01221              -4.40    30400.00
01222               1.20    31200.00
01223               0.60    31200.00
01224              -5.00    31200.00
01225               2.00    31200.00
01226              -2.20    32000.00
01227              -3.40    32000.00
01228               1.40    32000.00
01229              -3.00    32800.00
01230              -3.60    32800.00
01231              -1.80    32000.00
01232              -2.60    32800.00
01233              -3.80    32800.00
01234              -3.40    32800.00
01235              -3.80    32800.00
01236              -5.20    33600.00
01237              -4.20    33600.00
01238              -6.80    32800.00
01239              -6.40    32800.00
01240              -5.60    33600.00
01241             -11.20    32000.00
01242              -7.40    32800.00
01243             -10.20    32800.00
01244             -14.80    32800.00
01245             -10.00    32800.00
01246             -13.20    32800.00
01247             -15.60    32800.00
01248             -13.40    32800.00
01249             -14.20    32800.00
01250             -15.60    32800.00
01251             -15.60    32000.00
01252             -20.20    32000.00
01253             -25.00    32800.00
01254             -15.00    32800.00
01255              -5.80    32000.00
01256             -12.60    31200.00
01257             -11.20    31200.00
01258              -6.20    31200.00
01259              -6.60    31200.00
01260              -7.80    31200.00
01261              -7.00    30400.00
01262              -2.60    30400.00
01263              -5.20    28800.00
01264              -6.20    29600.00
01265              -0.40    28800.00
01266              -3.40    28800.00
01267              -4.60    28800.00
01268               0.20    28800.00
01269              -2.00    28000.00
01270              -3.60    28000.00
01271              -0.40    27200.00
01272              -1.00    27200.00
01273              -2.80    27200.00
01274              -0.60    26400.00
01275              -0.20    26400.00
01276              -1.60    25600.00
01277              -0.20    25600.00
01278              -0.40    25600.00
01279              -0.60    24800.00
01280               0.00    24000.00
01281              -1.20    24000.00
01282              -0.40    24000.00
01283              -0.40    23200.00
01284              -0.40    22400.00
01285               0.20    21600.00
01286              -1.00    21600.00
01287               0.20    20800.00
01288               0.20    21600.00
01289              -0.80    19200.00
01290              -0.60    19200.00
01291              -0.40    19200.00
01292               0.00    18400.00
01293              -0.60    17600.00
01294              -0.40    17600.00
01295              -0.40    16800.00
01296              -0.60    16800.00
01297               0.20    16000.00
01298              -0.60    15200.00
01299              -1.20    15200.00
01300              -0.20    14400.00
01301              -0.40    13600.00
01302              -0.40    12800.00
01303              -0.60    12800.00
01304               0.20    12000.00
01305               0.40    12000.00
01306              -0.60    11200.00
01307              -1.20    10400.00
01308              -0.60    10400.00
01309              -0.60     9600.00
01310              -1.00     8800.00
01311              -1.40     8000.00
01312              -0.40     8000.00
01313              -0.60     7200.00
01314              -0.60     6400.00
01315              -0.20     5600.00
01316              -1.00     5600.00
01317              -0.40     4800.00
01318              -0.60     4000.00
01319              -1.00     3200.00
01320              -0.60     2400.00
01321              -0.60     2400.00
01322              -1.20     1600.00
01323              -0.60      800.00
01324              -1.00        0.00
01325              -0.40        0.00
01326               1.00     -800.00
01327               3.20    -1600.00
01328              -2.80    -1600.00
01329               0.40    -2400.00
01330               2.00    -2400.00
01331              -0.60    -3200.00
01332              -1.00    -4000.00
01333               3.60    -4800.00
01334              11.80    -5600.00
01335              23.60    -7200.00
01336             -25.00    -7200.00
01337             -25.00    -8000.00
01338              25.00    -8800.00
01339              -2.00    -8800.00
01340             -25.00    -9600.00
01341              15.20    -9600.00
01342              25.00   -10400.00
01343             -25.00   -10400.00
01344              -2.20   -11200.00
01345              25.00   -12000.00
01346             -25.00   -12800.00
01347              22.20   -12800.00
01348              21.00   -13600.00
01349             -25.00   -13600.00
01350              25.00   -14400.00
01351             -25.00   -14400.00
01352               5.20   -16000.00
01353              25.00   -16000.00
01354             -25.00   -16800.00
01355              10.80   -16800.00
01356              25.00   -17600.00
01357             -25.00   -17600.00
01358              -7.60   -18400.00
01359              25.00   -19200.00
01360             -25.00   -19200.00
01361               1.20   -20000.00
01362              25.00   -20800.00
01363             -25.00   -20800.00
01364              10.80   -22400.00
01365               9.00   -22400.00
01366             -22.00   -22400.00
01367               9.60   -22400.00
01368               6.00   -23200.00
01369             -15.20   -24000.00
01370              10.00   -24000.00
01371               3.40   -24000.00
01372             -14.00   -24800.00
01373              11.00   -25600.00
01374              -3.60   -25600.00
01375              -6.20   -26400.00
01376               8.00   -26400.00
01377              -4.80   -26400.00
01378              -2.00   -27200.00
01379               3.40   -27200.00
01380              -2.20   -28000.00
01381              -0.40   -28800.00
01382               3.00   -28800.00
01383              -2.80   -28800.00
01384              -1.80   -28800.00
01385               4.20   -29600.00
01386              -4.00   -29600.00
01387              -0.20   -29600.00
01388               4.40   -30400.00
01389              -3.40   -30400.00
01390               1.40   -30400.00
01391               2.20   -30400.00
01392              -1.80   -31200.00
01393               1.00   -31200.00
01394               1.80   -31200.00
01395               0.60   -31200.00
01396               1.80   -32000.00
01397               2.60   -32000.00
01398               1.80   -32000.00
01399               1.80   -32000.00
01400               3.40   -32000.00
01401               2.60   -32000.00
01402               3.40   -32000.00
01403               4.40   -32000.00
01404               4.20   -32800.00
01405               6.40   -32000.00
01406               5.40   -32000.00
01407               6.80   -32800.00
01408               9.80   -32000.00
01409               8.60   -32000.00
01410              11.40   -32800.00
01411              12.20   -32000.00
01412              11.80   -32800.00
01413              13.20   -32000.00
01414              13.20   -32800.00
01415              13.20   -32000.00
01416              13.40   -32000.00
01417              15.00   -32000.00
01418              17.00   -32000.00
01419              23.40   -32000.00
01420              23.80   -31200.00
01421               7.60   -32000.00
01422               7.80   -32000.00
01423              13.80   -30400.00
01424               7.80   -31200.00
01425               4.60   -30400.00
01426               7.40   -30400.00
01427               7.60   -29600.00
01428               2.60   -29600.00
01429               3.00   -29600.00
01430               6.60   -29600.00
01431               1.60   -28800.00
01432               0.40   -28800.00
01433               4.40   -28800.00
01434               1.20   -27200.00
01435               0.20   -28800.00
01436               2.60   -27200.00
01437               1.40   -27200.00
01438               0.20   -27200.00
01439               1.00   -26400.00
01440               1.20   -26400.00
01441              -0.20   -25600.00
01442              -0.20   -25600.00
01443               0.20   -24800.00
01444              -0.40   -24800.00
01445              -0.20   -24000.00
01446              -0.20   -24000.00
01447              -0.60   -23200.00
01448              -0.20   -23200.00
01449              -0.40   -22400.00
01450              -0.20   -22400.00
01451              -0.20   -21600.00
01452              -0.40   -21600.00
01453              -0.20   -20800.00
01454              -0.40   -20800.00
01455              -0.20   -19200.00
01456              -0.60   -20000.00
01457               0.00   -18400.00
01458              -0.40   -17600.00
01459              -0.60   -17600.00
01460              -0.20   -16800.00
01461              -1.00   -16800.00
01462              -0.40   -16000.00
01463               0.00   -16000.00
01464              -0.60   -15200.00
01465               0.20   -14400.00
01466              -0.20   -13600.00
01467              -0.60   -14400.00
01468              -0.20   -12800.00
01469              -0.40   -12800.00
01470              -0.60   -12000.00
01471               0.20   -11200.00
01472              -0.40   -11200.00
01473              -0.40   -10400.00
01474              -0.20    -9600.00
01475              -0.40    -9600.00
01476              -0.60    -8000.00
01477               0.20    -8000.00
01478              -0.20    -7200.00
01479              -0.20    -6400.00
01480               0.40    -6400.00
01481              -0.20    -6400.00
01482              -0.60    -4800.00
01483               0.40    -4000.00
01484              -0.60    -3200.00
01485               0.20    -3200.00
01486               0.60    -2400.00
01487              -0.60    -1600.00
01488              -0.40    -1600.00
01489               0.40     -800.00
01490              -0.40        0.00
01491               0.40        0.00
01492               1.00      800.00
01493               1.80     2400.00
01494               3.00     2400.00
01495              -2.20     3200.00
01496               0.20     3200.00
01497               2.00     3200.00
01498              -1.20     4000.00
01499               0.80     4800.00
01500              13.00     5600.00
01501              25.00     6400.00
01502             -25.00     8000.00
01503             -25.00     8000.00
01504              25.00     8000.00
01505              -2.40     8800.00
01506             -25.00     8800.00
01507              25.00     9600.00
01508              25.00    10400.00
01509             -25.00    11200.00
01510              25.00    12000.00
01511              -0.60    12000.00
01512             -25.00    12800.00
01513              25.00    12800.00
01514             -25.00    12800.00
01515              25.00    14400.00
01516              25.00    14400.00
01517             -25.00    15200.00
01518              25.00    16000.00
01519             -17.80    16000.00
01520             -25.00    16000.00
01521              25.00    16800.00
01522             -10.60    17600.00
01523             -25.00    18400.00
01524              25.00    19200.00
01525               9.80    19200.00
01526             -25.00    20000.00
01527              25.00    20800.00
01528              -8.40    21600.00
01529             -19.80    21600.00
01530              25.00    21600.00
01531             -25.00    22400.00
01532               1.20    22400.00
01533              17.00    23200.00
01534             -15.00    24000.00
01535               2.00    24800.00
01536              16.20    24800.00
01537             -17.80    24800.00
01538               4.20    25600.00
01539              10.20    25600.00
01540             -17.40    26400.00
01541              12.00    27200.00
01542               0.40    27200.00
01543              -8.60    27200.00
01544               8.20    27200.00
01545              -1.80    28000.00
01546              -3.60    28000.00
01547               5.00    28800.00
01548               0.60    28800.00
01549              -5.00    28800.00
01550               2.20    29600.00
01551              -0.20    30400.00
01552              -5.20    30400.00
01553               4.20    30400.00
01554              -1.40    30400.00
01555              -2.00    31200.00
01556               2.20    31200.00
01557              -4.20    31200.00
01558               0.60    32000.00
01559              -1.40    31200.00
01560              -3.60    32800.00
01561               1.00    32800.00
01562              -2.80    32000.00
01563              -2.60    32800.00
01564              -1.80    32800.00
01565              -3.60    32800.00
01566              -2.80    32800.00
01567              -3.80    32800.00
01568              -3.60    32800.00
01569              -4.80    32800.00
01570              -5.00    32800.00
01571              -5.40    32800.00
01572              -7.00    33600.00
01573              -6.00    32800.00
01574              -9.40    33600.00
01575              -8.40    32800.00
01576              -9.00    32800.00
01577             -13.40    32800.00
01578             -11.00    32800.00
01579             -13.00    32000.00
01580             -14.00    32800.00
01581             -13.00    32800.00
01582             -15.00    32000.00
01583             -14.60    32800.00
01584             -15.40    32000.00
01585             -19.00    32800.00
01586             -25.00    32800.00
01587             -21.40    32000.00
01588              -7.00    32000.00
01589              -9.60    31200.00
01590             -13.20    31200.00
01591              -7.80    31200.00
01592              -5.40    31200.00
01593              -7.40    30400.00
01594              -7.80    30400.00
01595              -3.40    30400.00
01596              -3.80    30400.00
01597              -6.20    30400.00
01598              -2.60    29600.00
01599              -1.80    28800.00
01600              -4.20    28800.00
01601              -2.60    28800.00
01602              -1.20    28800.00
01603              -2.60    28000.00
01604              -2.20    28000.00
01605              -1.20    27200.00
01606              -1.40    27200.00
01607              -0.60    27200.00
01608              -0.40    26400.00
01609              -2.20    25600.00
01610              -0.40    25600.00
01611               1.00    24800.00
01612              -2.00    24800.00
01613              -0.40    24000.00
01614               1.80    24000.00
01615              -2.20    24000.00
01616              -0.80    23200.00
01617               1.20    23200.00
01618              -2.60    22400.00
01619              -1.20    21600.00
01620               1.40    21600.00
01621              -1.20    21600.00
01622              -0.60    20000.00
01623               0.60    19200.00
01624              -0.40    19200.00
01625              -0.20    18400.00
01626              -0.40    19200.00
01627              -0.60    17600.00
01628              -1.00    16800.00
01629              -0.20    16000.00
01630              -1.20    16000.00
01631              -0.20    15200.00
01632              -0.60    15200.00
01633              -1.20    14400.00
01634               0.60    13600.00
01635              -0.60    12800.00
01636              -2.20    12800.00
01637               1.20    12000.00
01638              -1.00    12000.00
01639              -0.80    11200.00
01640               1.80    10400.00
01641              -2.00     9600.00
01642              -1.80     9600.00
01643               2.00     8800.00
01644              -3.40     8800.00
01645              -1.00     8000.00
01646               1.40     8000.00
01647              -2.00     6400.00
01648              -0.60     5600.00
01649               0.20     5600.00
01650              -1.00     4800.00
01651              -0.20     4000.00
01652              -1.20     3200.00
01653              -0.20     3200.00
01654              -1.00     2400.00
01655              -1.20     1600.00
01656               0.20     1600.00
01657              -0.60        0.00
01658              -0.40        0.00
01659               0.20     -800.00
01660               3.60     -800.00
01661              -1.40    -1600.00
01662              -2.00    -1600.00
01663               1.80    -2400.00
01664               0.60    -3200.00
01665              -2.00    -4000.00
01666               1.80    -4000.00
01667               8.80    -4800.00
01668              24.20    -6400.00
01669              -9.80    -7200.00
01670             -25.00    -8000.00
01671              11.60    -8000.00
01672              16.20    -8000.00
01673             -25.00    -8800.00
01674             -11.40    -8800.00
01675              25.00   -10400.00
01676              -9.80   -10400.00
01677             -25.00   -10400.00
01678              25.00   -12000.00
01679             -25.00   -12000.00
01680             -25.00   -12800.00
01681              25.00   -13600.00
01682             -25.00   -13600.00
01683              24.80   -14400.00
01684              -1.00   -14400.00
01685             -25.00   -15200.00
01686              25.00   -16000.00
01687             -23.00   -16000.00
01688             -17.20   -16800.00
01689              25.00   -17600.00
01690             -13.40   -18400.00
01691             -25.00   -18400.00
01692              25.00   -18400.00
01693              -6.20   -20000.00
01694             -25.00   -20000.00
01695              25.00   -20000.00
01696             -14.80   -20800.00
01697             -10.20   -21600.00
01698              21.20   -22400.00
01699             -19.40   -22400.00
01700              -1.80   -22400.00
01701              13.40   -23200.00
01702             -11.80   -24000.00
01703               0.20   -24000.00
01704              12.20   -24000.00
01705             -14.80   -25600.00
01706               4.60   -25600.00
01707               5.80   -25600.00
01708             -13.00   -26400.00
01709               8.00   -26400.00
01710              -0.80   -27200.00
01711              -6.80   -27200.00
01712               4.40   -27200.00
01713              -0.40   -28000.00
01714              -3.00   -28800.00
01715               3.60   -28800.00
01716               0.40   -28800.00
01717              -4.40   -28800.00
01718               4.00   -28800.00
01719              -0.60   -29600.00
01720              -2.80   -29600.00
01721               4.20   -29600.00
01722              -0.60   -30400.00
01723              -0.60   -30400.00
01724               2.00   -30400.00
01725              -1.20   -31200.00
01726               1.00   -30400.00
01727               1.40   -31200.00
01728               0.60   -32000.00
01729               2.60   -32000.00
01730               1.40   -31200.00
01731               2.20   -31200.00
01732               2.60   -31200.00
01733               2.80   -32000.00
01734               2.60   -32000.00
01735               3.60   -32000.00
01736               5.00   -32800.00
01737               3.00   -32000.00
01738               5.80   -32000.00
01739               7.00   -32000.00
01740               5.80   -32800.00
01741               8.60   -32000.00
01742               9.20   -32800.00
01743              10.20   -32000.00
01744              11.00   -32800.00
01745              11.40   -32000.00
01746              13.40   -32000.00
01747              13.40   -32000.00
01748              13.20   -32000.00
01749              13.80   -32000.00
01750              14.60   -32000.00
01751              15.80   -32000.00
01752              20.80   -31200.00
01753              25.00   -32000.00
01754              12.40   -30400.00
01755               5.40   -31200.00
01756              13.20   -30400.00
01757               9.40   -31200.00
01758               4.60   -30400.00
01759               7.00   -30400.00
01760               7.60   -30400.00
01761               3.80   -29600.00
01762               2.60   -28800.00
01763               5.20   -28800.00
01764               4.20   -29600.00
01765               0.40   -28800.00
01766               2.80   -28800.00
01767               2.60   -28000.00
01768               0.20   -28000.00
01769               1.00   -27200.00
01770               1.80   -27200.00
01771               0.60   -27200.00
01772               0.20   -26400.00
01773               1.20   -26400.00
01774               0.40   -26400.00
01775              -0.20   -25600.00
01776               0.20   -25600.00
01777               0.40   -24800.00
01778              -0.40   -24000.00
01779              -0.60   -24000.00
01780               0.40   -24000.00
01781              -0.80   -23200.00
01782              -0.20   -22400.00
01783               0.20   -22400.00
01784              -0.80   -22400.00
01785               0.60   -20800.00
01786              -0.60   -20800.00
01787              -1.00   -20000.00
01788               0.40   -20000.00
01789              -1.00   -20000.00
01790              -0.80   -19200.00
01791               0.20   -18400.00
01792              -0.60   -18400.00
01793               0.00   -17600.00
01794               0.20   -16800.00
01795              -0.60   -16800.00
01796               0.20   -16000.00
01797               0.40   -16000.00
01798              -0.60   -14400.00
01799              -0.20   -14400.00
01800              -0.20   -13600.00
01801              -0.60   -12800.00
01802              -0.60   -12800.00
01803              -0.40   -12800.00
01804              -1.00   -11200.00
01805               0.00   -11200.00
01806               0.20   -10400.00
01807              -0.80    -9600.00
01808              -0.20    -9600.00
01809               0.40    -8800.00
01810              -0.20    -8000.00
01811               0.20    -8000.00
01812              -0.40    -7200.00
01813               0.20    -6400.00
01814               0.40    -5600.00
01815              -1.00    -5600.00
01816              -0.20    -4000.00
01817              -0.20    -4000.00
01818              -0.60    -3200.00
01819               0.00    -2400.00
01820              -0.40    -1600.00
01821              -0.20     -800.00
01822               0.20     -800.00
01823               0.20        0.00
01824              -0.40        0.00
01825               0.80      800.00
01826               1.00     1600.00
01827               3.20     1600.00
01828              -1.00     2400.00
01829              -0.60     3200.00
01830               0.60     3200.00
01831               1.00     3200.00
01832              -1.00     3200.00
01833               6.80     4800.00
01834              25.00     7200.00
01835              -2.60     8000.00
01836             -25.00     8000.00
01837              14.00     8800.00
01838              18.60     8000.00
01839             -25.00     8800.00
01840              12.20     9600.00
01841              25.00     9600.00
01842             -25.00    10400.00
01843              25.00    11200.00
01844              25.00    12000.00
01845             -25.00    12800.00
01846              25.00    13600.00
01847             -16.20    12800.00
01848             -25.00    14400.00
01849              25.00    14400.00
01850             -25.00    14400.00
01851              25.00    16000.00
01852              25.00    16000.00
01853             -25.00    16800.00
01854              25.00    17600.00
01855              22.80    17600.00
01856             -25.00    18400.00
01857               6.60    18400.00
01858              25.00    19200.00
01859             -25.00    20800.00
01860              18.20    20800.00
01861              25.00    20800.00
01862             -25.00    21600.00
01863              25.00    22400.00
01864              -6.60    22400.00
01865             -19.80    22400.00
01866              21.20    23200.00
01867              -6.00    24000.00
01868              -9.20    24800.00
01869              18.00    24800.00
01870              -5.60    24800.00
01871             -10.20    25600.00
01872              17.40    25600.00
01873             -13.20    25600.00
01874               0.60    27200.00
01875               9.80    27200.00
01876             -10.20    27200.00
01877               4.00    28000.00
01878               2.60    28000.00
01879              -4.80    28000.00
01880               1.80    28800.00
01881               3.80    28800.00
01882              -4.60    28800.00
01883              -1.80    29600.00
01884               3.60    28800.00
01885              -5.40    30400.00
01886               1.20    29600.00
01887               2.60    30400.00
01888              -4.20    30400.00
01889               2.80    31200.00
01890              -2.00    31200.00
01891              -3.20    32000.00
01892               0.60    32000.00
01893              -3.60    32000.00
01894              -1.00    32000.00
01895              -0.20    32000.00
01896              -3.00    32800.00
01897              -3.00    32800.00
01898              -1.80    32000.00
01899              -2.80    32800.00
01900              -4.60    32800.00
01901              -2.40    32800.00
01902              -4.20    32800.00
01903              -6.00    32800.00
01904              -3.40    32800.00
01905              -7.20    32800.00
01906              -6.60    32800.00
01907              -6.80    32800.00
01908             -10.00    32800.00
01909              -8.40    32800.00
01910             -12.20    32800.00
01911             -12.60    32800.00
01912             -12.20    32800.00
01913             -14.00    32800.00
01914             -13.00    32800.00
01915             -14.00    32800.00
01916             -14.20    32800.00
01917             -14.80    32800.00
01918             -17.00    32000.00
01919             -23.20    32000.00
01920             -25.00    32000.00
01921             -10.20    32000.00
01922              -7.40    32800.00
01923             -13.80    32000.00
01924              -9.80    31200.00
01925              -5.80    31200.00
01926              -6.80    31200.00
01927              -8.20    30400.00
01928              -4.60    30400.00
01929              -2.80    31200.00
01930              -5.80    30400.00
01931              -3.60    29600.00
01932              -1.00    28800.00
01933              -4.20    28800.00
01934              -3.60    28800.00
01935              -0.60    28800.00
01936              -2.20    28000.00
01937              -2.80    28000.00
01938              -0.80    27200.00
01939              -1.20    27200.00
01940              -2.20    26400.00
01941              -0.20    26400.00
01942              -0.80    25600.00
01943              -1.40    25600.00
01944               0.00    24800.00
01945              -0.40    24800.00
01946              -0.60    24800.00
01947              -0.40    24000.00
01948              -0.60    24000.00
01949              -0.40    24000.00
01950              -0.60    22400.00
01951              -0.60    22400.00
01952              -0.60    21600.00
01953              -0.60    21600.00
01954              -0.40    20800.00
01955              -0.60    20800.00
01956              -0.60    20000.00
01957              -0.60    19200.00
01958              -0.20    18400.00
01959              -0.40    18400.00
01960              -1.00    17600.00
01961              -0.20    17600.00
01962              -1.00    17600.00
01963              -0.60    16000.00
01964               0.40    16000.00
01965              -1.00    15200.00
01966              -0.60    15200.00
01967              -0.20    14400.00
01968              -0.60    13600.00
01969              -1.20    12800.00
01970              -0.60    12800.00
01971              -0.60    12000.00
01972              -0.40    12000.00
01973              -0.20    10400.00
01974              -0.60    10400.00
01975              -1.00     9600.00
01976               0.00     8800.00
01977              -1.00     8000.00
01978              -1.00     8000.00
01979              -0.40     8000.00
01980              -0.60     6400.00
01981               0.00     6400.00
01982              -0.40     4800.00
01983              -1.00     4800.00
01984              -0.20     3200.00
01985              -0.80     3200.00
01986              -0.80     3200.00
01987              -0.60     2400.00
01988              -1.20     1600.00
01989              -0.60     1600.00
01990               0.20      800.00
01991              -1.00        0.00
01992               0.20     -800.00
01993               3.00     -800.00
01994               1.00    -1600.00
01995              -2.20    -1600.00
01996               1.40    -2400.00
01997               1.00    -3200.00
01998              -0.20    -3200.00
01999               0.00    -4000.00
02000               5.20    -4800.00
02001              18.80    -6400.00
02002              12.20    -7200.00
02003             -25.00    -7200.00
02004              -8.80    -8000.00
02005              25.00    -8800.00
02006             -20.00    -9600.00
02007             -25.00    -9600.00
02008              25.00    -9600.00
02009              25.00   -11200.00
02010             -25.00   -10400.00
02011              25.00   -11200.00
02012              25.00   -12000.00
02013             -25.00   -12800.00
02014              25.00   -13600.00
02015             -19.00   -13600.00
02016              -9.20   -14400.00
02017              25.00   -14400.00
02018             -25.00   -15200.00
02019              25.00   -16000.00
02020               6.80   -16000.00
02021             -25.00   -16800.00
02022              25.00   -17600.00
02023               9.40   -17600.00
02024             -25.00   -18400.00
02025              14.00   -19200.00
02026              20.20   -20000.00
02027             -25.00   -20000.00
02028              24.40   -20800.00
02029               8.60   -20800.00
02030             -25.00   -22400.00
02031              22.20   -22400.00
02032              -7.60   -22400.00
02033             -14.40   -22400.00
02034              15.20   -23200.00
02035              -4.20   -24000.00
02036              -9.80   -24000.00
02037              15.40   -24000.00
02038              -8.60   -25600.00
02039              -5.80   -25600.00
02040              13.20   -25600.00
02041             -12.40   -26400.00
02042               1.80   -26400.00
02043               6.00   -26400.00
02044              -8.60   -27200.00
02045               2.00   -27200.00
02046               3.00   -27200.00
02047              -5.00   -28000.00
02048               2.20   -27200.00
02049               3.00   -28800.00
02050              -5.40   -29600.00
02051               1.80   -28800.00
02052               2.40   -29600.00
02053              -4.40   -28800.00
02054               2.80   -30400.00
02055               2.00   -29600.00
02056              -2.20   -30400.00
02057               3.00   -31200.00
02058              -0.60   -30400.00
02059              -0.40   -31200.00
02060               2.20   -31200.00
02061               0.20   -32000.00
02062               2.00   -32000.00
02063               2.00   -31200.00
02064               1.80   -32000.00
02065               2.60   -32000.00
02066               2.60   -32000.00
02067               2.60   -32000.00
02068               3.40   -32000.00
02069               4.40   -32000.00
02070               4.00   -32800.00
02071               4.60   -32000.00
02072               6.80   -32800.00
02073               6.20   -32800.00
02074               8.20   -32000.00
02075               9.20   -32800.00
02076               9.80   -32000.00
02077              11.40   -32800.00
02078              11.40   -32800.00
02079              11.80   -32000.00
02080              13.00   -32800.00
02081              13.60   -32000.00
02082              13.00   -32000.00
02083              13.60   -32000.00
02084              16.20   -32000.00
02085              18.20   -32000.00
02086              25.00   -32000.00
02087              19.40   -31200.00
02088               4.60   -32000.00
02089              11.40   -31200.00
02090              12.20   -31200.00
02091               5.20   -30400.00
02092               5.80   -30400.00
02093               7.40   -29600.00
02094               5.20   -29600.00
02095               2.60   -29600.00
02096               3.60   -29600.00
02097               5.00   -28800.00
02098               1.40   -28800.00
02099               1.40   -28800.00
02100               3.60   -28800.00
02101               1.40   -27200.00
02102               0.00   -28000.00
02103               2.20   -28000.00
02104               1.20   -27200.00
02105              -0.40   -26400.00
02106               1.40   -26400.00
02107               0.60   -26400.00
02108              -1.00   -25600.00
02109               0.60   -25600.00
02110              -0.20   -24800.00
02111              -0.60   -24800.00
02112               0.60   -24000.00
02113              -1.00   -24000.00
02114               0.00   -24000.00
02115               0.40   -23200.00
02116              -0.40   -22400.00
02117               0.20   -22400.00
02118               0.40   -21600.00
02119              -0.60   -20800.00
02120               0.20   -20800.00
02121              -0.20   -20000.00
02122              -0.80   -20000.00
02123              -0.40   -18400.00
02124              -0.40   -18400.00
02125              -0.60   -17600.00
02126               0.00   -17600.00
02127              -0.60   -16800.00
02128              -0.60   -16800.00
02129               0.20   -16000.00
02130              -0.60   -15200.00
02131               0.20   -16000.00
02132               0.20   -14400.00
02133              -0.20   -14400.00
02134               0.20   -13600.00
02135              -0.40   -12800.00
02136              -0.40   -12800.00
02137              -0.20   -11200.00
02138              -0.60   -11200.00
02139               0.20   -11200.00
02140              -0.20    -9600.00
02141              -0.60    -9600.00
02142               0.40    -8800.00
02143              -0.40    -8000.00
02144              -0.60    -8000.00
02145               0.40    -7200.00
02146              -0.40    -7200.00
02147              -0.60    -6400.00
02148               0.40    -5600.00
02149              -0.60    -4800.00
02150              -0.60    -4000.00
02151              -0.20    -4000.00
02152              -0.60    -3200.00
02153               0.00    -1600.00
02154              -0.40    -1600.00
02155              -0.60    -1600.00
02156               0.40     -800.00
02157               0.20        0.00
02158              -0.40        0.00
02159               0.80      800.00
02160               3.20     1600.00
02161               0.20     2400.00
02162              -1.80     2400.00
02163               1.60     3200.00
02164               0.60     3200.00
02165              -1.20     4000.00
02166               3.80     4800.00
02167              19.00     6400.00
02168              23.00     7200.00
02169             -25.00     8000.00
02170             -11.40     8000.00
02171              25.00     8800.00
02172             -24.20     8800.00
02173             -25.00     8800.00
02174              25.00    10400.00
02175             -25.00    11200.00
02176             -25.00    11200.00
02177              25.00    12000.00
02178             -25.00    12000.00
02179              11.00    12800.00
02180              25.00    12800.00
02181             -25.00    13600.00
02182              25.00    14400.00
02183             -25.00    14400.00
02184             -25.00    15200.00
02185              25.00    16000.00
02186             -25.00    16000.00
02187               5.80    16800.00
02188              25.00    17600.00
02189             -25.00    18400.00
02190             -19.80    18400.00
02191              25.00    19200.00
02192             -23.40    20800.00
02193             -20.60    20000.00
02194              25.00    20800.00
02195             -25.00    21600.00
02196               9.80    21600.00
02197              20.20    22400.00
02198             -25.00    23200.00
02199              15.60    24000.00
02200               6.20    24000.00
02201             -15.40    24000.00
02202              11.00    24000.00
02203               7.80    24800.00
02204             -19.20    24800.00
02205              14.40    25600.00
02206              -1.20    25600.00
02207             -11.00    26400.00
02208              13.80    27200.00
02209              -6.80    27200.00
02210              -2.20    27200.00
02211               6.00    27200.00
02212              -3.60    28000.00
02213              -1.80    28800.00
02214               4.60    28800.00
02215              -1.20    28800.00
02216              -5.40    28800.00
02217               3.20    30400.00
02218              -2.20    30400.00
02219              -3.80    30400.00
02220               4.60    30400.00
02221              -3.60    31200.00
02222               0.00    31200.00
02223               1.40    31200.00
02224              -4.40    31200.00
02225               0.40    31200.00
02226              -2.00    32000.00
02227              -2.80    31200.00
02228               0.20    32800.00
02229              -2.20    32800.00
02230              -3.60    32000.00
02231              -2.20    32800.00
02232              -2.20    32800.00
02233              -4.40    32800.00
02234              -3.40    32800.00
02235              -3.20    32800.00
02236              -6.40    33600.00
02237              -3.80    32800.00
02238              -6.20    33600.00
02239              -7.20    33600.00
02240              -5.20    33600.00
02241             -10.00    33600.00
02242              -8.20    32800.00
02243             -10.20    33600.00
02244             -13.40    32800.00
02245             -10.80    32800.00
02246             -13.80    32800.00
02247             -14.00    32800.00
02248             -12.60    32000.00
02249             -14.80    32800.00
02250             -15.20    32800.00
02251             -15.60    32000.00
02252             -20.60    32800.00
02253             -25.00    32000.00
02254             -15.00    32000.00
02255              -5.60    32000.00
02256             -12.40    32800.00
02257             -10.80    31200.00
02258              -6.60    31200.00
02259              -6.00    31200.00
02260              -7.60    31200.00
02261              -7.00    30400.00
02262              -2.80    30400.00
02263              -5.00    30400.00
02264              -5.80    29600.00
02265              -1.00    29600.00
02266              -3.00    28800.00
02267              -4.60    28800.00
02268              -0.60    28000.00
02269              -1.40    28000.00
02270              -3.80    28000.00
02271              -1.40    28000.00
02272              -0.40    27200.00
02273              -2.00    26400.00
02274              -1.00    25600.00
02275              -0.40    25600.00
02276              -1.40    25600.00
02277              -0.60    25600.00
02278              -0.40    24800.00
02279              -0.60    24800.00
02280              -1.00    24000.00
02281              -1.00    24000.00
02282              -0.40    23200.00
02283              -1.20    22400.00
02284              -0.80    22400.00
02285              -0.20    22400.00
02286              -0.60    21600.00
02287              -0.40    21600.00
02288              -1.00    20800.00
02289               0.40    20000.00
02290              -0.20    19200.00
02291              -1.20    18400.00
02292              -0.20    18400.00
02293              -0.40    18400.00
02294              -1.00    17600.00
02295              -0.20    16800.00
02296              -1.20    16800.00
02297              -0.80    16000.00
02298              -0.60    15200.00
02299              -1.00    15200.00
02300               0.40    14400.00
02301              -0.60    13600.00
02302              -0.60    12800.00
02303               0.40    12800.00
02304              -2.00    12000.00
02305              -1.40    12000.00
02306               1.20    11200.00
02307              -0.60    10400.00
02308              -1.00     9600.00
02309               0.20     9600.00
02310              -1.20     8800.00
02311              -1.20     8000.00
02312              -1.00     7200.00
02313              -1.60     7200.00
02314               0.20     6400.00
02315               0.60     5600.00
02316              -1.00     4800.00
02317               0.20     4000.00
02318               0.00     3200.00
02319              -1.00     3200.00
02320              -0.60     2400.00
02321              -1.00     2400.00
02322              -1.20     1600.00
02323               0.40      800.00
02324              -1.00        0.00
02325              -0.40        0.00
02326               1.80     -800.00
02327               2.80    -1600.00
02328              -2.20    -1600.00
02329              -0.40    -2400.00
02330               0.60    -2400.00
02331              -0.40    -3200.00
02332              -0.20    -4000.00
02333               3.60    -4000.00
02334              12.20    -5600.00
02335              24.40    -6400.00
02336             -25.00    -7200.00
02337             -25.00    -8800.00
02338              24.20    -8000.00
02339              -1.00    -8800.00
02340             -25.00    -9600.00
02341              13.20    -9600.00
02342              25.00   -10400.00
02343             -25.00   -10400.00
02344              -5.80   -11200.00
02345              25.00   -12000.00
02346             -25.00   -12000.00
02347              18.80   -13600.00
02348              24.20   -13600.00
02349             -25.00   -13600.00
02350              25.00   -14400.00
02351             -25.00   -14400.00
02352               3.00   -16000.00
02353              25.00   -16000.00
02354             -25.00   -16800.00
02355               8.20   -17600.00
02356              25.00   -17600.00
02357             -25.00   -18400.00
02358             -10.00   -18400.00
02359              25.00   -20000.00
02360             -25.00   -19200.00
02361              -0.60   -20000.00
02362              25.00   -20000.00
02363             -25.00   -20800.00
02364               9.60   -22400.00
02365              10.40   -22400.00
02366             -22.60   -22400.00
02367               9.40   -23200.00
02368               7.00   -24000.00
02369             -15.40   -24000.00
02370              10.60   -24000.00
02371               3.40   -24000.00
02372             -15.00   -24800.00
02373              12.60   -24800.00
02374              -3.80   -26400.00
02375              -8.40   -26400.00
02376               9.80   -26400.00
02377              -5.80   -26400.00
02378              -2.20   -27200.00
02379               5.80   -27200.00
02380              -3.20   -27200.00
02381              -0.40   -28000.00
02382               4.80   -28800.00
02383              -3.60   -28800.00
02384              -2.20   -28800.00
02385               4.60   -29600.00
02386              -3.80   -29600.00
02387               0.20   -29600.00
02388               4.00   -29600.00
02389              -2.80   -30400.00
02390               2.60   -30400.00
02391               1.20   -30400.00
02392              -1.80   -31200.00
02393               2.40   -31200.00
02394               0.40   -30400.00
02395               1.00   -32000.00
02396               2.80   -32000.00
02397               1.20   -32000.00
02398               2.80   -32000.00
02399               2.80   -32000.00
02400               2.20   -32000.00
02401               3.00   -32000.00
02402               4.00   -32800.00
02403               3.80   -32000.00
02404               3.80   -32000.00
02405               6.20   -32800.00
02406               6.00   -32000.00
02407               7.00   -32000.00
02408               8.60   -32000.00
02409               9.20   -32000.00
02410              11.00   -32000.00
02411              11.00   -32000.00
02412              12.60   -32000.00
02413              13.00   -32000.00
02414              12.60   -32000.00
02415              14.40   -32000.00
02416              12.60   -32000.00
02417              14.60   -32000.00
02418              17.60   -32000.00
02419              22.60   -32000.00
02420              24.20   -32000.00
02421               7.80   -30400.00
02422               6.20   -30400.00
02423              14.80   -30400.00
02424               7.60   -30400.00
02425               3.40   -30400.00
02426               8.80   -29600.00
02427               7.40   -29600.00
02428               2.20   -29600.00
02429               3.40   -28800.00
02430               5.40   -28800.00
02431               2.20   -28800.00
02432               1.20   -28800.00
02433               3.40   -28800.00
02434               2.00   -28000.00
02435               0.20   -28000.00
02436               1.00   -27200.00
02437               2.60   -27200.00
02438               0.40   -26400.00
02439               0.00   -26400.00
02440               2.00   -25600.00
02441              -0.20   -25600.00
02442              -0.40   -25600.00
02443               1.00   -24800.00
02444              -0.20   -24800.00
02445              -0.20   -24800.00
02446               0.20   -24000.00
02447              -0.20   -23200.00
02448               0.20   -23200.00
02449              -0.40   -22400.00
02450              -0.40   -22400.00
02451              -0.20   -21600.00
02452               0.20   -20800.00
02453               0.20   -20800.00
02454              -0.60   -20000.00
02455              -0.60   -20000.00
02456               0.40   -19200.00
02457              -0.60   -18400.00
02458              -0.40   -18400.00
02459               0.00   -17600.00
02460              -0.20   -17600.00
02461              -0.60   -16800.00
02462               0.20   -16000.00
02463              -0.40   -16000.00
02464              -0.60   -16000.00
02465               0.40   -14400.00
02466              -0.60   -14400.00
02467              -0.60   -13600.00
02468              -0.20   -12800.00
02469              -0.60   -12800.00
02470               0.20   -12800.00
02471              -0.60   -11200.00
02472              -0.60   -11200.00
02473               0.80   -10400.00
02474              -0.60    -9600.00
02475              -0.80    -9600.00
02476               0.60    -8000.00
02477              -0.60    -8000.00
02478              -0.60    -7200.00
02479               0.20    -7200.00
02480              -0.60    -6400.00
02481              -0.60    -6400.00
02482               0.00    -4800.00
02483              -1.00    -4800.00
02484              -0.60    -3200.00
02485               0.40    -3200.00
02486              -0.60    -3200.00
02487               0.20    -1600.00
02488               0.00    -1600.00
02489              -0.40     -800.00
02490               0.60        0.00
02491              -0.20        0.00
02492              -0.20      800.00
02493               2.20     1600.00
02494               3.00     1600.00
02495              -3.00     2400.00
02496               0.40     3200.00
02497               1.80     3200.00
02498              -2.00     4800.00
02499               1.40     4800.00
02500              12.20     5600.00
02501              25.00     7200.00
02502             -25.00     8000.00
02503             -25.00     8000.00
02504              25.00     8800.00
02505               0.60     8800.00
02506             -25.00     8800.00
02507              25.00     9600.00
02508              25.00     9600.00
02509             -25.00    10400.00
02510              25.00    11200.00
02511               5.80    12000.00
02512             -25.00    12800.00
02513              25.00    12800.00
02514             -25.00    13600.00
02515              25.00    14400.00
02516              25.00    14400.00
02517             -25.00    15200.00
02518              25.00    16000.00
02519             -13.40    16000.00
02520             -25.00    16800.00
02521              25.00    17600.00
02522              -8.60    18400.00
02523             -25.00    18400.00
02524              25.00    19200.00
02525              11.80    19200.00
02526             -25.00    19200.00
02527              25.00    20800.00
02528              -6.00    21600.00
02529             -21.20    21600.00
02530              25.00    22400.00
02531             -25.00    22400.00
02532               0.60    22400.00
02533              17.40    24000.00
02534             -14.80    24000.00
02535               1.40    24000.00
02536              16.40    24800.00
02537             -17.20    24800.00
02538               3.60    25600.00
02539              10.80    25600.00
02540             -17.20    26400.00
02541              11.00    27200.00
02542               0.40    27200.00
02543              -8.60    27200.00
02544               7.00    27200.00
02545              -1.20    28000.00
02546              -3.60    28000.00
02547               4.20    28000.00
02548               1.80    28800.00
02549              -5.80    28800.00
02550               1.00    30400.00
02551               1.00    30400.00
02552              -5.40    30400.00
02553               3.60    30400.00
02554              -0.80    30400.00
02555              -2.60    30400.00
02556               2.60    31200.00
02557              -3.80    31200.00
02558              -0.40    31200.00
02559              -1.00    32000.00
02560              -3.80    32000.00
02561               0.40    32800.00
02562              -1.80    32800.00
02563              -3.60    32000.00
02564              -2.20    32800.00
02565              -2.20    32800.00
02566              -3.80    32000.00
02567              -4.20    32800.00
02568              -2.00    32800.00
02569              -5.40    32800.00
02570              -4.60    33600.00
02571              -4.20    33600.00
02572              -8.40    33600.00
02573              -5.40    32800.00
02574              -8.60    32800.00
02575             -10.00    32800.00
02576              -8.60    32800.00
02577             -13.00    32800.00
02578             -11.60    32800.00
02579             -11.80    32800.00
02580             -13.80    32800.00
02581             -13.40    33600.00
02582             -13.40    32800.00
02583             -14.40    32000.00
02584             -15.60    32000.00
02585             -17.80    32800.00
02586             -25.00    32800.00
02587             -22.00    32000.00
02588              -6.40    32000.00
02589             -10.20    31200.00
02590             -13.20    32000.00
02591              -7.00    31200.00
02592              -6.00    31200.00
02593              -7.40    30400.00
02594              -7.00    30400.00
02595              -3.60    30400.00
02596              -3.80    30400.00
02597              -6.00    29600.00
02598              -1.80    28800.00
02599              -1.80    29600.00
02600              -5.20    28800.00
02601              -2.20    28800.00
02602              -0.60    28800.00
02603              -3.60    28000.00
02604              -2.20    28000.00
02605              -0.40    27200.00
02606              -1.80    27200.00
02607              -2.00    26400.00
02608               0.40    25600.00
02609              -2.00    26400.00
02610              -0.80    25600.00
02611               0.60    24800.00
02612              -1.80    24800.00
02613               0.00    24800.00
02614              -1.20    24000.00
02615              -1.20    23200.00
02616               1.00    24000.00
02617              -2.60    22400.00
02618              -0.40    21600.00
02619               1.20    21600.00
02620              -2.60    21600.00
02621              -0.20    20800.00
02622               1.00    20800.00
02623              -3.00    20800.00
02624               0.40    19200.00
02625               1.20    18400.00
02626              -2.60    18400.00
02627               0.40    17600.00
02628               0.20    17600.00
02629              -1.80    16800.00
02630              -0.20    16000.00
02631               0.00    15200.00
02632              -0.40    15200.00
02633              -1.00    14400.00
02634              -1.00    14400.00
02635              -0.20    13600.00
02636              -1.20    12800.00
02637              -0.40    12800.00
02638               0.20    12000.00
02639              -0.60    11200.00
02640              -0.60    11200.00
02641              -0.60     9600.00
02642              -0.20     9600.00
02643              -0.20     8800.00
02644              -1.00     8000.00
02645              -0.20     8000.00
02646              -1.00     7200.00
02647              -1.20     7200.00
02648               0.40     6400.00
02649              -0.20     4800.00
02650              -1.00     4800.00
02651               0.20     3200.00
02652              -0.40     3200.00
02653              -1.00     2400.00
02654              -0.20     2400.00
02655              -1.40     2400.00
02656              -0.20        0.00
02657               0.40        0.00
02658              -1.00        0.00
02659               0.20     -800.00
02660               4.00     -800.00
02661              -1.80    -1600.00
02662              -1.40    -1600.00
02663               1.80    -3200.00
02664              -0.20    -3200.00
02665              -0.20    -4000.00
02666               1.40    -4000.00
02667               6.80    -4800.00
02668              24.60    -6400.00
02669              -8.60    -8000.00
02670             -25.00    -8000.00
02671              11.00    -8000.00
02672              16.20    -8800.00
02673             -25.00    -9600.00
02674             -12.00    -8800.00
02675              25.00    -9600.00
02676              -7.00   -10400.00
02677             -25.00   -10400.00
02678              25.00   -12000.00
02679             -25.00   -11200.00
02680             -25.00   -12800.00
02681              25.00   -12800.00
02682             -25.00   -13600.00
02683              23.60   -14400.00
02684              -1.40   -14400.00
02685             -25.00   -15200.00
02686              25.00   -16000.00
02687             -22.60   -16000.00
02688             -16.60   -17600.00
02689              25.00   -16800.00
02690             -12.60   -18400.00
02691             -25.00   -18400.00
02692              25.00   -18400.00
02693              -5.20   -20000.00
02694             -25.00   -20000.00
02695              25.00   -20000.00
02696             -12.40   -20800.00
02697             -11.00   -22400.00
02698              23.40   -21600.00
02699             -18.80   -22400.00
02700              -4.40   -22400.00
02701              14.20   -23200.00
02702             -12.60   -24000.00
02703              -1.80   -24000.00
02704              14.20   -24000.00
02705             -14.80   -24000.00
02706               4.20   -24800.00
02707               8.60   -25600.00
02708             -12.60   -25600.00
02709               7.40   -26400.00
02710               0.20   -27200.00
02711              -7.80   -26400.00
02712               3.60   -27200.00
02713              -0.20   -27200.00
02714              -3.80   -28000.00
02715               4.40   -28000.00
02716               2.00   -28800.00
02717              -4.20   -28800.00
02718               4.40   -29600.00
02719              -0.60   -29600.00
02720              -3.60   -29600.00
02721               3.60   -29600.00
02722              -1.40   -29600.00
02723              -0.40   -30400.00
02724               3.00   -30400.00
02725              -0.80   -30400.00
02726               1.80   -30400.00
02727               2.20   -31200.00
02728               0.40   -32000.00
02729               2.20   -32000.00
02730               0.60   -32000.00
02731               1.20   -31200.00
02732               2.20   -32000.00
02733               3.00   -32000.00
02734               3.00   -32000.00
02735               4.00   -32000.00
02736               5.20   -32000.00
02737               3.80   -32000.00
02738               5.40   -32000.00
02739               5.80   -32000.00
02740               5.40   -32800.00
02741               8.40   -32000.00
02742               8.60   -32000.00
02743              10.20   -32800.00
02744              11.80   -32800.00
02745              11.60   -32000.00
02746              13.20   -32000.00
02747              13.00   -32000.00
02748              13.00   -32000.00
02749              13.40   -32000.00
02750              14.40   -32000.00
02751              15.60   -32000.00
02752              20.60   -31200.00
02753              25.00   -30400.00
02754              13.00   -31200.00
02755               5.20   -32000.00
02756              12.60   -31200.00
02757              10.00   -30400.00
02758               4.40   -30400.00
02759               5.40   -30400.00
02760               8.60   -29600.00
02761               5.20   -29600.00
02762               1.60   -29600.00
02763               5.80   -29600.00
02764               4.80   -28800.00
02765               0.20   -28800.00
02766               2.60   -28000.00
02767               2.60   -28800.00
02768               0.20   -28000.00
02769               0.40   -28000.00
02770               2.60   -27200.00
02771               0.40   -27200.00
02772               0.40   -27200.00
02773               1.80   -26400.00
02774               0.60   -25600.00
02775              -0.40   -26400.00
02776               0.20   -25600.00
02777              -0.20   -25600.00
02778               0.00   -24000.00
02779               0.20   -24000.00
02780              -0.60   -24000.00
02781               0.60   -23200.00
02782               0.40   -22400.00
02783              -0.60   -22400.00
02784              -0.20   -21600.00
02785              -0.40   -20800.00
02786              -0.60   -20800.00
02787              -0.40   -20000.00
02788              -0.20   -20000.00
02789              -1.40   -18400.00
02790              -0.20   -19200.00
02791               0.20   -18400.00
02792              -0.80   -17600.00
02793               0.60   -17600.00
02794              -0.20   -16800.00
02795              -1.00   -16000.00
02796               0.40   -16000.00
02797              -0.60   -15200.00
02798              -0.20   -14400.00
02799               0.60   -14400.00
02800              -1.00   -13600.00
02801              -0.40   -13600.00
02802              -0.40   -12800.00
02803              -1.00   -12800.00
02804              -1.00   -12000.00
02805              -0.40   -11200.00
02806              -0.60   -10400.00
02807              -0.60   -10400.00
02808              -0.40    -9600.00
02809              -0.40    -8800.00
02810               0.00    -8000.00
02811               0.20    -8000.00
02812              -0.40    -7200.00
02813              -0.20    -6400.00
02814              -0.20    -6400.00
02815              -1.00    -4800.00
02816              -0.20    -4800.00
02817              -0.40    -4000.00
02818              -1.00    -3200.00
02819               0.20    -2400.00
02820              -0.20    -1600.00
02821              -0.60    -1600.00
02822               0.20     -800.00
02823              -0.40        0.00
02824              -0.20        0.00
02825               0.60      800.00
02826               0.80     1600.00
02827               3.80     1600.00
02828              -1.00     2400.00
02829              -0.80     3200.00
02830               1.20     3200.00
02831               0.40     4000.00
02832              -1.00     3200.00
02833               7.40     4800.00
02834              25.00     7200.00
02835              -1.20     7200.00
02836             -25.00     8000.00
02837              12.60     8000.00
02838              19.40     8800.00
02839             -25.00     8800.00
02840              10.20    10400.00
02841              25.00    10400.00
02842             -25.00    11200.00
02843              25.00    12000.00
02844              25.00    12000.00
02845             -25.00    12000.00
02846              25.00    13600.00
02847             -11.80    12800.00
02848             -25.00    14400.00
02849              25.00    14400.00
02850             -25.00    14400.00
02851              25.00    16000.00
02852              25.00    16000.00
02853             -25.00    16800.00
02854              25.00    17600.00
02855              23.40    17600.00
02856             -25.00    18400.00
02857               7.00    18400.00
02858              25.00    19200.00
02859             -25.00    19200.00
02860              17.40    20800.00
02861              25.00    20800.00
02862             -25.00    21600.00
02863              25.00    22400.00
02864              -7.20    22400.00
02865             -19.60    22400.00
02866              22.60    22400.00
02867              -7.80    24000.00
02868              -9.20    24000.00
02869              18.80    24800.00
02870              -7.00    24800.00
02871              -9.80    24800.00
02872              18.00    25600.00
02873             -14.00    26400.00
02874               1.80    26400.00
02875              10.20    27200.00
02876             -12.00    27200.00
02877               5.00    28000.00
02878               2.60    28000.00
02879              -5.40    28000.00
02880               1.80    28000.00
02881               3.20    28800.00
02882              -4.20    28800.00
02883              -1.80    28800.00
02884               2.60    30400.00
02885              -5.20    30400.00
02886               1.20    30400.00
02887               2.20    30400.00
02888              -4.20    31200.00
02889               2.80    30400.00
02890              -1.80    31200.00
02891              -2.60    31200.00
02892               0.80    31200.00
02893              -4.00    32800.00
02894              -0.40    32000.00
02895              -0.60    32800.00
02896              -3.60    32800.00
02897              -2.80    32000.00
02898              -2.20    32800.00
02899              -2.60    32800.00
02900              -4.40    32800.00
02901              -2.60    32800.00
02902              -3.80    32800.00
02903              -5.60    32000.00
02904              -3.40    32800.00
02905              -7.40    32800.00
02906              -6.40    33600.00
02907              -6.20    32800.00
02908             -10.00    32800.00
02909              -8.40    32800.00
02910             -11.60    32800.00
02911             -12.60    32800.00
02912             -11.80    32800.00
02913             -13.40    32800.00
02914             -13.40    32800.00
02915             -14.20    33600.00
02916             -14.00    32800.00
02917             -15.00    32800.00
02918             -16.60    32000.00
02919             -22.60    32800.00
02920             -25.00    32800.00
02921             -10.60    32000.00
02922              -6.60    31200.00
02923             -13.40    31200.00
02924              -9.80    31200.00
02925              -5.80    31200.00
02926              -6.60    31200.00
02927              -8.40    30400.00
02928              -5.40    30400.00
02929              -2.60    30400.00
02930              -6.40    29600.00
02931              -4.20    29600.00
02932              -0.60    28800.00
02933              -4.20    28800.00
02934              -3.40    28800.00
02935              -1.00    28000.00
02936              -2.60    28000.00
02937              -2.60    27200.00
02938              -1.00    27200.00
02939              -1.40    27200.00
02940              -1.40    27200.00
02941              -1.20    26400.00
02942              -1.40    25600.00
02943              -0.60    25600.00
02944              -1.00    25600.00
02945              -1.00    24800.00
02946               0.00    24000.00
02947              -1.20    24000.00
02948              -0.80    24000.00
02949               0.20    24000.00
02950              -1.20    23200.00
02951              -0.60    21600.00
02952              -0.60    21600.00
02953              -1.20    21600.00
02954              -0.40    20800.00
02955              -0.20    20800.00
02956              -0.60    20000.00
02957              -0.80    19200.00
02958               0.20    18400.00
02959              -0.20    18400.00
02960              -1.20    17600.00
02961              -0.40    17600.00
02962              -0.60    17600.00
02963              -1.00    16800.00
02964              -0.20    16000.00
02965              -0.20    15200.00
02966               0.20    15200.00
02967              -1.20    14400.00
02968              -0.20    13600.00
02969               0.00    12800.00
02970              -1.20    12800.00
02971              -0.40    12000.00
02972               0.40    11200.00
02973              -1.00    11200.00
02974              -0.60    10400.00
02975              -0.60     9600.00
02976               0.00     8800.00
02977              -1.20     8800.00
02978              -0.80     8000.00
02979              -0.40     8000.00
02980              -1.20     7200.00
02981               0.20     6400.00
02982              -0.20     5600.00
02983              -1.00     4800.00
02984               0.60     4800.00
02985              -1.00     4000.00
02986              -1.00     3200.00
02987               0.20     2400.00
02988              -1.40     1600.00
02989              -1.40     1600.00
02990               0.40      800.00
02991              -0.60        0.00
02992              -0.80     -800.00
02993               2.60     -800.00
02994               1.20    -1600.00
02995              -2.60    -1600.00
02996               1.40    -2400.00
02997               1.00    -3200.00
02998              -1.20    -3200.00
02999               0.60    -4000.00
03000               5.00    -4800.00
03001              17.20    -6400.00
03002              13.80    -7200.00
03003             -25.00    -7200.00
03004             -10.20    -8000.00
03005              25.00    -8800.00
03006             -19.80    -8800.00
03007             -25.00    -8800.00
03008              25.00    -9600.00
03009              25.00   -10400.00
03010             -25.00   -10400.00
03011              25.00   -11200.00
03012              25.00   -11200.00
03013             -25.00   -12800.00
03014              25.00   -13600.00
03015             -17.20   -13600.00
03016             -10.60   -13600.00
03017              25.00   -14400.00
03018             -25.00   -16000.00
03019              25.00   -16000.00
03020               8.00   -16000.00
03021             -25.00   -16800.00
03022              25.00   -17600.00
03023              10.00   -17600.00
03024             -25.00   -18400.00
03025              13.00   -19200.00
03026              21.00   -19200.00
03027             -25.00   -20000.00
03028              23.20   -20000.00
03029              10.20   -20800.00
03030             -25.00   -20800.00
03031              21.80   -22400.00
03032              -5.40   -22400.00
03033             -14.60   -22400.00
03034              14.60   -23200.00
03035              -3.00   -24000.00
03036             -10.20   -24000.00
03037              15.40   -24800.00
03038              -7.40   -24800.00
03039              -7.00   -25600.00
03040              13.60   -25600.00
03041             -11.00   -25600.00
03042               1.00   -26400.00
03043               6.80   -26400.00
03044              -7.80   -27200.00
03045               1.80   -27200.00
03046               3.60   -27200.00
03047              -4.60   -28000.00
03048               1.60   -28800.00
03049               4.20   -28800.00
03050              -5.40   -28800.00
03051               1.20   -28800.00
03052               2.80   -29600.00
03053              -4.20   -29600.00
03054               2.60   -29600.00
03055               2.60   -29600.00
03056              -2.80   -30400.00
03057               3.00   -30400.00
03058               0.20   -30400.00
03059              -0.80   -30400.00
03060               2.20   -31200.00
03061               0.20   -31200.00
03062               2.00   -31200.00
03063               1.80   -32000.00
03064               1.00   -32000.00
03065               2.60   -32000.00
03066               3.00   -32000.00
03067               2.00   -32000.00
03068               3.00   -32000.00
03069               4.80   -32800.00
03070               3.00   -32000.00
03071               5.00   -32000.00
03072               7.00   -32000.00
03073               4.60   -32000.00
03074               8.40   -32000.00
03075              10.00   -32000.00
03076               7.80   -32800.00
03077              12.20   -32000.00
03078              11.60   -32000.00
03079              11.40   -32000.00
03080              13.60   -32800.00
03081              12.80   -32000.00
03082              13.00   -32000.00
03083              14.00   -32800.00
03084              15.40   -32000.00
03085              18.00   -32000.00
03086              25.00   -32000.00
03087              19.40   -31200.00
03088               4.80   -31200.00
03089              10.60   -31200.00
03090              12.80   -31200.00
03091               5.60   -30400.00
03092               5.80   -29600.00
03093               8.20   -30400.00
03094               5.40   -29600.00
03095               2.40   -30400.00
03096               3.80   -29600.00
03097               4.60   -28800.00
03098               1.00   -28800.00
03099               2.00   -28800.00
03100               3.60   -28000.00
03101               1.00   -28800.00
03102               0.60   -28000.00
03103               2.80   -27200.00
03104               1.00   -27200.00
03105               0.20   -27200.00
03106               1.60   -26400.00
03107               1.00   -26400.00
03108               0.20   -25600.00
03109               0.20   -25600.00
03110               0.20   -24800.00
03111               0.20   -24000.00
03112              -0.20   -24800.00
03113              -0.40   -23200.00
03114               0.20   -24000.00
03115              -0.20   -22400.00
03116               0.60   -22400.00
03117              -0.60   -21600.00
03118              -0.60   -22400.00
03119               0.40   -20800.00
03120              -0.40   -20800.00
03121              -0.60   -20000.00
03122               0.40   -20000.00
03123              -0.60   -19200.00
03124              -1.20   -18400.00
03125              -0.20   -17600.00
03126              -0.40   -17600.00
03127              -0.40   -17600.00
03128              -0.20   -16800.00
03129              -0.20   -16000.00
03130               0.20   -16000.00
03131              -0.60   -15200.00
03132              -0.60   -14400.00
03133               0.40   -14400.00
03134              -0.60   -13600.00
03135              -1.00   -12800.00
03136               0.40   -12800.00
03137              -1.00   -12000.00
03138              -1.20   -11200.00
03139               0.20   -10400.00
03140              -0.60   -10400.00
03141              -0.60    -9600.00
03142              -0.40    -8800.00
03143              -0.60    -8000.00
03144              -0.20    -7200.00
03145              -0.20    -7200.00
03146              -0.60    -6400.00
03147               0.40    -6400.00
03148              -0.40    -4800.00
03149              -1.00    -4800.00
03150               0.40    -4000.00
03151              -0.60    -3200.00
03152              -0.60    -3200.00
03153               0.60    -2400.00
03154              -0.60    -1600.00
03155              -0.60     -800.00
03156               0.20     -800.00
03157              -0.40        0.00
03158               0.40      800.00
03159               1.00      800.00
03160               2.80     1600.00
03161               1.40     1600.00
03162              -2.60     3200.00
03163               1.20     3200.00
03164               1.20     4000.00
03165              -1.40     3200.00
03166               4.60     4800.00
03167              19.60     5600.00
03168              23.60     7200.00
03169             -25.00     8000.00
03170             -12.80     8800.00
03171              25.00     8800.00
03172             -22.60     8800.00
03173             -25.00     8800.00
03174              25.00    10400.00
03175             -22.20    10400.00
03176             -25.00    11200.00
03177              25.00    12000.00
03178             -25.00    12000.00
03179               6.00    12800.00
03180              25.00    12800.00
03181             -25.00    13600.00
03182              25.00    14400.00
03183             -25.00    15200.00
03184             -25.00    15200.00
03185              25.00    16000.00
03186             -25.00    16000.00
03187               4.60    17600.00
03188              25.00    18400.00
03189             -25.00    18400.00
03190             -19.80    18400.00
03191              25.00    19200.00
03192             -22.00    20000.00
03193             -22.00    20800.00
03194              25.00    20800.00
03195             -25.00    21600.00
03196               9.00    21600.00
03197              20.40    22400.00
03198             -25.00    22400.00
03199              16.40    23200.00
03200               5.20    24000.00
03201             -15.60    24000.00
03202              12.20    24800.00
03203               6.80    24800.00
03204             -19.00    24800.00
03205              14.80    25600.00
03206              -2.60    25600.00
03207             -11.00    26400.00
03208              15.80    26400.00
03209              -8.60    27200.00
03210              -2.20    27200.00
03211               7.60    28000.00
03212              -4.80    28800.00
03213              -1.00    28000.00
03214               4.60    28000.00
03215              -2.20    29600.00
03216              -3.80    28800.00
03217               3.00    28800.00
03218              -3.00    30400.00
03219              -2.40    30400.00
03220               4.40    30400.00
03221              -4.20    31200.00
03222               1.00    31200.00
03223               0.60    31200.00
03224              -4.20    31200.00
03225               1.80    31200.00
03226              -3.00    32000.00
03227              -2.40    32800.00
03228               1.20    32000.00
03229              -3.00    32000.00
03230              -2.80    32800.00
03231              -1.80    32800.00
03232              -2.60    32800.00
03233              -3.60    32800.00
03234              -3.60    32800.00
03235              -3.40    32800.00
03236              -5.80    32800.00
03237              -3.60    32800.00
03238              -6.00    32800.00
03239              -7.40    32800.00
03240              -5.00    32800.00
03241              -9.60    32800.00
03242              -8.20    32800.00
03243             -10.20    32800.00
03244             -13.40    32800.00
03245             -10.80    32800.00
03246             -13.00    32800.00
03247             -14.00    32800.00
03248             -13.80    32800.00
03249             -13.80    32800.00
03250             -15.00    32800.00
03251             -16.40    32000.00
03252             -19.80    32000.00
03253             -25.00    32800.00
03254             -16.00    32000.00
03255              -5.40    31200.00
03256             -12.60    32000.00
03257             -11.00    31200.00
03258              -6.20    30400.00
03259              -6.60    30400.00
03260              -7.40    30400.00
03261              -6.80    30400.00
03262              -3.60    30400.00
03263              -4.60    29600.00
03264              -5.20    29600.00
03265              -2.20    29600.00
03266              -2.80    28800.00
03267              -4.20    28800.00
03268              -2.00    28000.00
03269              -1.80    28000.00
03270              -2.80    28000.00
03271              -1.60    28000.00
03272              -1.00    27200.00
03273              -1.60    27200.00
03274              -1.20    26400.00
03275              -0.60    25600.00
03276              -1.20    25600.00
03277              -0.60    25600.00
03278              -0.60    24800.00
03279              -0.40    24000.00
03280              -0.60    24800.00
03281              -1.40    24000.00
03282              -0.60    24000.00
03283              -1.00    22400.00
03284              -0.40    22400.00
03285              -0.20    22400.00
03286              -1.00    21600.00
03287               0.20    20800.00
03288              -0.20    20000.00
03289              -1.40    20000.00
03290               0.20    19200.00
03291               0.00    19200.00
03292              -0.60    18400.00
03293               0.20    18400.00
03294              -0.40    17600.00
03295              -1.20    16800.00
03296              -0.60    16000.00
03297              -0.40    16000.00
03298              -1.20    15200.00
03299              -0.20    14400.00
03300              -0.20    14400.00
03301              -1.00    14400.00
03302              -0.20    12800.00
03303              -0.40    12800.00
03304              -0.40    12000.00
03305               0.20    12000.00
03306               0.40    11200.00
03307              -1.00    10400.00
03308              -1.00     9600.00
03309               0.00     8800.00
03310              -0.40     8800.00
03311              -1.40     8000.00
03312              -0.40     8000.00
03313              -0.60     6400.00
03314              -1.00     7200.00
03315              -0.20     5600.00
03316              -0.20     4800.00
03317              -0.40     4000.00
03318              -0.40     3200.00
03319              -0.40     3200.00
03320               0.20     2400.00
03321              -1.20     1600.00
03322              -1.20      800.00
03323              -0.20      800.00
03324              -1.40        0.00
03325              -0.60     -800.00
03326               1.40     -800.00
03327               2.40    -1600.00
03328              -2.20    -1600.00
03329              -0.20    -3200.00
03330               0.60    -3200.00
03331               0.20    -4000.00
03332              -0.60    -4000.00
03333               2.60    -4800.00
03334              11.80    -5600.00
03335              24.00    -6400.00
03336             -25.00    -7200.00
03337             -25.00    -8000.00
03338              23.60    -8800.00
03339              -0.20    -9600.00
03340             -25.00    -9600.00
03341              11.80    -9600.00
03342              25.00   -10400.00
03343             -25.00   -10400.00
03344              -9.40   -11200.00
03345              25.00   -12000.00
03346             -25.00   -12000.00
03347              16.80   -12800.00
03348              25.00   -13600.00
03349             -25.00   -14400.00
03350              25.00   -14400.00
03351             -25.00   -15200.00
03352               1.40   -16000.00
03353              25.00   -16000.00
03354             -25.00   -16000.00
03355               7.60   -17600.00
03356              25.00   -17600.00
03357             -25.00   -17600.00
03358             -10.20   -18400.00
03359              25.00   -19200.00
03360             -25.00   -19200.00
03361              -2.00   -20000.00
03362              25.00   -20800.00
03363             -25.00   -20800.00
03364               8.20   -21600.00
03365              11.60   -22400.00
03366             -21.20   -22400.00
03367               8.80   -23200.00
03368               7.00   -23200.00
03369             -14.80   -24000.00
03370               9.80   -24000.00
03371               3.60   -24800.00
03372             -14.20   -24800.00
03373              12.20   -25600.00
03374              -3.60   -25600.00
03375              -7.60   -26400.00
03376              10.00   -26400.00
03377              -6.20   -27200.00
03378              -2.60   -26400.00
03379               5.80   -27200.00
03380              -3.40   -27200.00
03381              -1.40   -28800.00
03382               5.40   -28800.00
03383              -2.60   -28800.00
03384              -2.80   -29600.00
03385               4.60   -28800.00
03386              -3.20   -28800.00
03387              -0.60   -29600.00
03388               4.20   -30400.00
03389              -2.60   -30400.00
03390               1.20   -30400.00
03391               1.60   -30400.00
03392              -1.80   -30400.00
03393               2.00   -30400.00
03394               0.80   -31200.00
03395               1.00   -32000.00
03396               2.80   -32000.00
03397               1.00   -32000.00
03398               1.80   -32000.00
03399               3.40   -32000.00
03400               2.80   -32000.00
03401               2.20   -32000.00
03402               3.80   -32000.00
03403               4.60   -32000.00
03404               3.40   -32000.00
03405               6.00   -32000.00
03406               6.20   -32000.00
03407               6.80   -32000.00
03408               9.20   -32000.00
03409               9.20   -32000.00
03410              11.00   -32000.00
03411              11.40   -32000.00
03412              12.40   -32800.00
03413              13.40   -32000.00
03414              12.60   -32000.00
03415              13.40   -32800.00
03416              14.40   -32800.00
03417              14.60   -32000.00
03418              16.40   -32000.00
03419              23.20   -32000.00
03420              23.80   -31200.00
03421               8.20   -32000.00
03422               7.60   -30400.00
03423              13.20   -31200.00
03424               8.20   -30400.00
03425               5.00   -30400.00
03426               7.00   -30400.00
03427               7.60   -29600.00
03428               3.60   -29600.00
03429               2.60   -29600.00
03430               6.20   -29600.00
03431               2.80   -28800.00
03432               0.60   -28800.00
03433               4.20   -28800.00
03434               2.00   -28000.00
03435              -0.40   -28000.00
03436               2.40   -27200.00
03437               1.80   -27200.00
03438              -0.20   -27200.00
03439               0.60   -26400.00
03440               1.80   -26400.00
03441              -0.20   -25600.00
03442               0.40   -25600.00
03443               0.40   -25600.00
03444              -0.20   -24000.00
03445               0.60   -24000.00
03446              -0.60   -24000.00
03447               0.20   -23200.00
03448               0.20   -23200.00
03449              -1.00   -23200.00
03450               0.60   -22400.00
03451              -0.60   -21600.00
03452              -0.60   -20800.00
03453               0.60   -20800.00
03454              -1.00   -20000.00
03455              -0.40   -20000.00
03456              -0.40   -20000.00
03457              -1.00   -18400.00
03458               0.40   -18400.00
03459              -0.60   -17600.00
03460              -0.60   -17600.00
03461               0.60   -16800.00
03462              -0.80   -16000.00
03463              -0.60   -16000.00
03464               0.40   -15200.00
03465              -0.60   -14400.00
03466              -0.20   -14400.00
03467               0.20   -14400.00
03468              -1.00   -13600.00
03469              -0.60   -12800.00
03470              -0.20   -12000.00
03471              -1.20   -11200.00
03472               0.20   -11200.00
03473               0.20   -10400.00
03474              -1.20    -9600.00
03475               0.20    -9600.00
03476              -0.20    -8000.00
03477              -0.60    -8000.00
03478               0.40    -7200.00
03479              -0.40    -7200.00
03480              -0.60    -6400.00
03481               0.40    -6400.00
03482              -1.00    -4800.00
03483              -0.40    -4000.00
03484              -0.20    -4000.00
03485              -0.60    -3200.00
03486               0.00    -2400.00
03487               0.00    -1600.00
03488              -0.40    -1600.00
03489               0.40     -800.00
03490               0.20        0.00
03491              -0.20        0.00
03492               1.00      800.00
03493               2.00     1600.00
03494               3.00     1600.00
03495              -3.00     2400.00
03496               0.20     2400.00
03497               1.80     3200.00
03498              -1.00     4800.00
03499               0.00     4800.00
03500              12.40     4800.00
03501              25.00     7200.00
03502             -25.00     8000.00
03503             -25.00     8800.00
03504              25.00     8000.00
03505               0.40     8800.00
03506             -25.00     8800.00
03507              25.00     9600.00
03508              25.00    10400.00
03509             -25.00    10400.00
03510              25.00    12000.00
03511              10.00    11200.00
03512             -25.00    12800.00
03513              25.00    12800.00
03514             -25.00    13600.00
03515              25.00    14400.00
03516              25.00    15200.00
03517             -25.00    14400.00
03518              25.00    16000.00
03519             -11.20    16000.00
03520             -25.00    16800.00
03521              25.00    17600.00
03522              -7.80    18400.00
03523             -25.00    18400.00
03524              25.00    19200.00
03525              13.40    19200.00
03526             -25.00    20800.00
03527              25.00    20800.00
03528              -3.80    21600.00
03529             -24.20    21600.00
03530              25.00    22400.00
03531             -25.00    22400.00
03532              -1.20    23200.00
03533              18.60    23200.00
03534             -14.00    24000.00
03535               0.20    24000.00
03536              16.20    24800.00
03537             -16.40    25600.00
03538               2.20    25600.00
03539              11.00    25600.00
03540             -16.60    26400.00
03541              11.00    25600.00
03542               1.00    27200.00
03543              -8.40    27200.00
03544               8.20    28000.00
03545              -2.00    28000.00
03546              -3.80    28000.00
03547               4.20    28000.00
03548               0.40    28800.00
03549              -5.40    28800.00
03550               2.40    28800.00
03551               1.20    30400.00
03552              -6.00    29600.00
03553               4.60    30400.00
03554              -0.60    30400.00
03555              -3.00    31200.00
03556               2.80    31200.00
03557              -3.60    31200.00
03558              -0.40    31200.00
03559              -0.60    32000.00
03560              -4.20    32000.00
03561               1.00    31200.00
03562              -1.20    32000.00
03563              -3.60    32800.00
03564              -1.80    32800.00
03565              -1.80    32800.00
03566              -3.60    32000.00
03567              -3.40    32800.00
03568              -2.20    32000.00
03569              -5.40    33600.00
03570              -4.40    32800.00
03571              -4.20    33600.00
03572              -7.80    32800.00
03573              -5.80    32800.00
03574              -8.60    32800.00
03575              -8.80    32800.00
03576              -9.20    33600.00
03577             -13.40    32800.00
03578             -11.00    32800.00
03579             -12.20    32800.00
03580             -14.00    32800.00
03581             -13.40    32000.00
03582             -14.20    32800.00
03583             -14.00    32000.00
03584             -15.80    32000.00
03585             -18.20    32800.00
03586             -25.00    32800.00
03587             -22.20    32000.00
03588              -6.60    31200.00
03589             -10.60    31200.00
03590             -12.60    31200.00
03591              -8.20    31200.00
03592              -6.00    30400.00
03593              -6.40    31200.00
03594              -9.20    30400.00
03595              -3.00    30400.00
03596              -2.60    30400.00
03597              -8.40    29600.00
03598              -1.20    29600.00
03599              -0.60    28800.00
03600              -6.60    28800.00
03601              -1.40    28000.00
03602              -1.20    28000.00
03603              -4.40    28000.00
03604              -1.00    28000.00
03605              -1.00    27200.00
03606              -2.80    27200.00
03607              -0.60    27200.00
03608              -0.60    26400.00
03609              -1.80    25600.00
03610              -1.00    25600.00
03611               0.40    24800.00
03612              -0.60    24800.00
03613              -0.60    24800.00
03614              -0.40    24000.00
03615              -1.00    24000.00
03616              -1.00    22400.00
03617              -0.60    22400.00
03618              -0.60    22400.00
03619              -1.00    22400.00
03620              -0.40    20800.00
03621              -0.40    20800.00
03622              -0.60    19200.00
03623              -0.40    19200.00
03624              -0.20    19200.00
03625               0.40    18400.00
03626              -0.60    18400.00
03627              -0.80    17600.00
03628               0.40    16800.00
03629              -0.80    17600.00
03630              -0.60    16000.00
03631               0.20    15200.00
03632              -1.20    15200.00
03633              -0.40    14400.00
03634              -0.60    14400.00
03635              -0.40    13600.00
03636              -0.60    12800.00
03637              -0.60    12800.00
03638              -0.20    12000.00
03639              -0.40    12000.00
03640              -1.00    11200.00
03641               0.20    10400.00
03642              -0.40     9600.00
03643              -0.60     8800.00
03644              -1.20     8800.00
03645              -0.60     8000.00
03646              -1.00     6400.00
03647              -0.60     7200.00
03648              -0.60     5600.00
03649              -0.40     4800.00
03650              -0.40     4800.00
03651              -0.60     4000.00
03652              -1.20     3200.00
03653              -0.20     3200.00
03654              -1.00     2400.00
03655              -1.20     1600.00
03656               0.00      800.00
03657              -0.60        0.00
03658              -0.60        0.00
03659               0.40     -800.00
03660               2.80     -800.00
03661              -1.00    -1600.00
03662              -1.80    -2400.00
03663               1.20    -3200.00
03664              -0.20    -3200.00
03665              -1.00    -4000.00
03666               1.20    -4800.00
03667               7.20    -4800.00
03668              23.80    -6400.00
03669              -7.00    -7200.00
03670             -25.00    -8000.00
03671               9.80    -8000.00
03672              17.80    -8800.00
03673             -25.00    -9600.00
03674             -14.00    -8800.00
03675              25.00   -10400.00
03676              -3.00   -10400.00
03677             -25.00   -10400.00
03678              25.00   -12000.00
03679             -22.60   -11200.00
03680             -25.00   -12800.00
03681              25.00   -13600.00
03682             -25.00   -13600.00
03683              21.40   -14400.00
03684               2.00   -14400.00
03685             -25.00   -16000.00
03686              25.00   -16000.00
03687             -20.40   -16800.00
03688             -18.80   -16800.00
03689              25.00   -17600.00
03690             -11.40   -17600.00
03691             -25.00   -19200.00
03692              25.00   -18400.00
03693              -3.40   -20000.00
03694             -25.00   -20000.00
03695              25.00   -20800.00
03696             -13.00   -20800.00
03697             -12.40   -21600.00
03698              22.60   -22400.00
03699             -18.60   -22400.00
03700              -2.80   -23200.00
03701              14.60   -23200.00
03702             -11.20   -24000.00
03703              -0.60   -24000.00
03704              13.20   -24000.00
03705             -14.80   -25600.00
03706               3.80   -25600.00
03707               7.00   -25600.00
03708             -13.00   -26400.00
03709               7.80   -26400.00
03710              -0.20   -27200.00
03711              -7.20   -27200.00
03712               4.60   -27200.00
03713              -0.20   -27200.00
03714              -4.20   -28000.00
03715               3.60   -28800.00
03716               1.20   -28800.00
03717              -5.40   -28800.00
03718               3.60   -29600.00
03719               0.20   -29600.00
03720              -3.40   -29600.00
03721               4.60   -29600.00
03722              -0.60   -30400.00
03723              -1.20   -30400.00
03724               2.60   -30400.00
03725              -1.80   -31200.00
03726               0.60   -30400.00
03727               1.40   -32000.00
03728               0.40   -31200.00
03729               2.60   -32000.00
03730               1.40   -32000.00
03731               1.20   -32000.00
03732               2.60   -32000.00
03733               3.00   -32000.00
03734               2.60   -32000.00
03735               3.00   -32800.00
03736               5.00   -32000.00
03737               3.60   -32000.00
03738               5.80   -32800.00
03739               6.40   -32800.00
03740               5.80   -32000.00
03741               8.40   -32800.00
03742               8.80   -32000.00
03743               9.80   -32800.00
03744              11.40   -32800.00
03745              11.80   -32800.00
03746              13.40   -32000.00
03747              13.00   -32000.00
03748              13.60   -32000.00
03749              13.80   -32000.00
03750              13.80   -32000.00
03751              16.20   -31200.00
03752              21.00   -32000.00
03753              25.00   -32000.00
03754              13.20   -32000.00
03755               5.80   -31200.00
03756              12.20   -31200.00
03757               9.80   -31200.00
03758               5.80   -30400.00
03759               6.80   -30400.00
03760               7.80   -30400.00
03761               5.00   -29600.00
03762               2.00   -29600.00
03763               5.20   -29600.00
03764               4.20   -28800.00
03765               0.60   -28800.00
03766               3.00   -28800.00
03767               2.80   -28000.00
03768               1.00   -28000.00
03769               0.60   -28000.00
03770               2.60   -27200.00
03771               1.00   -27200.00
03772              -0.40   -26400.00
03773               2.00   -26400.00
03774               0.20   -25600.00
03775              -0.40   -25600.00
03776               0.40   -25600.00
03777              -0.60   -24800.00
03778              -0.60   -24000.00
03779               0.40   -24000.00
03780              -0.60   -23200.00
03781               0.40   -23200.00
03782               0.60   -22400.00
03783              -1.00   -23200.00
03784               0.00   -22400.00
03785              -0.20   -20800.00
03786              -0.40   -20800.00
03787              -0.20   -20000.00
03788              -1.20   -20000.00
03789              -0.60   -20000.00
03790              -0.40   -18400.00
03791              -1.20   -18400.00
03792               0.20   -18400.00
03793              -0.60   -17600.00
03794              -1.20   -17600.00
03795               0.40   -16800.00
03796              -0.60   -16000.00
03797              -0.40   -16000.00
03798               0.20   -15200.00
03799              -1.00   -14400.00
03800               0.20   -14400.00
03801              -0.20   -13600.00
03802              -1.00   -12800.00
03803              -0.20   -12800.00
03804              -1.00   -12000.00
03805              -0.20   -11200.00
03806               0.20   -10400.00
03807              -1.20   -10400.00
03808               0.00    -9600.00
03809               0.00    -8800.00
03810              -1.20    -8000.00
03811               0.40    -8000.00
03812               0.40    -7200.00
03813              -0.60    -6400.00
03814               0.60    -6400.00
03815              -0.20    -4800.00
03816              -0.60    -4000.00
03817               0.40    -4000.00
03818              -0.80    -3200.00
03819              -0.80    -3200.00
03820               0.40    -2400.00
03821              -0.60    -1600.00
03822              -0.60    -1600.00
03823               0.60        0.00
03824               0.00        0.00
03825               0.40      800.00
03826               1.80      800.00
03827               3.80     1600.00
03828              -1.20     1600.00
03829              -0.80     2400.00
03830               1.80     3200.00
03831               0.20     4000.00
03832              -1.20     4800.00
03833               7.80     4800.00
03834              25.00     6400.00
03835               0.40     7200.00
03836             -25.00     8000.00
03837              11.40     8000.00
03838              19.80     8800.00
03839             -25.00     8800.00
03840               6.60     9600.00
03841              25.00    10400.00
03842             -25.00     9600.00
03843              19.60    11200.00
03844              25.00    12000.00
03845             -25.00    12000.00
03846              25.00    12800.00
03847              -7.00    12800.00
03848             -25.00    14400.00
03849              25.00    14400.00
03850             -25.00    15200.00
03851              25.00    16000.00
03852              25.00    16000.00
03853             -25.00    16000.00
03854              25.00    16800.00
03855              24.80    17600.00
03856             -25.00    18400.00
03857               4.80    18400.00
03858              25.00    19200.00
03859             -25.00    19200.00
03860              14.00    20800.00
03861              25.00    21600.00
03862             -25.00    21600.00
03863              25.00    22400.00
03864              -5.00    22400.00
03865             -21.20    22400.00
03866              22.20    23200.00
03867              -6.00    24000.00
03868             -10.20    24800.00
03869              17.80    24800.00
03870              -5.20    24800.00
03871             -11.00    25600.00
03872              18.20    25600.00
03873             -13.40    25600.00
03874               0.20    26400.00
03875              11.60    27200.00
03876             -11.80    27200.00
03877               3.80    28000.00
03878               3.80    28000.00
03879              -5.20    28000.00
03880               1.40    28800.00
03881               4.20    28800.00
03882              -4.40    28800.00
03883              -2.20    29600.00
03884               3.80    30400.00
03885              -5.40    29600.00
03886               0.60    30400.00
03887               3.40    31200.00
03888              -4.40    31200.00
03889               3.00    31200.00
03890              -1.20    31200.00
03891              -3.40    31200.00
03892               1.40    31200.00
03893              -3.40    32000.00
03894              -1.20    31200.00
03895               0.40    32800.00
03896              -3.00    32000.00
03897              -3.00    32000.00
03898              -1.20    32800.00
03899              -3.00    32800.00
03900              -4.60    32800.00
03901              -2.00    32800.00
03902              -4.40    32800.00
03903              -6.00    32800.00
03904              -2.80    33600.00
03905              -7.60    32800.00
03906              -6.40    32800.00
03907              -6.20    32800.00
03908             -10.60    32800.00
03909              -8.20    32800.00
03910             -11.80    32800.00
03911             -13.20    32800.00
03912             -11.60    32800.00
03913             -13.80    32800.00
03914             -13.80    32000.00
03915             -14.00    32800.00
03916             -14.00    32800.00
03917             -15.40    32800.00
03918             -16.60    32800.00
03919             -22.80    32800.00
03920             -25.00    32000.00
03921             -10.20    32800.00
03922              -7.00    31200.00
03923             -13.80    31200.00
03924              -9.40    31200.00
03925              -6.00    31200.00
03926              -7.20    31200.00
03927              -8.20    31200.00
03928              -5.40    30400.00
03929              -3.40    30400.00
03930              -6.00    30400.00
03931              -3.80    29600.00
03932              -0.60    28800.00
03933              -4.00    29600.00
03934              -3.40    28800.00
03935              -0.40    28800.00
03936              -2.20    28000.00
03937              -3.00    28000.00
03938              -0.60    27200.00
03939              -1.20    27200.00
03940              -2.80    27200.00
03941               0.40    27200.00
03942              -0.60    25600.00
03943              -2.20    25600.00
03944               0.00    24800.00
03945              -0.40    24800.00
03946              -1.00    24800.00
03947              -0.40    24000.00
03948              -0.40    24000.00
03949              -0.40    24000.00
03950              -1.00    22400.00
03951              -0.40    22400.00
03952              -0.40    22400.00
03953              -0.60    21600.00
03954              -0.20    21600.00
03955              -0.60    20000.00
03956              -0.60    20000.00
03957              -0.40    19200.00
03958              -0.40    19200.00
03959              -0.20    18400.00
03960              -0.40    18400.00
03961               0.00    17600.00
03962              -0.60    16800.00
03963              -0.40    16000.00
03964               0.00    15200.00
03965              -1.80    16000.00
03966              -0.20    14400.00
03967               0.00    14400.00
03968              -1.00    13600.00
03969              -0.60    12800.00
03970              -0.20    12800.00
03971              -0.60    11200.00
03972              -0.20    11200.00
03973              -0.60    11200.00
03974              -1.20    10400.00
03975              -0.40     9600.00
03976              -0.40     8800.00
03977              -1.40     8000.00
03978              -0.40     8000.00
03979              -0.60     8000.00
03980              -1.20     7200.00
03981              -0.20     5600.00
03982              -0.20     5600.00
03983              -1.20     4800.00
03984               0.20     4800.00
03985              -1.00     4000.00
03986              -0.60     3200.00
03987              -1.00     2400.00
03988              -1.20     1600.00
03989              -1.20     1600.00
03990              -0.60      800.00
03991              -0.60        0.00
03992              -0.40     -800.00
03993               1.80     -800.00
03994               1.40    -1600.00
03995              -2.40    -2400.00
03996               1.00    -2400.00
03997               1.00    -3200.00
03998              -1.00    -3200.00
03999               0.00    -4000.00
04000               5.60    -4800.00
04001              17.20    -6400.00
04002              14.20    -7200.00
04003             -25.00    -8000.00
04004             -12.20    -8000.00
04005              25.00    -8800.00
04006             -17.80    -8800.00
04007             -25.00    -8000.00
04008              25.00    -9600.00
04009              25.00   -10400.00
04010             -25.00   -10400.00
04011              25.00   -11200.00
04012              25.00   -12000.00
04013             -25.00   -12800.00
04014              25.00   -13600.00
04015             -13.40   -13600.00
04016             -13.60   -14400.00
04017              25.00   -15200.00
04018             -25.00   -14400.00
04019              25.00   -16000.00
04020              10.00   -16000.00
04021             -25.00   -16800.00
04022              25.00   -16800.00
04023              11.80   -17600.00
04024             -25.00   -18400.00
04025              11.60   -18400.00
04026              22.80   -19200.00
04027             -25.00   -20000.00
04028              22.20   -20000.00
04029              11.80   -20800.00
04030             -25.00   -21600.00
04031              21.20   -21600.00
04032              -4.60   -22400.00
04033             -15.80   -23200.00
04034              14.60   -23200.00
04035              -2.60   -24000.00
04036             -11.40   -24000.00
04037              15.00   -24800.00
04038              -7.00   -24800.00
04039              -7.40   -25600.00
04040              13.20   -25600.00
04041             -11.00   -25600.00
04042               1.00   -26400.00
04043               6.60   -26400.00
04044              -8.80   -27200.00
04045               1.40   -27200.00
04046               3.40   -28000.00
04047              -4.80   -28800.00
04048               1.80   -28800.00
04049               3.20   -28800.00
04050              -5.00   -28800.00
04051               1.20   -28800.00
04052               2.20   -29600.00
04053              -5.00   -29600.00
04054               3.00   -29600.00
04055               1.40   -30400.00
04056              -2.80   -30400.00
04057               3.40   -30400.00
04058              -0.60   -30400.00
04059              -0.40   -31200.00
04060               2.80   -31200.00
04061              -0.40   -32000.00
04062               2.60   -32000.00
04063               2.40   -32000.00
04064               0.20   -32000.00
04065               2.80   -32000.00
04066               2.60   -32000.00
04067               2.60   -32000.00
04068               3.40   -32000.00
04069               3.80   -32800.00
04070               4.20   -32000.00
04071               5.20   -32000.00
04072               6.00   -32000.00
04073               6.00   -32000.00
04074               8.00   -32800.00
04075               9.00   -32000.00
04076               9.80   -32800.00
04077              11.00   -32000.00
04078              10.80   -32800.00
04079              13.20   -32000.00
04080              13.00   -32000.00
04081              13.00   -32000.00
04082              13.80   -32000.00
04083              13.80   -32000.00
04084              15.60   -32000.00
04085              18.20   -32000.00
04086              25.00   -32000.00
04087              20.00   -32000.00
04088               5.20   -30400.00
04089              10.00   -30400.00
04090              13.20   -30400.00
04091               6.00   -30400.00
04092               5.00   -30400.00
04093               8.80   -30400.00
04094               5.80   -29600.00
04095               2.00   -29600.00
04096               4.40   -29600.00
04097               5.40   -29600.00
04098               1.20   -28800.00
04099               1.80   -28800.00
04100               3.60   -28800.00
04101               1.20   -28000.00
04102               0.20   -28000.00
04103               2.60   -27200.00
04104               1.00   -27200.00
04105              -0.20   -26400.00
04106               1.40   -26400.00
04107               0.60   -26400.00
04108              -0.40   -25600.00
04109               0.20   -25600.00
04110              -0.20   -25600.00
04111              -0.20   -24000.00
04112              -0.40   -24000.00
04113              -0.60   -24000.00
04114               0.20   -23200.00
04115              -0.60   -23200.00
04116              -0.20   -22400.00
04117               0.60   -22400.00
04118              -0.60   -21600.00
04119              -0.60   -20800.00
04120               0.40   -20800.00
04121              -0.60   -20800.00
04122              -0.60   -19200.00
04123              -0.20   -19200.00
04124              -1.00   -18400.00
04125              -0.80   -17600.00
04126              -0.20   -17600.00
04127              -0.60   -16800.00
04128              -0.60   -16000.00
04129              -0.20   -16800.00
04130              -0.60   -16000.00
04131              -0.20   -15200.00
04132               0.00   -14400.00
04133              -0.40   -14400.00
04134              -0.20   -13600.00
04135              -0.40   -12800.00
04136              -0.40   -12800.00
04137              -0.40   -11200.00
04138              -0.40   -11200.00
04139              -0.40   -10400.00
04140              -0.60   -10400.00
04141              -0.20    -9600.00
04142              -0.20    -9600.00
04143              -0.40    -8800.00
04144               0.20    -8000.00
04145              -0.20    -7200.00
04146              -0.40    -6400.00
04147               0.20    -6400.00
04148              -0.40    -6400.00
04149              -0.40    -4800.00
04150               0.40    -4000.00
04151              -0.20    -3200.00
04152              -0.40    -3200.00
04153               0.20    -2400.00
04154              -0.20    -1600.00
04155              -0.20    -1600.00
04156               0.20     -800.00
04157              -0.20        0.00
04158               0.40        0.00
04159               1.00      800.00
04160               2.80     1600.00
04161               1.00     2400.00
04162              -1.40     3200.00
04163               1.20     2400.00
04164               0.60     4000.00
04165              -1.20     3200.00
04166               3.40     4800.00
04167              18.40     6400.00
04168              25.00     7200.00
04169             -25.00     8000.00
04170             -14.80     8000.00
04171              25.00     8800.00
04172             -21.20     8800.00
04173             -25.00     9600.00
04174              25.00    10400.00
04175             -17.20     9600.00
04176             -25.00    11200.00
04177              25.00    12000.00
04178             -25.00    12000.00
04179               0.40    12800.00
04180              25.00    12800.00
04181             -25.00    13600.00
04182              25.00    14400.00
04183             -25.00    14400.00
04184             -25.00    15200.00
04185              25.00    16000.00
04186             -25.00    16000.00
04187               0.60    17600.00
04188              25.00    17600.00
04189             -25.00    17600.00
04190             -21.40    18400.00
04191              25.00    19200.00
04192             -20.20    20000.00
04193             -24.20    20800.00
04194              25.00    20800.00
04195             -25.00    21600.00
04196               6.60    21600.00
04197              22.80    22400.00
04198             -25.00    22400.00
04199              15.40    23200.00
04200               6.80    24000.00
04201             -16.40    24000.00
04202              11.60    24800.00
04203               8.40    24800.00
04204             -19.60    24800.00
04205              13.80    25600.00
04206              -0.20    25600.00
04207             -12.40    26400.00
04208              14.80    27200.00
04209              -7.40    27200.00
04210              -2.60    27200.00
04211               7.60    28000.00
04212              -3.80    28000.00
04213              -2.00    28000.00
04214               5.20    28000.00
04215              -1.80    28800.00
04216              -5.00    29600.00
04217               4.60    29600.00
04218              -2.20    30400.00
04219              -4.20    30400.00
04220               5.80    30400.00
04221              -4.60    30400.00
04222              -1.40    31200.00
04223               3.20    31200.00
04224              -4.00    31200.00
04225               1.00    31200.00
04226              -1.20    32000.00
04227              -2.60    31200.00
04228               0.20    31200.00
04229              -2.00    32800.00
04230              -3.60    32000.00
04231              -1.80    32000.00
04232              -1.80    32800.00
04233              -4.40    32800.00
04234              -3.00    32000.00
04235              -2.80    32800.00
04236              -7.20    32800.00
04237              -3.80    33600.00
04238              -5.40    32800.00
04239              -8.40    32800.00
04240              -4.40    33600.00
04241              -9.40    32800.00
04242              -9.40    33600.00
04243              -9.20    32800.00
04244             -13.20    32800.00
04245             -12.00    32800.00
04246             -13.20    32000.00
04247             -15.00    32800.00
04248             -14.20    32800.00
04249             -12.00    32800.00
04250             -14.20    32000.00
04251             -18.20    32800.00
04252             -19.60    32000.00
04253             -25.00    32000.00
04254             -17.40    32000.00
04255              -4.20    31200.00
04256             -11.80    32000.00
04257             -13.00    31200.00
04258              -5.80    30400.00
04259              -6.20    31200.00
04260              -8.40    31200.00
04261              -5.40    30400.00
04262              -2.60    30400.00
04263              -5.40    29600.00
04264              -4.60    30400.00
04265              -1.60    28800.00
04266              -5.20    28800.00
04267              -3.80    28800.00
04268               1.00    28800.00
04269              -2.00    28000.00
04270              -3.60    28000.00
04271              -1.00    28000.00
04272              -1.20    27200.00
04273              -2.40    27200.00
04274               0.00    26400.00
04275               0.00    26400.00
04276              -2.20    25600.00
04277               0.20    25600.00
04278               0.00    25600.00
04279              -1.00    24800.00
04280              -0.20    24000.00
04281              -1.00    24000.00
04282              -0.60    24000.00
04283              -0.40    22400.00
04284              -1.20    22400.00
04285              -0.40    22400.00
04286              -0.40    22400.00
04287              -0.40    21600.00
04288               0.20    20800.00
04289               0.20    19200.00
04290              -0.60    19200.00
04291              -0.60    18400.00
04292              -0.20    18400.00
04293              -0.60    18400.00
04294              -0.20    17600.00
04295               0.20    17600.00
04296              -0.60    16000.00
04297              -0.20    16000.00
04298              -1.00    16000.00
04299              -1.40    15200.00
04300              -0.20    14400.00
04301              -1.00    14400.00
04302              -0.40    12800.00
04303               0.00    12800.00
04304              -1.20    12800.00
04305              -0.20    12000.00
04306               0.20    11200.00
04307              -1.20    11200.00
04308               0.20     9600.00
04309              -0.60     9600.00
04310              -1.20     9600.00
04311              -1.00     8000.00
04312              -1.20     8000.00
04313              -1.00     6400.00
04314               0.20     7200.00
04315              -1.00     4800.00
04316              -0.80     5600.00
04317              -0.40     4000.00
04318              -0.40     3200.00
04319              -0.60     3200.00
04320              -0.20     2400.00
04321              -0.60     1600.00
04322              -1.00      800.00
04323              -0.40      800.00
04324              -1.00      800.00
04325              -0.20        0.00
04326               1.20     -800.00
04327               2.60     -800.00
04328              -2.20    -1600.00
04329               0.20    -2400.00
04330               0.40    -3200.00
04331              -0.60    -3200.00
04332              -0.40    -3200.00
04333               2.20    -4000.00
04334              11.60    -5600.00
04335              25.00    -6400.00
04336             -25.00    -7200.00
04337             -25.00    -8000.00
04338              23.40    -8000.00
04339               1.20    -8800.00
04340             -25.00    -8800.00
04341               9.40    -9600.00
04342              25.00   -10400.00
04343             -25.00   -10400.00
04344             -15.00   -11200.00
04345              25.00   -12800.00
04346             -25.00   -11200.00
04347              11.20   -13600.00
04348              25.00   -12800.00
04349             -25.00   -14400.00
04350              25.00   -14400.00
04351             -25.00   -14400.00
04352              -0.40   -15200.00
04353              25.00   -16000.00
04354             -25.00   -16800.00
04355               6.00   -17600.00
04356              25.00   -17600.00
04357             -25.00   -18400.00
04358             -12.20   -19200.00
04359              25.00   -19200.00
04360             -25.00   -19200.00
04361              -4.60   -20000.00
04362              25.00   -20800.00
04363             -25.00   -21600.00
04364               6.60   -22400.00
04365              13.20   -22400.00
04366             -22.80   -22400.00
04367               7.00   -23200.00
04368               8.40   -23200.00
04369             -15.00   -24000.00
04370               8.40   -24000.00
04371               5.80   -24000.00
04372             -14.60   -24800.00
04373              10.00   -25600.00
04374              -2.40   -25600.00
04375              -7.60   -25600.00
04376               9.20   -26400.00
04377              -5.80   -26400.00
04378              -2.80   -27200.00
04379               5.40   -27200.00
04380              -3.60   -27200.00
04381              -2.00   -28800.00
04382               4.80   -28800.00
04383              -2.20   -28800.00
04384              -2.80   -28800.00
04385               5.00   -29600.00
04386              -3.00   -29600.00
04387              -1.20   -29600.00
04388               3.80   -29600.00
04389              -2.20   -29600.00
04390               1.20   -29600.00
04391               1.20   -30400.00
04392              -1.40   -30400.00
04393               2.00   -31200.00
04394               1.20   -31200.00
04395               1.20   -31200.00
04396               2.60   -32000.00
04397               1.00   -32000.00
04398               1.60   -32000.00
04399               2.20   -32000.00
04400               3.60   -32000.00
04401               3.20   -32000.00
04402               3.60   -32800.00
04403               5.40   -32000.00
04404               3.80   -32000.00
04405               5.80   -32000.00
04406               5.80   -32000.00
04407               6.00   -32800.00
04408              10.20   -32000.00
04409               9.80   -32800.00
04410              10.00   -32000.00
04411              11.80   -32800.00
04412              12.20   -32000.00
04413              12.60   -32000.00
04414              13.20   -32000.00
04415              13.80   -32000.00
04416              13.40   -32000.00
04417              15.40   -32000.00
04418              17.00   -32000.00
04419              22.80   -31200.00
04420              24.20   -32000.00
04421               8.20   -32000.00
04422               7.60   -31200.00
04423              13.20   -30400.00
04424               7.80   -30400.00
04425               4.60   -30400.00
04426               6.80   -29600.00
04427               7.60   -29600.00
04428               3.20   -29600.00
04429               3.20   -29600.00
04430               6.80   -29600.00
04431               2.80   -29600.00
04432               0.80   -28800.00
04433               3.00   -28800.00
04434               1.40   -28800.00
04435              -0.20   -28000.00
04436               1.80   -27200.00
04437               2.00   -27200.00
04438               0.40   -27200.00
04439               0.20   -27200.00
04440               1.80   -26400.00
04441               0.40   -26400.00
04442              -1.00   -25600.00
04443               0.40   -25600.00
04444               0.60   -24800.00
04445              -0.60   -24800.00
04446               0.20   -24000.00
04447              -0.60   -23200.00
04448               1.00   -23200.00
04449              -2.60   -22400.00
04450               0.20   -22400.00
04451               1.40   -22400.00
04452              -0.60   -20800.00
04453              -1.00   -20800.00
04454               1.20   -20800.00
04455              -0.60   -20000.00
04456              -2.40   -18400.00
04457               2.00   -18400.00
04458              -0.20   -18400.00
04459              -2.80   -17600.00
04460               1.40   -17600.00
04461              -0.20   -16800.00
04462              -2.20   -16000.00
04463               1.40   -16000.00
04464               0.20   -15200.00
04465              -1.40   -14400.00
04466               1.40   -14400.00
04467              -0.40   -13600.00
04468              -2.60   -12800.00
04469               0.60   -12800.00
04470               0.20   -12000.00
04471              -2.00   -11200.00
04472               1.00   -10400.00
04473               0.40   -10400.00
04474              -2.00    -9600.00
04475               1.00    -9600.00
04476               0.40    -8800.00
04477              -1.20    -8000.00
04478               0.60    -8000.00
04479               0.20    -6400.00
04480              -1.20    -6400.00
04481               0.20    -6400.00
04482              -0.20    -4800.00
04483              -0.20    -4000.00
04484              -0.20    -4000.00
04485              -0.40    -3200.00
04486              -0.20    -2400.00
04487              -0.20    -1600.00
04488              -0.40    -1600.00
04489               0.20     -800.00
04490               0.60     -800.00
04491               0.20        0.00
04492               0.60      800.00
04493               2.00     1600.00
04494               2.60     2400.00
04495              -2.20     2400.00
04496              -0.20     2400.00
04497               1.40     3200.00
04498              -1.20     4000.00
04499               0.40     4800.00
04500              11.40     5600.00
04501              25.00     7200.00
04502             -25.00     8000.00
04503             -25.00     8000.00
04504              25.00     8000.00
04505               2.00     8800.00
04506             -25.00     8000.00
04507              25.00    10400.00
04508              25.00    10400.00
04509             -25.00    11200.00
04510              25.00    12000.00
04511              14.20    12000.00
04512             -25.00    12800.00
04513              25.00    12800.00
04514             -25.00    12800.00
04515              25.00    14400.00
04516              25.00    14400.00
04517             -25.00    14400.00
04518              25.00    16000.00
04519              -6.00    16000.00
04520             -25.00    16000.00
04521              25.00    17600.00
04522              -5.40    18400.00
04523             -25.00    18400.00
04524              25.00    19200.00
04525              14.80    19200.00
04526             -25.00    20000.00
04527              25.00    20800.00
04528              -1.60    20800.00
04529             -25.00    22400.00
04530              25.00    22400.00
04531             -25.00    22400.00
04532              -2.60    23200.00
04533              18.60    23200.00
04534             -14.00    24000.00
04535              -0.20    24000.00
04536              17.40    24800.00
04537             -15.60    25600.00
04538               1.40    25600.00
04539              12.40    25600.00
04540             -17.20    26400.00
04541              10.20    27200.00
04542               2.20    27200.00
04543              -9.40    27200.00
04544               7.40    27200.00
04545              -1.20    28000.00
04546              -3.80    28800.00
04547               4.20    28000.00
04548               1.80    28800.00
04549              -5.20    28800.00
04550               1.00    29600.00
04551               1.40    29600.00
04552              -5.80    30400.00
04553               3.80    30400.00
04554              -0.60    30400.00
04555              -3.00    31200.00
04556               3.20    30400.00
04557              -4.20    31200.00
04558              -0.60    31200.00
04559              -0.60    31200.00
04560              -3.80    32000.00
04561               0.20    32800.00
04562              -1.20    32000.00
04563              -3.00    32800.00
04564              -2.60    32800.00
04565              -2.00    32800.00
04566              -3.20    32800.00
04567              -4.60    32000.00
04568              -2.00    33600.00
04569              -5.40    32800.00
04570              -5.40    32800.00
04571              -3.40    32000.00
04572              -9.00    32800.00
04573              -5.20    33600.00
04574              -7.40    32800.00
04575             -11.40    32800.00
04576              -7.40    33600.00
04577             -13.20    32800.00
04578             -14.00    33600.00
04579             -10.20    32800.00
04580             -14.20    32800.00
04581             -15.00    32800.00
04582             -12.20    32800.00
04583             -15.00    32000.00
04584             -16.40    32800.00
04585             -15.60    32000.00
04586             -25.00    32000.00
04587             -23.00    32000.00
04588              -5.40    32000.00
04589             -10.60    31200.00
04590             -13.40    31200.00
04591              -7.00    32000.00
04592              -6.40    31200.00
04593              -7.60    31200.00
04594              -7.00    31200.00
04595              -3.80    30400.00
04596              -4.20    30400.00
04597              -5.20    30400.00
04598              -2.00    29600.00
04599              -2.20    28800.00
04600              -3.60    28800.00
04601              -2.60    28800.00
04602              -1.00    28000.00
04603              -2.20    28000.00
04604              -2.80    28000.00
04605              -0.20    27200.00
04606              -1.60    27200.00
04607              -2.20    27200.00
04608               0.60    26400.00
04609              -1.80    25600.00
04610              -1.20    25600.00
04611               1.40    25600.00
04612              -1.40    24800.00
04613              -0.60    24000.00
04614               0.20    24000.00
04615              -1.00    24000.00
04616               0.20    24000.00
04617              -0.60    22400.00
04618              -1.00    22400.00
04619               0.20    22400.00
04620              -1.20    21600.00
04621              -1.20    20800.00
04622               0.40    20000.00
04623              -1.00    19200.00
04624              -0.80    19200.00
04625               0.80    19200.00
04626              -0.60    17600.00
04627              -1.00    17600.00
04628               0.40    17600.00
04629              -1.00    16800.00
04630              -0.60    16000.00
04631               0.20    16000.00
04632              -1.20    15200.00
04633               0.00    14400.00
04634              -0.40    14400.00
04635              -1.20    13600.00
04636               0.20    12800.00
04637              -1.00    12800.00
04638              -1.40    11200.00
04639               0.60    11200.00
04640              -1.20    10400.00
04641              -1.00     9600.00
04642               0.40     9600.00
04643              -0.60     8800.00
04644              -1.20     8000.00
04645               0.20     8000.00
04646              -1.00     6400.00
04647              -1.20     7200.00
04648              -0.40     6400.00
04649              -1.00     5600.00
04650              -0.40     4800.00
04651              -0.20     4800.00
04652              -0.80     3200.00
04653              -0.40     2400.00
04654              -0.60     2400.00
04655              -1.20     1600.00
04656              -0.60     1600.00
04657              -0.20      800.00
04658              -1.00        0.00
04659               0.40     -800.00
04660               3.60    -1600.00
04661              -1.20    -1600.00
04662              -1.20    -1600.00
04663               1.60    -3200.00
04664              -0.20    -3200.00
04665              -0.60    -3200.00
04666               1.00    -4000.00
04667               6.80    -4800.00
04668              24.20    -6400.00
04669              -4.80    -7200.00
04670             -25.00    -8000.00
04671               8.40    -8000.00
04672              18.60    -8000.00
04673             -25.00    -9600.00
04674             -16.20    -8800.00
04675              25.00   -10400.00
04676               2.40   -11200.00
04677             -25.00   -10400.00
04678              25.00   -11200.00
04679             -17.00   -12000.00
04680             -25.00   -12800.00
04681              25.00   -13600.00
04682             -25.00   -13600.00
04683              18.80   -14400.00
04684               4.60   -14400.00
04685             -25.00   -16000.00
04686              25.00   -16000.00
04687             -18.80   -16800.00
04688             -20.60   -16800.00
04689              25.00   -16800.00
04690              -9.80   -17600.00
04691             -25.00   -18400.00
04692              25.00   -19200.00
04693              -1.00   -20000.00
04694             -25.00   -20000.00
04695              25.00   -20800.00
04696             -10.80   -20800.00
04697             -14.00   -21600.00
04698              22.80   -22400.00
04699             -18.00   -22400.00
04700              -4.40   -23200.00
04701              14.60   -23200.00
04702             -10.80   -24000.00
04703              -1.80   -24000.00
04704              13.40   -24800.00
04705             -14.60   -24800.00
04706               4.20   -25600.00
04707               7.40   -25600.00
04708             -17.20   -26400.00
04709              13.80   -26400.00
04710              -7.00   -27200.00
04711              -6.80   -26400.00
04712               9.00   -27200.00
04713              -0.40   -28800.00
04714              -0.20   -28000.00
04715               0.00   -28800.00
04716               3.00   -28800.00
04717              -8.60   -28800.00
04718               1.80   -28800.00
04719              -1.00   -29600.00
04720              -2.00   -28800.00
04721               9.20   -29600.00
04722              -4.60   -30400.00
04723               4.60   -30400.00
04724              -0.20   -30400.00
04725              -2.20   -30400.00
04726               5.40   -31200.00
04727              -5.40   -31200.00
04728               0.20   -31200.00
04729               5.40   -32000.00
04730              -1.00   -32000.00
04731               0.20   -31200.00
04732               6.80   -32000.00
04733               5.00   -32000.00
04734               2.00   -32800.00
04735               4.60   -32000.00
04736               1.20   -32800.00
04737               3.40   -32800.00
04738               6.00   -32800.00
04739               3.40   -32000.00
04740               9.00   -32000.00
04741              11.40   -32000.00
04742               8.40   -32000.00
04743              11.20   -32000.00
04744              11.60   -32000.00
04745              10.00   -32800.00
04746              12.20   -32000.00
04747              11.60   -32000.00
04748              12.40   -32000.00
04749              15.00   -32800.00
04750              14.60   -32000.00
04751              17.00   -32000.00
04752              22.20   -32000.00
04753              25.00   -32000.00
04754              13.20   -32000.00
04755               5.80   -30400.00
04756              10.20   -30400.00
04757               9.00   -31200.00
04758               6.60   -30400.00
04759               5.80   -30400.00
04760               9.00   -29600.00
04761               6.20   -29600.00
04762               0.60   -29600.00
04763               5.00   -29600.00
04764               4.20   -28800.00
04765              -1.60   -29600.00
04766               3.00   -28800.00
04767               4.00   -28800.00
04768              -0.20   -28000.00
04769               2.20   -28800.00
04770               2.60   -27200.00
04771              -0.20   -27200.00
04772               0.40   -27200.00
04773               1.00   -26400.00
04774              -0.60   -26400.00
04775              -0.20   -25600.00
04776               0.20   -25600.00
04777              -0.60   -24800.00
04778               1.00   -24000.00
04779               0.20   -24000.00
04780              -0.40   -24000.00
04781               0.60   -23200.00
04782              -1.00   -23200.00
04783              -0.20   -22400.00
04784               0.20   -22400.00
04785              -0.60   -20800.00
04786               0.20   -20800.00
04787               0.40   -20000.00
04788              -0.20   -20000.00
04789              -0.20   -19200.00
04790              -0.60   -18400.00
04791              -0.40   -18400.00
04792              -0.60   -17600.00
04793              -1.00   -17600.00
04794              -0.60   -16800.00
04795               0.00   -16800.00
04796              -0.20   -16000.00
04797              -0.20   -15200.00
04798               0.40   -14400.00
04799              -0.60   -14400.00
04800               0.40   -13600.00
04801               0.20   -12800.00
04802              -1.20   -12800.00
04803               0.20   -12800.00
04804              -0.60   -12000.00
04805              -1.20   -11200.00
04806               0.60   -10400.00
04807              -0.60   -10400.00
04808              -1.00    -9600.00
04809               0.60    -8800.00
04810              -0.20    -8000.00
04811              -0.40    -7200.00
04812               0.20    -7200.00
04813              -0.40    -6400.00
04814              -0.20    -6400.00
04815               0.20    -5600.00
04816              -0.40    -4800.00
04817              -0.40    -4000.00
04818              -0.20    -3200.00
04819              -0.60    -2400.00
04820              -0.40    -1600.00
04821              -0.40    -1600.00
04822              -0.60     -800.00
04823               0.00     -800.00
04824               0.20        0.00
04825               0.20        0.00
04826               1.00     1600.00
04827               3.80     1600.00
04828              -1.40     2400.00
04829              -0.80     3200.00
04830               1.80     3200.00
04831              -0.40     4000.00
04832              -1.00     4800.00
04833               7.00     5600.00
04834              25.00     7200.00
04835               3.80     7200.00
04836             -25.00     8000.00
04837               8.60     8000.00
04838              22.00     8800.00
04839             -25.00     8800.00
04840               2.20     9600.00
04841              25.00    10400.00
04842             -25.00     9600.00
04843              13.80    11200.00
04844              25.00    12000.00
04845             -25.00    12000.00
04846              25.00    12800.00
04847               0.20    12800.00
04848             -25.00    14400.00
04849              25.00    14400.00
04850             -25.00    14400.00
04851              25.00    16000.00
04852              25.00    16000.00
04853             -25.00    16000.00
04854              25.00    17600.00
04855              25.00    17600.00
04856             -25.00    18400.00
04857               2.80    18400.00
04858              25.00    19200.00
04859             -25.00    20000.00
04860              11.60    20800.00
04861              25.00    21600.00
04862             -25.00    21600.00
04863              25.00    22400.00
04864              -2.00    21600.00
04865             -23.00    23200.00
04866              22.80    23200.00
04867              -5.40    24000.00
04868             -10.80    24000.00
04869              18.00    24800.00
04870              -4.40    24800.00
04871             -12.20    25600.00
04872              18.20    25600.00
04873             -12.60    25600.00
04874              -1.20    27200.00
04875              12.20    27200.00
04876             -11.40    27200.00
04877               3.40    27200.00
04878               4.20    28000.00
04879              -5.00    28000.00
04880               1.20    28800.00
04881               3.60    28800.00
04882              -4.40    28800.00
04883              -2.20    28800.00
04884               3.40    30400.00
04885              -5.00    30400.00
04886               0.40    30400.00
04887               3.00    30400.00
04888              -4.60    31200.00
04889               2.60    31200.00
04890              -1.40    31200.00
04891              -3.40    32000.00
04892               1.20    31200.00
04893              -3.40    32000.00
04894              -1.40    32000.00
04895               0.20    32800.00
04896              -3.00    32000.00
04897              -2.80    32800.00
04898              -2.60    32800.00
04899              -2.80    32800.00
04900              -4.60    32800.00
04901              -2.80    32800.00
04902              -3.80    32800.00
04903              -6.20    32800.00
04904              -3.80    33600.00
04905              -6.20    33600.00
04906              -7.00    32800.00
04907              -6.80    32800.00
04908              -9.20    33600.00
04909              -8.20    32800.00
04910             -11.80    33600.00
04911             -12.60    32000.00
04912             -11.40    32800.00
04913             -14.00    32800.00
04914             -14.00    32800.00
04915             -14.20    32000.00
04916             -14.00    33600.00
04917             -15.40    32000.00
04918             -17.20    32000.00
04919             -22.00    32800.00
04920             -25.00    32000.00
04921             -10.80    32000.00
04922              -6.20    32000.00
04923             -13.40    31200.00
04924              -9.40    31200.00
04925              -5.80    31200.00
04926              -7.00    31200.00
04927              -7.80    30400.00
04928              -5.40    30400.00
04929              -3.40    30400.00
04930              -5.40    30400.00
04931              -3.80    28800.00
04932              -1.00    29600.00
04933              -3.60    28800.00
04934              -3.20    28000.00
04935              -0.40    28800.00
04936              -2.20    28000.00
04937              -2.80    28000.00
04938              -0.20    27200.00
04939              -1.20    27200.00
04940              -2.20    27200.00
04941               0.20    26400.00
04942              -1.20    25600.00
04943              -1.80    25600.00
04944               0.20    25600.00
04945              -0.60    25600.00
04946              -1.00    24800.00
04947              -0.40    24000.00
04948              -1.20    24000.00
04949              -0.20    23200.00
04950              -0.60    22400.00
04951              -1.00    22400.00
04952              -0.20    21600.00
04953              -0.60    21600.00
04954              -0.60    20800.00
04955              -0.40    20800.00
04956              -0.40    19200.00
04957              -0.80    19200.00
04958               0.20    19200.00
04959               0.20    18400.00
04960              -1.00    18400.00
04961              -0.60    17600.00
04962              -0.60    16800.00
04963              -1.20    16000.00
04964              -0.20    15200.00
04965              -0.60    15200.00
04966              -1.00    14400.00
04967              -0.40    14400.00
04968               0.20    13600.00
04969              -0.60    13600.00
04970              -0.60    12800.00
04971              -0.40    12000.00
04972              -0.40    11200.00
04973               0.00    11200.00
04974              -1.00    11200.00
04975              -0.60     9600.00
04976               0.40     9600.00
04977              -1.60     8000.00
04978              -0.40     8800.00
04979              -0.20     7200.00
04980              -2.00     8000.00
04981               0.20     6400.00
04982               0.20     5600.00
04983              -1.80     4800.00
04984               1.00     4800.00
04985              -1.00     3200.00
04986              -0.40     3200.00
04987               0.40     2400.00
04988              -1.80     1600.00
04989              -0.40     1600.00
04990               0.20      800.00
04991              -2.00        0.00
04992               0.40        0.00
04993               2.60     -800.00
04994              -0.20    -1600.00
04995              -1.20    -1600.00
04996               1.40    -2400.00
04997              -0.40    -3200.00
04998               0.60    -4000.00
04999               0.40    -4000.00
05000               3.80    -4800.00
