Unit:(mV)
                     CH1         CH2
Frequency              ? 300.156 kHz
00001              -1.20    -4000.00
00002               3.40    -4800.00
00003               8.60    -5600.00
00004              24.40    -6400.00
00005             -18.80    -8000.00
00006             -25.00    -8000.00
00007              19.00    -8000.00
00008               8.20    -9600.00
00009             -25.00    -9600.00
00010              -6.00    -9600.00
00011              25.00   -10400.00
00012               6.60   -11200.00
00013             -25.00   -11200.00
00014              25.00   -12000.00
00015              -7.00   -12000.00
00016             -25.00   -12800.00
00017              25.00   -13600.00
00018             -25.00   -14400.00
00019              10.40   -15200.00
00020               9.00   -14400.00
00021             -25.00   -16000.00
00022              25.00   -16800.00
00023             -14.00   -16800.00
00024             -18.60   -17600.00
00025              25.00   -17600.00
00026              -6.80   -18400.00
00027             -25.00   -19200.00
00028              24.80   -19200.00
00029               4.20   -20000.00
00030             -25.00   -20000.00
00031              25.00   -20800.00
00032              -5.40   -20800.00
00033             -14.40   -21600.00
00034              22.20   -21600.00
00035             -13.60   -23200.00
00036              -4.60   -23200.00
00037              15.00   -23200.00
00038              -8.40   -24000.00
00039              -1.60   -24800.00
00040              14.00   -24800.00
00041             -12.20   -24800.00
00042               2.00   -25600.00
00043               9.80   -25600.00
00044             -12.20   -26400.00
00045               6.80   -26400.00
00046               2.60   -27200.00
00047              -7.40   -27200.00
00048               6.20   -27200.00
00049               2.20   -28000.00
00050              -4.40   -28800.00
00051               5.80   -28800.00
00052               2.00   -28800.00
00053              -5.80   -28800.00
00054               5.60   -29600.00
00055               1.00   -28800.00
00056              -4.40   -29600.00
00057               6.00   -30400.00
00058              -0.40   -30400.00
00059              -2.60   -30400.00
00060               4.60   -30400.00
00061              -1.80   -30400.00
00062              -0.60   -30400.00
00063               4.60   -32000.00
00064              -1.00   -31200.00
00065              -0.60   -32000.00
00066               3.20   -32000.00
00067              -0.20   -32000.00
00068              -1.20   -32000.00
00069               3.60   -32800.00
00070              -0.20   -32000.00
00071              -1.80   -32000.00
00072               3.60   -32800.00
00073              -0.40   -32000.00
00074              -1.00   -32000.00
00075               2.00   -32800.00
00076              -0.20   -32800.00
00077               1.00   -32000.00
00078               1.60   -32000.00
00079              -0.40   -32800.00
00080               1.20   -32000.00
00081               1.60   -32800.00
00082               0.00   -32000.00
00083               0.40   -32000.00
00084               0.60   -32000.00
00085               0.60   -32000.00
00086               0.60   -32000.00
00087               0.20   -32000.00
00088               0.40   -31200.00
00089               2.00   -31200.00
00090               0.60   -31200.00
00091               0.20   -32000.00
00092               1.20   -30400.00
00093              -0.20   -30400.00
00094               0.20   -31200.00
00095               1.80   -29600.00
00096               1.20   -29600.00
00097              -0.40   -29600.00
00098               1.80   -29600.00
00099               1.80   -28800.00
00100              -1.40   -29600.00
00101               1.20   -28800.00
00102               2.00   -28800.00
00103               0.60   -28800.00
00104               0.00   -28800.00
00105               1.20   -27200.00
00106               1.20   -27200.00
00107              -0.60   -27200.00
00108               0.40   -26400.00
00109               1.40   -26400.00
00110               0.20   -25600.00
00111               0.40   -25600.00
00112               1.20   -25600.00
00113               0.40   -24800.00
00114               0.20   -24800.00
00115               1.00   -24000.00
00116               1.20   -24000.00
00117               0.40   -23200.00
00118               0.60   -23200.00
00119               1.20   -23200.00
00120               0.40   -22400.00
00121               0.00   -21600.00
00122               0.60   -20800.00
00123               0.60   -20800.00
00124              -0.40   -20000.00
00125              -0.20   -19200.00
00126               0.20   -18400.00
00127               0.80   -17600.00
00128               1.00   -18400.00
00129               0.80   -17600.00
00130               0.60   -16800.00
00131               0.40   -16800.00
00132               0.40   -15200.00
00133               0.60   -16000.00
00134              -0.40   -14400.00
00135               0.20   -14400.00
00136               0.40   -13600.00
00137              -1.00   -13600.00
00138               0.20   -12800.00
00139               0.20   -12800.00
00140              -0.60   -11200.00
00141               1.00   -11200.00
00142               0.20   -10400.00
00143              -1.00    -9600.00
00144               0.60    -9600.00
00145               0.20    -8800.00
00146               0.40    -8000.00
00147              -0.20    -7200.00
00148              -0.60    -7200.00
00149               1.20    -6400.00
00150              -0.60    -5600.00
00151              -1.60    -4800.00
00152               0.40    -4000.00
00153              -0.80    -4000.00
00154              -1.40    -3200.00
00155               0.60    -3200.00
00156               0.00    -1600.00
00157              -0.40     -800.00
00158               0.60     -800.00
00159              -0.20        0.00
00160               0.20        0.00
00161              -0.20      800.00
00162               2.00     1600.00
00163               2.40     1600.00
00164              -3.40     2400.00
00165               0.40     3200.00
00166               2.00     4000.00
00167              -2.20     4000.00
00168               1.80     4800.00
00169              10.00     5600.00
00170              25.00     7200.00
00171             -23.00     8000.00
00172             -25.00     8000.00
00173              25.00     8000.00
00174               4.40     8800.00
00175             -25.00     8800.00
00176              23.40     9600.00
00177              25.00    11200.00
00178             -25.00    11200.00
00179              25.00    12000.00
00180              25.00    12000.00
00181             -25.00    12000.00
00182              25.00    12800.00
00183             -25.00    13600.00
00184             -14.20    14400.00
00185              25.00    14400.00
00186             -25.00    15200.00
00187              25.00    16000.00
00188              25.00    16000.00
00189             -25.00    17600.00
00190              25.00    17600.00
00191              20.20    18400.00
00192             -25.00    18400.00
00193              12.60    18400.00
00194              25.00    20000.00
00195             -25.00    20800.00
00196              25.00    20800.00
00197              21.80    21600.00
00198             -25.00    21600.00
00199              25.00    22400.00
00200             -11.80    22400.00
00201             -19.40    23200.00
00202              23.40    24000.00
00203             -10.20    24000.00
00204             -11.20    24800.00
00205              19.60    24800.00
00206             -11.40    24800.00
00207              -9.20    25600.00
00208              18.60    25600.00
00209             -17.00    26400.00
00210               2.60    27200.00
00211               9.40    27200.00
00212             -13.80    27200.00
00213               4.20    28000.00
00214               1.20    28000.00
00215              -7.80    28000.00
00216               2.80    28800.00
00217               1.40    28800.00
00218              -6.20    28800.00
00219               0.40    29600.00
00220               2.00    29600.00
00221              -6.60    30400.00
00222               2.60    30400.00
00223               0.40    31200.00
00224              -5.20    31200.00
00225               3.60    31200.00
00226              -2.80    31200.00
00227              -2.80    31200.00
00228               1.40    32000.00
00229              -3.60    32800.00
00230              -0.60    32000.00
00231              -0.60    32800.00
00232              -2.80    32000.00
00233              -2.00    32000.00
00234              -0.60    32800.00
00235              -1.00    32800.00
00236              -2.20    32800.00
00237               0.80    32800.00
00238              -1.40    32000.00
00239              -2.40    32800.00
00240               1.40    32800.00
00241              -3.00    32800.00
00242              -1.20    32800.00
00243              -0.20    32800.00
00244              -3.00    32800.00
00245              -0.20    32800.00
00246              -1.80    32800.00
00247              -2.60    33600.00
00248               0.20    32800.00
00249              -1.20    32000.00
00250              -2.20    32800.00
00251              -0.40    32800.00
00252              -0.40    32800.00
00253              -2.20    32000.00
00254              -0.40    32800.00
00255              -1.80    32000.00
00256              -2.20    32000.00
00257               0.00    31200.00
00258              -2.00    31200.00
00259              -1.40    31200.00
00260              -1.20    31200.00
00261              -2.20    30400.00
00262              -0.60    30400.00
00263              -1.20    30400.00
00264              -1.60    29600.00
00265              -0.40    30400.00
00266              -1.20    28800.00
00267              -1.40    29600.00
00268              -1.20    28800.00
00269              -1.80    28800.00
00270              -1.20    28800.00
00271              -1.40    28000.00
00272              -1.40    28000.00
00273              -1.40    27200.00
00274              -1.20    27200.00
00275              -1.40    27200.00
00276              -1.40    26400.00
00277              -0.60    26400.00
00278              -1.80    25600.00
00279              -1.40    25600.00
00280              -0.60    24800.00
00281              -1.80    24800.00
00282              -0.60    24000.00
00283              -1.00    24000.00
00284              -2.20    24000.00
00285              -1.20    22400.00
00286              -1.40    22400.00
00287              -2.20    22400.00
00288              -0.60    21600.00
00289              -1.00    21600.00
00290              -0.80    20800.00
00291              -1.00    20800.00
00292              -1.20    19200.00
00293              -1.20    19200.00
00294              -1.40    18400.00
00295              -1.20    17600.00
00296              -0.60    17600.00
00297              -1.60    16800.00
00298              -1.40    16000.00
00299               0.00    16000.00
00300              -0.80    16000.00
00301              -2.20    15200.00
00302               0.40    14400.00
00303              -1.00    13600.00
00304              -2.20    12800.00
00305               0.40    12800.00
00306              -1.20    12000.00
00307              -1.80    12000.00
00308               0.20    11200.00
00309              -1.40    10400.00
00310              -0.40     9600.00
00311              -1.00     9600.00
00312              -1.80     8800.00
00313              -0.20     8000.00
00314              -1.20     7200.00
00315              -1.40     7200.00
00316               1.60     7200.00
00317              -1.20     5600.00
00318              -1.40     4800.00
00319               1.20     4000.00
00320              -1.80     4000.00
00321              -1.80     3200.00
00322               0.40     2400.00
00323              -2.00     1600.00
00324              -0.40     1600.00
00325               0.40      800.00
00326              -1.40        0.00
00327               0.00     -800.00
00328               1.40     -800.00
00329               3.00     -800.00
00330              -1.40    -1600.00
00331               0.20    -1600.00
00332               2.20    -3200.00
00333              -0.20    -3200.00
00334              -1.60    -4000.00
00335               2.20    -4800.00
00336               7.00    -4800.00
00337              22.80    -6400.00
00338              -7.00    -7200.00
00339             -25.00    -8000.00
00340              11.00    -8000.00
00341              17.00    -8000.00
00342             -25.00    -9600.00
00343             -14.80    -8800.00
00344              25.00    -9600.00
00345              25.00   -11200.00
00346             -25.00   -10400.00
00347              25.00   -12000.00
00348              18.20   -12000.00
00349             -25.00   -12800.00
00350              25.00   -13600.00
00351             -19.80   -12800.00
00352              -5.00   -14400.00
00353              21.40   -14400.00
00354             -25.00   -15200.00
00355              25.00   -16000.00
00356              -1.20   -16800.00
00357             -25.00   -17600.00
00358              25.00   -17600.00
00359               3.40   -17600.00
00360             -25.00   -18400.00
00361              18.20   -19200.00
00362              15.40   -20000.00
00363             -25.00   -20000.00
00364              25.00   -20800.00
00365               5.20   -20800.00
00366             -21.80   -22400.00
00367              22.00   -22400.00
00368              -7.40   -22400.00
00369             -11.00   -23200.00
00370              15.60   -23200.00
00371              -3.80   -24000.00
00372              -7.40   -24000.00
00373              15.80   -24800.00
00374              -8.60   -25600.00
00375              -3.60   -25600.00
00376              13.00   -26400.00
00377             -10.80   -26400.00
00378               3.60   -27200.00
00379               6.60   -26400.00
00380              -7.00   -27200.00
00381               2.20   -27200.00
00382               4.80   -27200.00
00383              -4.60   -28800.00
00384               1.00   -28800.00
00385               5.00   -28800.00
00386              -4.60   -28800.00
00387               2.60   -29600.00
00388               4.20   -29600.00
00389              -3.60   -29600.00
00390               5.20   -30400.00
00391               1.00   -29600.00
00392              -3.00   -30400.00
00393               4.20   -30400.00
00394              -2.20   -32000.00
00395              -1.20   -31200.00
00396               4.20   -31200.00
00397              -0.60   -32000.00
00398               1.00   -32000.00
00399               3.40   -32000.00
00400              -1.00   -32000.00
00401              -0.20   -32800.00
00402               2.00   -32000.00
00403              -1.40   -32000.00
00404              -0.60   -32800.00
00405               2.00   -32000.00
00406              -0.60   -32800.00
00407               2.00   -32000.00
00408               2.60   -32800.00
00409              -0.20   -32800.00
00410               2.20   -32000.00
00411               1.00   -32000.00
00412              -1.20   -32000.00
00413               1.20   -32800.00
00414              -0.60   -32000.00
00415               0.20   -32800.00
00416               1.80   -32800.00
00417               0.20   -32000.00
00418               1.40   -32000.00
00419               2.00   -32000.00
00420               0.20   -32000.00
00421              -0.20   -32000.00
00422               0.40   -32000.00
00423               0.20   -32000.00
00424               1.20   -31200.00
00425               1.40   -30400.00
00426               0.40   -30400.00
00427               2.00   -29600.00
00428               1.60   -30400.00
00429              -0.60   -30400.00
00430               0.80   -30400.00
00431              -0.20   -29600.00
00432              -0.60   -29600.00
00433               1.20   -28800.00
00434               0.80   -28800.00
00435               0.40   -28000.00
00436               1.80   -27200.00
00437               1.40   -28000.00
00438               0.60   -27200.00
00439               1.20   -27200.00
00440               0.40   -27200.00
00441              -0.20   -27200.00
00442               0.80   -26400.00
00443               0.40   -26400.00
00444               0.20   -25600.00
00445               1.20   -25600.00
00446               0.60   -24800.00
00447               0.60   -24000.00
00448               1.20   -24000.00
00449               0.20   -24000.00
00450               0.60   -23200.00
00451               1.00   -22400.00
00452               0.40   -22400.00
00453               0.60   -22400.00
00454               1.20   -21600.00
00455               0.40   -20800.00
00456               0.40   -20800.00
00457               0.60   -20000.00
00458              -0.20   -19200.00
00459              -0.20   -19200.00
00460               0.40   -18400.00
00461               0.20   -17600.00
00462               0.20   -17600.00
00463               0.60   -16800.00
00464               0.40   -16000.00
00465               1.00   -16000.00
00466               0.40   -16000.00
00467               0.40   -14400.00
00468               0.40   -14400.00
00469              -0.20   -13600.00
00470               0.20   -13600.00
00471              -0.40   -12800.00
00472              -0.20   -12000.00
00473               0.20   -11200.00
00474              -0.40   -11200.00
00475               0.20   -11200.00
00476               0.40   -10400.00
00477              -0.20    -9600.00
00478               0.20    -8800.00
00479               0.20    -8000.00
00480              -0.60    -8000.00
00481              -0.20    -7200.00
00482               0.40    -6400.00
00483              -0.20    -5600.00
00484              -0.20    -4800.00
00485               0.20    -4800.00
00486              -0.20    -4000.00
00487              -0.60    -3200.00
00488               0.20    -2400.00
00489              -0.40    -1600.00
00490              -0.60    -1600.00
00491              -0.20     -800.00
00492              -0.20     -800.00
00493               0.20      800.00
00494               0.40     1600.00
00495               1.60     1600.00
00496               2.80     2400.00
00497              -2.60     2400.00
00498               0.20     2400.00
00499               1.20     3200.00
00500              -0.60     4000.00
00501               0.40     4800.00
00502               7.80     4800.00
00503              25.00     7200.00
00504              -9.80     8000.00
00505             -25.00     8000.00
00506              19.60     8800.00
00507              12.20     8800.00
00508             -25.00     8800.00
00509               4.20     9600.00
00510              25.00    11200.00
00511             -25.00     9600.00
00512               1.20    12000.00
00513              25.00    12000.00
00514             -25.00    12000.00
00515              25.00    13600.00
00516               5.60    12800.00
00517             -25.00    14400.00
00518              25.00    14400.00
00519             -25.00    15200.00
00520              23.80    16000.00
00521              25.00    16000.00
00522             -25.00    16800.00
00523              25.00    16800.00
00524              25.00    18400.00
00525             -25.00    18400.00
00526              -1.40    19200.00
00527              25.00    19200.00
00528             -25.00    20000.00
00529               7.40    20800.00
00530              25.00    20800.00
00531             -25.00    21600.00
00532              25.00    22400.00
00533               1.40    22400.00
00534             -25.00    22400.00
00535              22.00    23200.00
00536              -3.80    24000.00
00537             -16.20    24800.00
00538              17.80    24800.00
00539              -3.60    24800.00
00540             -16.20    25600.00
00541              19.00    25600.00
00542             -11.80    25600.00
00543              -4.40    27200.00
00544              13.00    26400.00
00545             -12.20    28000.00
00546               0.80    28000.00
00547               3.80    28000.00
00548              -6.80    28000.00
00549               0.40    28000.00
00550               2.80    28800.00
00551              -5.80    28800.00
00552              -2.60    28800.00
00553               3.00    30400.00
00554              -6.00    29600.00
00555              -0.40    30400.00
00556               3.00    30400.00
00557              -5.00    31200.00
00558               2.20    31200.00
00559              -1.20    31200.00
00560              -3.80    31200.00
00561               1.80    31200.00
00562              -2.80    32800.00
00563              -1.40    32000.00
00564               0.40    32000.00
00565              -2.20    32800.00
00566              -1.80    32000.00
00567              -1.00    32800.00
00568              -1.20    32800.00
00569              -2.20    32000.00
00570              -0.40    32800.00
00571              -1.00    32800.00
00572              -2.20    32800.00
00573               0.60    32800.00
00574              -2.20    32800.00
00575              -1.20    32800.00
00576              -0.20    32800.00
00577              -2.80    32800.00
00578               0.20    32800.00
00579              -2.00    33600.00
00580              -2.20    32800.00
00581              -0.40    32800.00
00582              -2.00    32800.00
00583              -1.20    32800.00
00584              -1.20    32800.00
00585              -1.20    32000.00
00586              -1.20    32000.00
00587              -1.00    31200.00
00588              -1.40    31200.00
00589              -2.00    32800.00
00590              -0.60    32000.00
00591              -1.40    31200.00
00592              -1.80    31200.00
00593              -0.60    31200.00
00594              -2.00    30400.00
00595              -1.00    31200.00
00596              -0.80    30400.00
00597              -2.00    30400.00
00598              -1.20    29600.00
00599              -1.20    29600.00
00600              -1.40    29600.00
00601              -1.20    29600.00
00602              -1.80    28800.00
00603              -1.20    28800.00
00604              -1.80    28000.00
00605              -1.80    28000.00
00606              -1.00    27200.00
00607              -1.20    27200.00
00608              -1.20    27200.00
00609              -1.40    27200.00
00610              -1.00    26400.00
00611              -1.40    25600.00
00612              -1.40    25600.00
00613              -0.60    25600.00
00614              -1.80    24800.00
00615              -1.00    24800.00
00616              -1.20    24000.00
00617              -2.20    24000.00
00618              -1.00    22400.00
00619              -1.20    22400.00
00620              -1.20    22400.00
00621              -1.00    21600.00
00622              -0.60    21600.00
00623              -1.00    20800.00
00624              -1.00    20000.00
00625              -1.40    19200.00
00626              -1.40    19200.00
00627              -0.60    18400.00
00628              -1.40    18400.00
00629              -1.40    17600.00
00630              -0.60    17600.00
00631              -2.00    16000.00
00632              -0.20    16000.00
00633              -0.80    16000.00
00634              -2.00    15200.00
00635               0.40    14400.00
00636              -1.20    14400.00
00637              -0.60    12800.00
00638              -0.20    12800.00
00639              -1.60    12000.00
00640               0.20    11200.00
00641              -0.40    11200.00
00642              -2.00    11200.00
00643              -0.60     9600.00
00644              -1.20     9600.00
00645              -1.20     8800.00
00646              -0.60     8000.00
00647              -1.40     8000.00
00648              -0.60     7200.00
00649              -0.20     6400.00
00650              -0.60     5600.00
00651              -0.40     4800.00
00652              -0.40     4800.00
00653              -0.40     4000.00
00654              -0.80     3200.00
00655              -0.40     3200.00
00656              -1.00     2400.00
00657              -1.40     1600.00
00658              -0.60     1600.00
00659              -0.40        0.00
00660              -1.20     -800.00
00661               0.40     -800.00
00662               3.60    -1600.00
00663              -1.20    -1600.00
00664              -1.40    -2400.00
00665               2.60    -3200.00
00666               0.00    -3200.00
00667              -1.20    -4000.00
00668               2.20    -4800.00
00669               5.40    -4800.00
00670              21.20    -6400.00
00671               3.60    -7200.00
00672             -25.00    -8000.00
00673               2.60    -8000.00
00674              22.20    -8800.00
00675             -25.00    -9600.00
00676             -21.00    -8800.00
00677              25.00   -10400.00
00678              25.00   -11200.00
00679             -25.00   -11200.00
00680              25.00   -12000.00
00681              25.00   -12800.00
00682             -25.00   -12800.00
00683              25.00   -13600.00
00684              -2.00   -13600.00
00685             -18.80   -14400.00
00686              25.00   -14400.00
00687             -25.00   -16000.00
00688              24.40   -16000.00
00689              10.80   -16800.00
00690             -25.00   -16800.00
00691              25.00   -17600.00
00692              12.60   -17600.00
00693             -25.00   -19200.00
00694               8.20   -19200.00
00695              24.80   -20000.00
00696             -25.00   -20000.00
00697              17.20   -20800.00
00698              15.60   -20800.00
00699             -25.00   -21600.00
00700              18.60   -22400.00
00701              -0.40   -22400.00
00702             -15.00   -23200.00
00703              14.20   -24000.00
00704               0.40   -23200.00
00705             -10.60   -24000.00
00706              14.40   -24000.00
00707              -4.20   -24800.00
00708              -7.80   -25600.00
00709              14.20   -25600.00
00710              -8.60   -25600.00
00711              -0.40   -26400.00
00712               8.40   -27200.00
00713              -6.60   -27200.00
00714               1.40   -28000.00
00715               5.00   -27200.00
00716              -3.40   -27200.00
00717               1.80   -28800.00
00718               4.20   -28800.00
00719              -3.80   -28800.00
00720               1.20   -28800.00
00721               3.20   -29600.00
00722              -4.40   -29600.00
00723               3.00   -30400.00
00724               2.20   -30400.00
00725              -3.40   -30400.00
00726               3.60   -30400.00
00727              -0.20   -31200.00
00728              -1.40   -30400.00
00729               3.00   -32000.00
00730              -0.40   -32000.00
00731               0.40   -32000.00
00732               2.80   -32000.00
00733              -0.60   -32000.00
00734               0.20   -32000.00
00735               1.80   -32000.00
00736              -0.40   -32000.00
00737              -0.40   -32800.00
00738               1.80   -32000.00
00739               0.00   -32000.00
00740              -0.20   -32800.00
00741               1.80   -32800.00
00742               0.20   -32000.00
00743               1.60   -32800.00
00744               1.40   -32800.00
00745               0.00   -32000.00
00746               1.40   -32800.00
00747               0.60   -32000.00
00748               0.20   -32800.00
00749               1.20   -32000.00
00750               0.20   -32800.00
00751               0.40   -32000.00
00752               0.80   -32000.00
00753               0.60   -32000.00
00754               0.20   -32000.00
00755               0.60   -32000.00
00756               1.00   -31200.00
00757               1.20   -31200.00
00758               1.20   -31200.00
00759               1.00   -31200.00
00760               1.40   -30400.00
00761               1.20   -30400.00
00762               0.60   -30400.00
00763               0.60   -30400.00
00764               0.20   -29600.00
00765               1.00   -29600.00
00766               0.40   -28800.00
00767               0.20   -28800.00
00768               1.20   -28800.00
00769               0.60   -28000.00
00770               0.60   -28000.00
00771               1.40   -28000.00
00772               0.40   -27200.00
00773               0.60   -27200.00
00774               1.40   -26400.00
00775               0.40   -26400.00
00776               1.20   -26400.00
00777               0.60   -25600.00
00778               0.40   -25600.00
00779               0.60   -24000.00
00780               0.60   -24800.00
00781               0.40   -24000.00
00782               0.60   -23200.00
00783               0.60   -22400.00
00784               0.60   -22400.00
00785               0.60   -23200.00
00786               0.60   -22400.00
00787               0.40   -22400.00
00788               0.20   -20800.00
00789               0.40   -20800.00
00790               0.60   -20800.00
00791               0.20   -19200.00
00792              -0.40   -18400.00
00793               1.00   -18400.00
00794               0.20   -17600.00
00795               0.20   -17600.00
00796               0.40   -16800.00
00797              -0.20   -16800.00
00798               0.60   -16800.00
00799               0.60   -16000.00
00800              -0.60   -15200.00
00801               0.40   -15200.00
00802               0.40   -13600.00
00803              -0.40   -13600.00
00804               0.20   -12800.00
00805              -0.20   -12800.00
00806              -0.20   -11200.00
00807               0.60   -11200.00
00808               0.20   -10400.00
00809              -0.40    -9600.00
00810               0.40    -9600.00
00811               0.20    -8800.00
00812              -0.20    -8000.00
00813              -0.20    -7200.00
00814              -0.40    -7200.00
00815               0.00    -6400.00
00816               0.20    -6400.00
00817              -0.60    -4800.00
00818              -0.20    -4000.00
00819               0.40    -4000.00
00820              -0.60    -3200.00
00821               0.40    -3200.00
00822               0.40    -2400.00
00823               0.40    -1600.00
00824               0.20     -800.00
00825              -0.20     -800.00
00826               0.00        0.00
00827               0.40      800.00
00828               0.60     1600.00
00829               3.20     2400.00
00830              -2.20     1600.00
00831              -1.00     3200.00
00832               2.00     3200.00
00833              -0.60     3200.00
00834              -1.20     4800.00
00835               7.60     5600.00
00836              25.00     7200.00
00837               4.00     8000.00
00838             -25.00     8800.00
00839               8.80     8800.00
00840              21.20     8800.00
00841             -25.00     8800.00
00842             -13.40     9600.00
00843              25.00    10400.00
00844             -25.00    10400.00
00845             -25.00    11200.00
00846              25.00    11200.00
00847             -25.00    12000.00
00848              21.80    12800.00
00849              25.00    12800.00
00850             -25.00    14400.00
00851              25.00    14400.00
00852             -25.00    14400.00
00853             -14.00    15200.00
00854              25.00    16000.00
00855             -25.00    16000.00
00856              13.80    16800.00
00857              25.00    18400.00
00858             -25.00    18400.00
00859             -15.60    19200.00
00860              25.00    19200.00
00861             -25.00    20000.00
00862             -11.80    20800.00
00863              25.00    20800.00
00864             -25.00    21600.00
00865              15.80    22400.00
00866              15.40    22400.00
00867             -25.00    22400.00
00868              18.20    23200.00
00869               3.60    24000.00
00870             -19.60    24000.00
00871              14.60    24800.00
00872               4.20    24800.00
00873             -21.40    24800.00
00874              17.00    25600.00
00875              -5.40    25600.00
00876             -11.00    26400.00
00877              14.80    27200.00
00878              -9.80    27200.00
00879              -2.60    28000.00
00880               6.00    28000.00
00881              -6.20    28000.00
00882              -0.80    28800.00
00883               4.20    28000.00
00884              -5.00    28800.00
00885              -3.60    28800.00
00886               3.60    29600.00
00887              -5.20    30400.00
00888              -2.00    30400.00
00889               4.20    30400.00
00890              -5.20    30400.00
00891               1.20    30400.00
00892               0.20    31200.00
00893              -4.80    32000.00
00894               1.80    31200.00
00895              -2.60    31200.00
00896              -2.20    32000.00
00897               1.40    32800.00
00898              -2.20    32000.00
00899              -2.20    32000.00
00900              -0.20    32800.00
00901              -1.00    32800.00
00902              -2.20    32800.00
00903              -0.20    32800.00
00904              -0.60    33600.00
00905              -2.80    33600.00
00906               0.40    32800.00
00907              -2.00    33600.00
00908              -2.20    32800.00
00909               0.40    32000.00
00910              -2.80    33600.00
00911              -0.40    32800.00
00912              -1.00    32800.00
00913              -2.80    32800.00
00914               0.20    32000.00
00915              -1.00    32800.00
00916              -1.80    32800.00
00917              -1.20    32000.00
00918              -1.40    32800.00
00919              -1.20    32000.00
00920              -1.80    32800.00
00921              -1.20    32800.00
00922              -1.80    31200.00
00923              -1.40    31200.00
00924              -1.40    31200.00
00925              -1.80    31200.00
00926              -1.20    31200.00
00927              -1.40    30400.00
00928              -1.20    31200.00
00929              -1.00    30400.00
00930              -2.00    30400.00
00931              -1.00    30400.00
00932              -0.60    29600.00
00933              -2.20    28800.00
00934              -1.20    28800.00
00935              -1.40    28800.00
00936              -2.60    28000.00
00937              -1.40    28800.00
00938              -1.00    28000.00
00939              -2.20    28000.00
00940              -1.20    27200.00
00941              -0.60    27200.00
00942              -1.40    26400.00
00943              -1.00    25600.00
00944              -0.60    25600.00
00945              -1.60    25600.00
00946              -0.60    24800.00
00947              -1.20    24800.00
00948              -1.60    24000.00
00949              -1.20    24000.00
00950              -2.20    24000.00
00951              -1.20    23200.00
00952              -1.40    22400.00
00953              -1.40    21600.00
00954              -0.60    21600.00
00955              -1.20    21600.00
00956              -0.60    20800.00
00957              -1.20    20800.00
00958              -1.20    20000.00
00959              -0.40    19200.00
00960              -1.00    18400.00
00961              -0.60    18400.00
00962              -1.80    17600.00
00963              -0.60    16800.00
00964              -1.20    16800.00
00965              -1.40    16000.00
00966              -0.40    16000.00
00967              -1.60    15200.00
00968              -1.00    14400.00
00969              -0.60    14400.00
00970              -0.80    13600.00
00971              -0.60    12800.00
00972              -1.20    12000.00
00973              -0.60    12000.00
00974              -0.20    11200.00
00975              -1.00    10400.00
00976              -1.20    10400.00
00977              -1.00     8800.00
00978              -0.60     8800.00
00979              -1.20     8000.00
00980              -1.40     8000.00
00981              -0.60     7200.00
00982              -1.00     6400.00
00983              -1.20     6400.00
00984              -0.60     5600.00
00985              -0.60     4800.00
00986              -0.60     3200.00
00987              -0.60     3200.00
00988              -0.20     3200.00
00989              -1.00     1600.00
00990              -1.00     1600.00
00991              -0.60      800.00
00992              -0.40        0.00
00993              -0.40        0.00
00994               0.00     -800.00
00995               3.40     -800.00
00996              -0.20    -1600.00
00997              -2.20    -2400.00
00998               2.40    -3200.00
00999               0.40    -3200.00
01000              -1.80    -4000.00
01001               1.40    -4000.00
01002               5.20    -4800.00
01003              17.20    -5600.00
01004              12.80    -7200.00
01005             -25.00    -8000.00
01006              -8.20    -8000.00
01007              25.00    -8800.00
01008             -18.20    -9600.00
01009             -25.00    -9600.00
01010              24.40    -9600.00
01011              25.00   -11200.00
01012             -25.00   -10400.00
01013               6.60   -11200.00
01014              25.00   -12800.00
01015             -25.00   -12800.00
01016              23.00   -12800.00
01017              17.20   -14400.00
01018             -25.00   -14400.00
01019              25.00   -15200.00
01020             -25.00   -14400.00
01021              13.00   -16000.00
01022              22.80   -16000.00
01023             -25.00   -16800.00
01024              17.40   -17600.00
01025              22.80   -17600.00
01026             -25.00   -18400.00
01027              -2.40   -18400.00
01028              25.00   -19200.00
01029             -25.00   -20000.00
01030               5.40   -20000.00
01031              25.00   -20800.00
01032             -25.00   -21600.00
01033              11.60   -21600.00
01034               7.60   -22400.00
01035             -17.80   -23200.00
01036              11.20   -23200.00
01037               5.60   -23200.00
01038             -12.40   -24000.00
01039              12.20   -24000.00
01040               2.00   -24800.00
01041             -12.40   -25600.00
01042              13.40   -25600.00
01043              -3.80   -26400.00
01044              -5.40   -26400.00
01045              10.00   -26400.00
01046              -5.00   -27200.00
01047              -2.00   -27200.00
01048               6.80   -28800.00
01049              -2.20   -28800.00
01050              -0.40   -28800.00
01051               5.40   -28800.00
01052              -2.20   -28800.00
01053              -0.60   -28800.00
01054               3.80   -29600.00
01055              -3.40   -29600.00
01056               1.40   -29600.00
01057               3.00   -30400.00
01058              -3.60   -30400.00
01059               2.40   -30400.00
01060               1.00   -30400.00
01061              -1.80   -30400.00
01062               2.20   -31200.00
01063               1.00   -32000.00
01064               0.20   -32000.00
01065               1.20   -32000.00
01066               0.80   -32000.00
01067               0.20   -32000.00
01068               1.20   -32000.00
01069               1.20   -32000.00
01070              -1.00   -32000.00
01071               1.00   -32000.00
01072               1.20   -32000.00
01073              -0.40   -32000.00
01074               1.00   -32800.00
01075               0.80   -32800.00
01076               0.80   -32800.00
01077               1.00   -32800.00
01078               0.40   -32000.00
01079               1.80   -32000.00
01080               0.20   -32000.00
01081               0.40   -32800.00
01082               1.60   -32000.00
01083               0.20   -32000.00
01084               0.20   -32000.00
01085               1.00   -32800.00
01086               1.40   -32000.00
01087               0.00   -32000.00
01088               0.40   -32000.00
01089               1.80   -31200.00
01090               0.40   -32000.00
01091               1.00   -30400.00
01092               1.00   -31200.00
01093               0.00   -31200.00
01094               1.60   -30400.00
01095               0.40   -29600.00
01096               0.20   -30400.00
01097               1.40   -29600.00
01098               0.60   -29600.00
01099               0.20   -28800.00
01100               1.80   -28800.00
01101               0.20   -28800.00
01102               0.60   -28800.00
01103               1.20   -28000.00
01104               0.80   -28000.00
01105               0.80   -27200.00
01106               1.20   -27200.00
01107               0.60   -26400.00
01108               0.40   -26400.00
01109               0.60   -25600.00
01110              -0.40   -26400.00
01111               0.60   -25600.00
01112               1.20   -24800.00
01113               0.40   -24000.00
01114               0.80   -24000.00
01115               1.20   -23200.00
01116              -0.20   -24000.00
01117               0.40   -23200.00
01118               0.40   -22400.00
01119               0.20   -22400.00
01120               0.40   -21600.00
01121               0.40   -21600.00
01122               0.20   -20800.00
01123               0.60   -20000.00
01124              -0.60   -20000.00
01125               0.20   -18400.00
01126               1.00   -18400.00
01127               0.20   -18400.00
01128               0.40   -17600.00
01129               1.00   -17600.00
01130               0.20   -16800.00
01131               0.40   -16000.00
01132               0.60   -15200.00
01133               0.20   -15200.00
01134               0.40   -14400.00
01135              -0.20   -14400.00
01136               0.00   -13600.00
01137               0.20   -12800.00
01138              -0.80   -12000.00
01139               0.40   -11200.00
01140               0.20   -11200.00
01141               0.40   -11200.00
01142               0.40   -10400.00
01143               0.40   -10400.00
01144               0.40    -8800.00
01145               0.20    -8000.00
01146               0.20    -8000.00
01147               0.20    -7200.00
01148              -0.40    -6400.00
01149               0.40    -6400.00
01150              -0.20    -4800.00
01151              -0.60    -4000.00
01152              -0.20    -4000.00
01153              -0.40    -3200.00
01154               0.20    -3200.00
01155               0.20    -3200.00
01156               0.20    -1600.00
01157               0.40     -800.00
01158               0.20     -800.00
01159               0.20        0.00
01160               0.60        0.00
01161               0.60     1600.00
01162               3.40     1600.00
01163              -1.60     2400.00
01164              -1.20     2400.00
01165               1.80     3200.00
01166              -0.60     4000.00
01167              -2.00     4800.00
01168               6.00     4800.00
01169              20.60     6400.00
01170              16.00     7200.00
01171             -25.00     8000.00
01172              -3.40     8000.00
01173              25.00     8800.00
01174             -25.00     8800.00
01175             -25.00     8800.00
01176              25.00    10400.00
01177              -9.20    10400.00
01178             -25.00    11200.00
01179              25.00    12000.00
01180             -25.00    12000.00
01181             -13.40    12800.00
01182              25.00    12800.00
01183             -25.00    13600.00
01184              25.00    14400.00
01185             -19.00    15200.00
01186             -25.00    15200.00
01187              25.00    16000.00
01188             -25.00    16000.00
01189              -9.80    17600.00
01190              25.00    17600.00
01191             -25.00    17600.00
01192             -25.00    18400.00
01193              25.00    19200.00
01194             -17.20    19200.00
01195             -25.00    20800.00
01196              25.00    21600.00
01197             -25.00    21600.00
01198               0.20    21600.00
01199              25.00    22400.00
01200             -25.00    22400.00
01201              11.40    24000.00
01202              10.60    24000.00
01203             -20.40    24000.00
01204               9.60    24800.00
01205              10.80    24800.00
01206             -22.20    25600.00
01207              13.00    25600.00
01208               0.60    25600.00
01209             -14.60    25600.00
01210              14.00    27200.00
01211              -7.00    27200.00
01212              -4.40    28000.00
01213               6.20    27200.00
01214              -6.00    28000.00
01215              -2.20    28000.00
01216               4.20    28800.00
01217              -3.60    28800.00
01218              -3.80    29600.00
01219               2.80    28800.00
01220              -3.60    30400.00
01221              -2.60    30400.00
01222               4.20    30400.00
01223              -4.60    31200.00
01224               0.60    30400.00
01225               1.40    31200.00
01226              -5.20    31200.00
01227               1.40    31200.00
01228              -2.00    31200.00
01229              -3.40    32000.00
01230               1.20    32000.00
01231              -1.40    32800.00
01232              -2.20    32800.00
01233              -0.60    32000.00
01234              -0.60    32800.00
01235              -2.00    32000.00
01236              -1.00    32800.00
01237               0.40    32000.00
01238              -2.80    32800.00
01239              -0.20    32800.00
01240              -1.20    32000.00
01241              -3.00    32800.00
01242               0.20    32800.00
01243              -2.80    32800.00
01244              -1.20    32000.00
01245              -1.00    32800.00
01246              -3.00    32800.00
01247              -0.60    32800.00
01248              -1.40    32000.00
01249              -1.40    32800.00
01250              -1.00    32800.00
01251              -1.20    32000.00
01252              -1.00    32800.00
01253              -1.40    32000.00
01254              -1.60    32000.00
01255              -2.00    32000.00
01256              -1.20    32000.00
01257              -1.40    31200.00
01258              -2.60    31200.00
01259              -1.20    31200.00
01260              -2.00    31200.00
01261              -1.60    30400.00
01262              -0.60    30400.00
01263              -2.00    30400.00
01264              -1.20    30400.00
01265              -0.20    28800.00
01266              -1.60    29600.00
01267              -1.20    29600.00
01268              -1.20    28800.00
01269              -1.40    28800.00
01270              -1.40    28000.00
01271              -1.40    28000.00
01272              -1.40    28000.00
01273              -1.20    27200.00
01274              -1.20    27200.00
01275              -1.40    27200.00
01276              -1.20    26400.00
01277              -1.00    25600.00
01278              -1.20    25600.00
01279              -0.80    24800.00
01280              -1.00    24800.00
01281              -1.00    24000.00
01282              -0.60    24000.00
01283              -2.00    24000.00
01284              -1.20    24000.00
01285              -1.20    22400.00
01286              -1.20    22400.00
01287              -1.00    22400.00
01288              -1.40    21600.00
01289              -0.60    21600.00
01290              -0.60    20800.00
01291              -1.80    20000.00
01292              -0.60    19200.00
01293              -0.60    19200.00
01294              -1.00    17600.00
01295              -1.00    17600.00
01296              -1.60    17600.00
01297              -0.60    16000.00
01298              -1.00    16000.00
01299              -1.00    16000.00
01300              -1.20    15200.00
01301              -1.00    15200.00
01302              -0.60    14400.00
01303              -1.00    12800.00
01304              -1.00    12800.00
01305              -1.00    12800.00
01306              -0.60    12000.00
01307              -0.60    11200.00
01308              -1.20    11200.00
01309              -1.40     9600.00
01310              -1.00     9600.00
01311              -1.00     8800.00
01312              -0.60     8000.00
01313              -1.20     8000.00
01314              -0.40     7200.00
01315              -0.60     6400.00
01316              -0.60     5600.00
01317              -0.60     5600.00
01318              -0.60     4800.00
01319              -1.00     4000.00
01320              -1.00     3200.00
01321              -1.00     2400.00
01322              -0.60     2400.00
01323              -1.20     1600.00
01324              -0.80      800.00
01325              -0.40        0.00
01326              -0.20        0.00
01327               0.00     -800.00
01328               2.60    -1600.00
01329               1.40    -1600.00
01330              -2.60    -1600.00
01331               2.00    -3200.00
01332               1.00    -3200.00
01333              -1.20    -4000.00
01334               0.40    -4000.00
01335               4.40    -4800.00
01336              13.80    -6400.00
01337              19.40    -7200.00
01338             -25.00    -8000.00
01339             -18.60    -8000.00
01340              25.00    -8000.00
01341              -9.40    -8800.00
01342             -25.00    -9600.00
01343              14.20    -9600.00
01344              25.00   -11200.00
01345             -25.00   -10400.00
01346             -18.20   -12000.00
01347              25.00   -12800.00
01348             -25.00   -12800.00
01349               3.00   -13600.00
01350              25.00   -13600.00
01351             -25.00   -13600.00
01352              25.00   -15200.00
01353             -21.00   -16000.00
01354              -1.80   -16000.00
01355              25.00   -16000.00
01356             -25.00   -16800.00
01357               5.80   -17600.00
01358              25.00   -17600.00
01359             -25.00   -18400.00
01360             -12.60   -19200.00
01361              25.00   -18400.00
01362             -22.60   -20000.00
01363              -6.20   -20800.00
01364              25.00   -20800.00
01365             -23.60   -20800.00
01366               4.60   -22400.00
01367              14.20   -22400.00
01368             -19.80   -23200.00
01369               7.00   -23200.00
01370              10.00   -24000.00
01371             -13.60   -24000.00
01372               8.40   -24000.00
01373               7.00   -24800.00
01374             -14.20   -25600.00
01375              11.00   -26400.00
01376               0.60   -25600.00
01377              -8.60   -26400.00
01378              10.00   -26400.00
01379              -3.60   -27200.00
01380              -3.60   -28000.00
01381               6.20   -28800.00
01382              -1.20   -28800.00
01383              -1.40   -28800.00
01384               5.20   -28800.00
01385              -1.20   -28800.00
01386              -2.20   -29600.00
01387               5.00   -29600.00
01388              -2.60   -29600.00
01389              -0.40   -30400.00
01390               4.60   -30400.00
01391              -2.60   -30400.00
01392               1.80   -30400.00
01393               2.20   -30400.00
01394              -2.20   -30400.00
01395               2.00   -32000.00
01396               0.80   -31200.00
01397              -0.20   -32000.00
01398               2.20   -32000.00
01399               0.20   -32000.00
01400              -0.20   -32000.00
01401               1.40   -32000.00
01402               0.60   -32000.00
01403               0.00   -32000.00
01404               1.20   -32000.00
01405               1.00   -32000.00
01406              -0.40   -32000.00
01407               2.00   -32000.00
01408              -0.40   -32800.00
01409               1.00   -32800.00
01410               2.60   -32000.00
01411              -0.60   -32800.00
01412               1.00   -32800.00
01413               1.20   -32800.00
01414               0.00   -32000.00
01415               1.40   -32000.00
01416               0.40   -32000.00
01417               0.20   -32000.00
01418               1.20   -32000.00
01419               1.20   -32000.00
01420               0.40   -32000.00
01421               0.60   -31200.00
01422               1.20   -31200.00
01423               1.20   -31200.00
01424               1.00   -32000.00
01425               1.00   -30400.00
01426               0.40   -30400.00
01427               1.00   -30400.00
01428               0.80   -30400.00
01429              -0.20   -30400.00
01430               1.20   -29600.00
01431               0.60   -29600.00
01432              -0.20   -29600.00
01433               2.00   -28800.00
01434               0.20   -28800.00
01435               0.40   -28800.00
01436               2.80   -27200.00
01437              -0.60   -28000.00
01438              -0.20   -27200.00
01439               3.00   -27200.00
01440              -1.00   -27200.00
01441               0.20   -26400.00
01442               2.20   -25600.00
01443              -1.60   -25600.00
01444               0.40   -25600.00
01445               1.60   -24800.00
01446              -1.20   -24000.00
01447               2.00   -24800.00
01448               1.00   -24000.00
01449              -0.60   -23200.00
01450               1.80   -23200.00
01451               0.40   -22400.00
01452               0.40   -22400.00
01453               0.60   -21600.00
01454               0.40   -21600.00
01455               0.20   -21600.00
01456               0.40   -20800.00
01457               0.40   -20000.00
01458              -0.60   -20000.00
01459               0.40   -18400.00
01460               0.60   -18400.00
01461              -0.20   -17600.00
01462               0.80   -16800.00
01463               0.40   -16800.00
01464               0.60   -16000.00
01465               1.00   -16000.00
01466              -0.20   -15200.00
01467               0.40   -14400.00
01468               0.60   -14400.00
01469              -0.20   -13600.00
01470               0.40   -13600.00
01471              -0.20   -12800.00
01472               0.20   -12000.00
01473               0.40   -11200.00
01474               0.20   -11200.00
01475              -0.40   -10400.00
01476               0.40    -9600.00
01477               0.40    -9600.00
01478              -0.20    -9600.00
01479               0.40    -8000.00
01480               0.40    -7200.00
01481               0.20    -7200.00
01482               0.40    -6400.00
01483              -0.20    -4800.00
01484              -0.20    -4800.00
01485               0.20    -4000.00
01486              -0.40    -4000.00
01487              -0.20    -3200.00
01488               0.20    -2400.00
01489              -0.20    -1600.00
01490               0.20    -1600.00
01491              -0.20     -800.00
01492              -0.20        0.00
01493               0.60      800.00
01494               0.40     1600.00
01495               3.20     1600.00
01496              -0.20     2400.00
01497              -1.80     2400.00
01498               2.00     3200.00
01499               0.20     4000.00
01500              -2.20     4800.00
01501               4.40     4800.00
01502              16.40     6400.00
01503              25.00     7200.00
01504             -25.00     8000.00
01505             -15.60     8000.00
01506              25.00     8800.00
01507             -17.80     8800.00
01508             -25.00     8800.00
01509              25.00    10400.00
01510              22.00    10400.00
01511             -25.00    11200.00
01512              25.00    12000.00
01513             -12.80    11200.00
01514             -25.00    12800.00
01515              25.00    12800.00
01516             -25.00    13600.00
01517              25.00    14400.00
01518              16.60    14400.00
01519             -25.00    15200.00
01520              25.00    16000.00
01521             -25.00    16800.00
01522             -25.00    16000.00
01523              25.00    17600.00
01524             -17.40    17600.00
01525             -25.00    18400.00
01526              25.00    19200.00
01527               1.00    19200.00
01528             -25.00    20000.00
01529              25.00    20800.00
01530             -17.40    21600.00
01531             -15.00    21600.00
01532              25.00    22400.00
01533             -25.00    22400.00
01534               2.40    23200.00
01535              15.60    24000.00
01536             -18.80    24000.00
01537               2.60    24800.00
01538              15.80    24800.00
01539             -22.00    25600.00
01540               7.20    25600.00
01541               9.00    25600.00
01542             -20.00    26400.00
01543              13.20    27200.00
01544               0.20    27200.00
01545              -9.60    27200.00
01546               6.80    28000.00
01547              -3.40    28000.00
01548              -3.00    28800.00
01549               2.80    28800.00
01550              -3.00    28800.00
01551              -2.40    29600.00
01552               0.60    29600.00
01553              -3.00    30400.00
01554              -2.20    30400.00
01555               3.40    30400.00
01556              -4.60    30400.00
01557               0.60    31200.00
01558               3.40    30400.00
01559              -7.00    30400.00
01560               2.00    31200.00
01561               0.40    31200.00
01562              -4.80    32000.00
01563               1.00    32800.00
01564              -1.60    32800.00
01565              -2.00    32000.00
01566              -2.00    32800.00
01567              -1.20    32000.00
01568              -0.40    32800.00
01569              -3.40    32800.00
01570               0.80    32000.00
01571              -1.20    32800.00
01572              -1.80    32000.00
01573              -1.00    32800.00
01574              -2.80    32000.00
01575               0.60    32800.00
01576              -2.80    32800.00
01577              -1.20    32800.00
01578               0.40    32000.00
01579              -5.00    33600.00
01580              -0.60    32000.00
01581               0.40    32800.00
01582              -3.00    32800.00
01583              -2.00    32000.00
01584               0.40    32000.00
01585              -2.00    32000.00
01586              -3.00    32800.00
01587               1.00    32000.00
01588              -2.00    32800.00
01589              -3.60    32000.00
01590               0.40    32000.00
01591              -1.80    31200.00
01592              -2.60    31200.00
01593              -0.60    31200.00
01594              -0.60    30400.00
01595              -1.20    30400.00
01596              -2.20    30400.00
01597              -1.20    30400.00
01598              -1.00    29600.00
01599              -2.00    29600.00
01600              -1.00    29600.00
01601              -0.60    28800.00
01602              -1.80    28800.00
01603              -2.00    28000.00
01604              -1.20    28000.00
01605              -1.00    27200.00
01606              -2.20    27200.00
01607              -0.60    27200.00
01608              -0.40    27200.00
01609              -2.00    26400.00
01610              -1.20    26400.00
01611              -1.00    25600.00
01612              -1.20    25600.00
01613              -1.00    24800.00
01614              -1.80    24800.00
01615              -1.40    24000.00
01616              -1.00    24000.00
01617              -1.80    24000.00
01618              -1.20    23200.00
01619              -0.40    22400.00
01620              -1.40    21600.00
01621              -1.20    21600.00
01622               0.20    20800.00
01623              -1.80    20000.00
01624              -1.80    20000.00
01625               0.20    19200.00
01626              -1.80    18400.00
01627              -1.00    18400.00
01628              -0.40    17600.00
01629              -2.20    17600.00
01630              -1.00    16000.00
01631              -1.20    16000.00
01632              -1.20    16000.00
01633              -0.60    15200.00
01634              -1.20    15200.00
01635              -0.60    14400.00
01636              -0.60    12800.00
01637              -1.00    12800.00
01638              -1.00    12000.00
01639              -0.80    12000.00
01640              -0.60    11200.00
01641              -1.20    10400.00
01642              -1.40    10400.00
01643              -1.20     9600.00
01644              -1.20     8800.00
01645              -1.20     8800.00
01646              -1.20     8000.00
01647              -1.20     7200.00
01648              -0.60     6400.00
01649              -0.40     6400.00
01650              -0.60     5600.00
01651              -0.40     4800.00
01652               0.20     4000.00
01653              -1.40     3200.00
01654              -0.40     2400.00
01655              -0.60     2400.00
01656              -1.20     1600.00
01657              -1.00     1600.00
01658              -0.40        0.00
01659              -1.00        0.00
01660              -0.20     -800.00
01661               2.60     -800.00
01662               2.00    -1600.00
01663              -2.20    -2400.00
01664               1.40    -3200.00
01665               1.60    -3200.00
01666              -1.20    -4000.00
01667               0.20    -4000.00
01668               3.80    -4000.00
01669              11.40    -4800.00
01670              23.00    -6400.00
01671             -25.00    -8000.00
01672             -25.00    -8000.00
01673              25.00    -8800.00
01674              -1.40    -9600.00
01675             -25.00    -9600.00
01676               4.80    -9600.00
01677              25.00   -10400.00
01678             -20.40   -10400.00
01679             -25.00   -11200.00
01680              25.00   -12000.00
01681             -25.00   -12800.00
01682             -19.60   -12800.00
01683              25.00   -13600.00
01684             -25.00   -14400.00
01685              24.60   -15200.00
01686              -7.60   -15200.00
01687             -15.00   -16000.00
01688              25.00   -16000.00
01689             -25.00   -16800.00
01690              -5.40   -17600.00
01691              25.00   -17600.00
01692             -18.20   -18400.00
01693             -21.00   -18400.00
01694              25.00   -19200.00
01695             -11.00   -20000.00
01696             -17.80   -20000.00
01697              25.00   -20800.00
01698             -16.40   -21600.00
01699              -4.40   -22400.00
01700              19.20   -22400.00
01701             -18.00   -22400.00
01702               2.00   -23200.00
01703              12.20   -24000.00
01704             -12.40   -24000.00
01705               3.60   -24000.00
01706              10.80   -25600.00
01707             -14.80   -25600.00
01708               7.40   -25600.00
01709               5.40   -26400.00
01710             -11.00   -26400.00
01711               9.00   -26400.00
01712              -0.40   -27200.00
01713              -5.20   -28000.00
01714               5.80   -28000.00
01715               0.40   -28800.00
01716              -2.20   -28800.00
01717               4.60   -28800.00
01718               0.40   -28800.00
01719              -3.40   -29600.00
01720               4.40   -29600.00
01721              -1.80   -28800.00
01722              -2.00   -29600.00
01723               4.60   -30400.00
01724              -1.80   -30400.00
01725               0.40   -30400.00
01726               3.20   -31200.00
01727              -1.80   -31200.00
01728               1.20   -32000.00
01729               2.00   -32000.00
01730              -0.20   -32000.00
01731               1.20   -31200.00
01732               1.20   -32000.00
01733              -0.20   -32000.00
01734               1.20   -32000.00
01735               1.20   -32000.00
01736              -0.60   -32000.00
01737               0.60   -32000.00
01738               1.80   -32800.00
01739              -0.40   -32000.00
01740               1.40   -32800.00
01741               0.40   -32800.00
01742               0.40   -32800.00
01743               2.60   -32000.00
01744               0.00   -32800.00
01745               1.20   -32800.00
01746               1.80   -32000.00
01747              -0.20   -32000.00
01748               1.40   -32000.00
01749               0.40   -32000.00
01750              -0.60   -32000.00
01751               1.20   -32000.00
01752               1.20   -32000.00
01753               0.20   -32000.00
01754               1.00   -32000.00
01755               1.20   -32000.00
01756               0.60   -31200.00
01757               1.40   -31200.00
01758               1.00   -30400.00
01759              -0.20   -31200.00
01760               1.80   -30400.00
01761               0.40   -29600.00
01762              -0.20   -29600.00
01763               1.00   -29600.00
01764               0.60   -29600.00
01765               0.20   -28800.00
01766               1.00   -29600.00
01767               0.40   -28800.00
01768               0.40   -28000.00
01769               0.60   -28800.00
01770               1.00   -28000.00
01771               0.40   -27200.00
01772               1.00   -27200.00
01773               1.00   -27200.00
01774               0.40   -26400.00
01775               0.60   -26400.00
01776               0.40   -25600.00
01777              -0.20   -25600.00
01778               0.40   -24800.00
01779               0.20   -24800.00
01780               0.40   -24000.00
01781               0.40   -24000.00
01782               0.40   -24000.00
01783               0.60   -23200.00
01784               0.60   -23200.00
01785               0.40   -22400.00
01786               0.40   -21600.00
01787               0.20   -21600.00
01788               0.40   -20800.00
01789               0.40   -20000.00
01790               0.60   -20000.00
01791              -0.40   -20000.00
01792               0.20   -19200.00
01793               0.80   -18400.00
01794              -0.20   -17600.00
01795               0.40   -17600.00
01796               0.40   -16800.00
01797               0.20   -16000.00
01798               0.40   -16000.00
01799               0.40   -16000.00
01800               0.20   -14400.00
01801               0.40   -14400.00
01802               0.40   -13600.00
01803              -0.40   -13600.00
01804               0.60   -12800.00
01805               0.20   -12000.00
01806              -0.20   -11200.00
01807               1.40   -11200.00
01808              -0.20   -10400.00
01809               0.20    -9600.00
01810               1.00    -8800.00
01811              -0.40    -9600.00
01812               0.20    -8000.00
01813               0.40    -8000.00
01814              -0.60    -7200.00
01815               0.20    -6400.00
01816               0.20    -6400.00
01817              -0.20    -4800.00
01818               0.00    -4000.00
01819               0.00    -4000.00
01820               0.20    -3200.00
01821               0.60    -3200.00
01822              -0.20    -1600.00
01823               0.00     -800.00
01824               0.40     -800.00
01825              -0.40        0.00
01826              -0.20        0.00
01827               0.40      800.00
01828               2.20     1600.00
01829               1.00     2400.00
01830              -2.60     2400.00
01831               1.00     3200.00
01832               1.00     3200.00
01833              -2.20     4000.00
01834               2.80     4800.00
01835              13.20     5600.00
01836              25.00     7200.00
01837             -25.00     8000.00
01838             -25.00     8000.00
01839              25.00     8800.00
01840              -7.80     8800.00
01841             -25.00     8800.00
01842              25.00     9600.00
01843              25.00    10400.00
01844             -25.00    11200.00
01845              25.00    12000.00
01846              22.80    12000.00
01847             -25.00    12000.00
01848              25.00    12800.00
01849             -25.00    13600.00
01850              25.00    14400.00
01851              25.00    14400.00
01852             -25.00    15200.00
01853              25.00    16000.00
01854               0.60    16000.00
01855             -25.00    16800.00
01856              25.00    17600.00
01857              -1.40    18400.00
01858             -25.00    18400.00
01859              25.00    19200.00
01860              17.20    19200.00
01861             -25.00    19200.00
01862              25.00    20800.00
01863               0.60    21600.00
01864             -25.00    21600.00
01865              25.00    22400.00
01866             -25.00    22400.00
01867              -7.60    23200.00
01868              20.80    24000.00
01869             -15.40    24000.00
01870              -4.40    24000.00
01871              18.80    24800.00
01872             -16.80    25600.00
01873              -1.20    25600.00
01874              13.80    25600.00
01875             -18.80    26400.00
01876               9.00    26400.00
01877               3.00    27200.00
01878             -12.00    28000.00
01879               6.80    28000.00
01880              -1.40    28000.00
01881              -5.80    28800.00
01882               4.20    28000.00
01883               0.40    28800.00
01884              -6.00    28800.00
01885               1.20    28800.00
01886               0.40    29600.00
01887              -7.00    30400.00
01888               3.80    30400.00
01889              -0.40    30400.00
01890              -4.00    31200.00
01891               3.40    31200.00
01892              -4.20    31200.00
01893              -1.80    31200.00
01894               0.20    32000.00
01895              -3.60    32800.00
01896              -0.20    32000.00
01897              -0.40    32000.00
01898              -2.20    32000.00
01899              -1.60    32800.00
01900              -0.40    32800.00
01901              -1.60    32800.00
01902              -2.20    32800.00
01903               0.40    32800.00
01904              -2.60    32800.00
01905              -1.80    32800.00
01906               0.40    32800.00
01907              -3.80    32800.00
01908              -0.60    32800.00
01909              -1.00    32800.00
01910              -2.80    32800.00
01911               0.40    32000.00
01912              -2.40    32800.00
01913              -1.20    32000.00
01914              -0.40    32800.00
01915              -1.80    32800.00
01916              -2.00    32000.00
01917              -1.00    32000.00
01918              -1.20    32800.00
01919              -1.60    32000.00
01920              -0.80    32800.00
01921              -2.00    32000.00
01922              -1.60    32000.00
01923              -0.40    32000.00
01924              -2.80    31200.00
01925              -1.00    31200.00
01926              -0.60    30400.00
01927              -2.20    31200.00
01928              -0.20    30400.00
01929              -1.20    30400.00
01930              -2.00    30400.00
01931              -0.40    30400.00
01932              -1.20    29600.00
01933              -1.40    28800.00
01934              -1.20    28800.00
01935              -1.80    28800.00
01936              -1.60    28000.00
01937              -2.00    28800.00
01938              -1.80    28000.00
01939              -1.00    28000.00
01940              -1.40    27200.00
01941              -0.60    27200.00
01942              -0.60    27200.00
01943              -0.80    25600.00
01944              -1.60    25600.00
01945              -1.20    25600.00
01946              -0.60    24800.00
01947              -1.60    24800.00
01948              -1.40    24000.00
01949              -1.00    24000.00
01950              -1.80    24000.00
01951              -1.80    23200.00
01952              -1.20    22400.00
01953              -0.60    22400.00
01954              -1.40    21600.00
01955              -0.60    20800.00
01956              -0.40    20800.00
01957              -1.60    19200.00
01958              -1.40    19200.00
01959              -1.00    19200.00
01960              -0.60    18400.00
01961              -1.80    17600.00
01962              -1.40    17600.00
01963              -0.80    17600.00
01964              -2.20    16800.00
01965              -1.20    16000.00
01966              -1.00    16000.00
01967              -1.40    14400.00
01968              -0.80    14400.00
01969              -1.20    14400.00
01970              -1.00    12800.00
01971              -0.60    12800.00
01972              -1.40    12000.00
01973              -0.60    11200.00
01974              -0.40    11200.00
01975              -1.80    10400.00
01976              -1.20     9600.00
01977              -0.40     9600.00
01978              -1.20     8000.00
01979              -1.60     8000.00
01980              -0.80     7200.00
01981              -0.60     7200.00
01982              -1.20     6400.00
01983              -1.20     5600.00
01984              -0.40     4800.00
01985              -0.20     4800.00
01986              -0.40     3200.00
01987              -0.20     3200.00
01988              -0.60     2400.00
01989              -1.20     1600.00
01990              -0.60     1600.00
01991              -0.40      800.00
01992              -0.80        0.00
01993               0.40     -800.00
01994               1.80     -800.00
01995               3.00    -1600.00
01996              -2.00    -1600.00
01997               0.20    -3200.00
01998               1.40    -3200.00
01999              -0.40    -3200.00
02000              -0.60    -4800.00
02001               3.60    -4000.00
02002               9.00    -4800.00
02003              24.40    -7200.00
02004             -19.80    -8000.00
02005             -25.00    -8000.00
02006              20.40    -8000.00
02007               7.60    -9600.00
02008             -25.00    -9600.00
02009              -4.40    -9600.00
02010              25.00   -10400.00
02011               2.20   -11200.00
02012             -25.00   -10400.00
02013              25.00   -12000.00
02014             -11.00   -12800.00
02015             -25.00   -12800.00
02016              25.00   -13600.00
02017             -25.00   -13600.00
02018              12.20   -15200.00
02019               7.40   -15200.00
02020             -25.00   -16000.00
02021              25.00   -16000.00
02022             -15.80   -16800.00
02023             -16.20   -17600.00
02024              25.00   -17600.00
02025             -10.00   -17600.00
02026             -25.00   -19200.00
02027              25.00   -19200.00
02028               1.00   -20000.00
02029             -25.00   -20800.00
02030              25.00   -20800.00
02031              -7.60   -20800.00
02032             -14.60   -22400.00
02033              23.40   -22400.00
02034             -13.40   -23200.00
02035              -5.40   -23200.00
02036              16.20   -24000.00
02037              -8.60   -24000.00
02038              -3.80   -24000.00
02039              14.80   -24000.00
02040             -11.40   -25600.00
02041               2.00   -25600.00
02042               9.00   -26400.00
02043             -11.80   -26400.00
02044               7.00   -26400.00
02045               1.00   -27200.00
02046              -6.80   -27200.00
02047               5.80   -28000.00
02048               2.00   -28000.00
02049              -3.40   -28800.00
02050               4.60   -28800.00
02051               2.40   -28800.00
02052              -4.40   -28800.00
02053               4.20   -29600.00
02054              -0.20   -29600.00
02055              -3.20   -30400.00
02056               5.00   -30400.00
02057              -0.40   -30400.00
02058              -1.40   -31200.00
02059               3.60   -30400.00
02060              -1.20   -31200.00
02061               0.40   -30400.00
02062               1.80   -32000.00
02063              -0.60   -32000.00
02064               1.40   -32000.00
02065               2.00   -32000.00
02066               0.20   -32000.00
02067               1.00   -32000.00
02068               2.00   -32000.00
02069              -1.00   -32000.00
02070               0.20   -32000.00
02071               2.00   -32000.00
02072              -0.60   -32000.00
02073               1.40   -32000.00
02074               1.40   -32800.00
02075              -0.40   -32800.00
02076               2.20   -32800.00
02077               1.00   -32000.00
02078               0.40   -32000.00
02079               1.80   -32800.00
02080               0.40   -32000.00
02081               1.00   -32000.00
02082               1.00   -32000.00
02083              -0.20   -32000.00
02084               1.00   -32000.00
02085               1.80   -32000.00
02086               0.60   -32000.00
02087               0.40   -32000.00
02088               1.40   -32000.00
02089               0.20   -31200.00
02090               0.40   -31200.00
02091               1.00   -30400.00
02092               0.20   -30400.00
02093               1.20   -30400.00
02094               0.20   -30400.00
02095               1.00   -29600.00
02096               1.40   -29600.00
02097              -0.60   -29600.00
02098               1.40   -28800.00
02099               1.00   -28800.00
02100              -0.40   -28800.00
02101               1.20   -28800.00
02102               0.40   -28800.00
02103               0.60   -27200.00
02104               0.60   -27200.00
02105               0.40   -27200.00
02106               0.60   -27200.00
02107               0.20   -27200.00
02108              -0.20   -26400.00
02109               1.00   -25600.00
02110              -0.40   -25600.00
02111               1.00   -25600.00
02112               1.20   -24800.00
02113               0.20   -24000.00
02114               1.00   -24000.00
02115               0.80   -24000.00
02116              -0.40   -24000.00
02117               0.60   -22400.00
02118               1.00   -22400.00
02119               0.00   -21600.00
02120               0.40   -20800.00
02121               0.20   -20800.00
02122               0.40   -20800.00
02123               0.20   -20000.00
02124              -0.60   -20000.00
02125               0.40   -18400.00
02126               0.60   -19200.00
02127               0.00   -17600.00
02128               1.40   -16800.00
02129               1.00   -16800.00
02130               0.40   -16000.00
02131               1.00   -16000.00
02132              -0.40   -16000.00
02133              -0.20   -14400.00
02134               0.20   -14400.00
02135              -0.60   -13600.00
02136               0.60   -13600.00
02137               0.60   -12800.00
02138              -0.60   -12000.00
02139               0.40   -11200.00
02140               1.00   -11200.00
02141              -0.40   -10400.00
02142               0.00   -10400.00
02143               1.00    -9600.00
02144               0.40    -8800.00
02145              -0.20    -8000.00
02146               0.40    -8000.00
02147               1.00    -6400.00
02148               0.00    -6400.00
02149              -0.60    -5600.00
02150              -0.20    -4800.00
02151              -0.40    -4000.00
02152              -1.20    -4000.00
02153              -0.20    -3200.00
02154               0.60    -3200.00
02155               0.20    -2400.00
02156              -0.20    -1600.00
02157               0.20     -800.00
02158               1.00     -800.00
02159              -0.60        0.00
02160              -0.20      800.00
02161               2.60     1600.00
02162               1.20     1600.00
02163              -3.20     2400.00
02164               1.80     3200.00
02165               0.60     3200.00
02166              -2.00     4000.00
02167               2.00     4800.00
02168               8.60     5600.00
02169              25.00     7200.00
02170             -24.40     7200.00
02171             -25.00     8000.00
02172              25.00     8800.00
02173               3.40     8800.00
02174             -25.00     8800.00
02175              25.00     9600.00
02176              25.00    10400.00
02177             -25.00    11200.00
02178              25.00    11200.00
02179              25.00    12000.00
02180             -25.00    12000.00
02181              25.00    12800.00
02182             -25.00    14400.00
02183              -8.80    14400.00
02184              25.00    14400.00
02185             -25.00    15200.00
02186              25.00    16000.00
02187              25.00    16000.00
02188             -25.00    16000.00
02189              25.00    17600.00
02190              16.60    18400.00
02191             -25.00    18400.00
02192              14.80    18400.00
02193              25.00    19200.00
02194             -25.00    20000.00
02195              25.00    20800.00
02196              19.60    21600.00
02197             -25.00    21600.00
02198              25.00    22400.00
02199             -14.40    22400.00
02200             -18.20    22400.00
02201              23.40    24000.00
02202             -11.00    24000.00
02203             -10.40    24000.00
02204              20.80    24800.00
02205             -11.20    25600.00
02206              -8.60    25600.00
02207              18.20    25600.00
02208             -17.20    26400.00
02209               2.60    26400.00
02210               8.40    27200.00
02211             -12.60    28000.00
02212               3.80    27200.00
02213               1.80    27200.00
02214              -6.80    28800.00
02215               1.40    28800.00
02216               2.00    28800.00
02217              -5.80    29600.00
02218              -0.40    28800.00
02219               2.00    28800.00
02220              -7.00    30400.00
02221               2.00    31200.00
02222               1.20    30400.00
02223              -4.60    31200.00
02224               3.40    31200.00
02225              -2.60    31200.00
02226              -3.00    31200.00
02227               1.00    31200.00
02228              -4.20    32800.00
02229              -1.20    31200.00
02230               0.20    32800.00
02231              -2.20    32000.00
02232              -2.00    32800.00
02233              -0.20    32800.00
02234              -1.20    32000.00
02235              -2.20    32800.00
02236               0.40    32800.00
02237              -2.20    32000.00
02238              -1.80    33600.00
02239               0.40    32800.00
02240              -3.40    32800.00
02241              -0.80    32800.00
02242              -0.60    32800.00
02243              -3.00    33600.00
02244               0.20    32800.00
02245              -2.60    32800.00
02246              -2.00    32000.00
02247               0.20    32800.00
02248              -1.40    32000.00
02249              -1.40    32800.00
02250              -0.60    32800.00
02251              -0.60    32800.00
02252              -1.60    32000.00
02253              -1.00    32000.00
02254              -1.80    32800.00
02255              -1.40    32000.00
02256              -0.60    31200.00
02257              -2.60    31200.00
02258              -1.00    31200.00
02259              -0.60    31200.00
02260              -2.80    30400.00
02261               0.00    30400.00
02262              -1.20    30400.00
02263              -2.20    30400.00
02264               0.40    30400.00
02265              -1.40    29600.00
02266              -1.80    28800.00
02267              -0.40    28800.00
02268              -1.80    28800.00
02269              -1.40    28800.00
02270              -1.40    28000.00
02271              -1.80    28000.00
02272              -1.00    27200.00
02273              -1.20    27200.00
02274              -1.80    26400.00
02275              -1.00    26400.00
02276              -1.00    25600.00
02277              -2.00    25600.00
02278              -0.60    24800.00
02279              -0.40    25600.00
02280              -2.00    24800.00
02281              -0.60    24000.00
02282              -1.20    24000.00
02283              -2.20    24000.00
02284              -0.80    23200.00
02285              -1.80    22400.00
02286              -1.60    22400.00
02287              -1.00    21600.00
02288              -1.20    21600.00
02289              -1.00    20800.00
02290              -1.40    20000.00
02291              -1.00    19200.00
02292              -1.40    19200.00
02293              -1.20    18400.00
02294              -1.00    18400.00
02295              -1.80    17600.00
02296              -1.00    16800.00
02297              -1.20    16800.00
02298              -1.20    16000.00
02299              -0.60    15200.00
02300              -1.40    14400.00
02301              -1.00    14400.00
02302              -0.60    14400.00
02303              -1.00    12800.00
02304              -1.40    12800.00
02305              -1.00    12000.00
02306              -1.00    12000.00
02307              -0.60    11200.00
02308              -1.80    10400.00
02309              -0.60    10400.00
02310              -1.00     9600.00
02311              -0.60     8800.00
02312              -1.00     8000.00
02313              -0.40     8000.00
02314              -0.60     7200.00
02315              -0.60     6400.00
02316              -0.60     5600.00
02317              -0.40     5600.00
02318              -1.00     4800.00
02319              -0.60     3200.00
02320              -0.80     3200.00
02321              -0.60     2400.00
02322              -0.80     2400.00
02323              -0.60     1600.00
02324              -0.60      800.00
02325               0.20      800.00
02326              -0.40        0.00
02327               1.00     -800.00
02328               3.80    -1600.00
02329              -2.00    -1600.00
02330               0.20    -1600.00
02331               3.00    -2400.00
02332              -0.60    -3200.00
02333              -1.20    -4000.00
02334               3.40    -4800.00
02335               6.80    -4800.00
02336              23.40    -6400.00
02337              -8.60    -8000.00
02338             -25.00    -8000.00
02339              12.60    -8000.00
02340              16.20    -8800.00
02341             -25.00    -9600.00
02342             -12.60    -9600.00
02343              25.00   -10400.00
02344              23.40   -11200.00
02345             -25.00   -10400.00
02346              25.00   -12000.00
02347              14.60   -12000.00
02348             -25.00   -12800.00
02349              25.00   -13600.00
02350             -21.80   -13600.00
02351              -2.40   -14400.00
02352              19.60   -15200.00
02353             -25.00   -16000.00
02354              25.00   -16000.00
02355              -3.40   -16800.00
02356             -25.00   -17600.00
02357              25.00   -17600.00
02358               2.20   -18400.00
02359             -25.00   -19200.00
02360              18.00   -19200.00
02361              14.80   -19200.00
02362             -25.00   -20000.00
02363              25.00   -20800.00
02364               4.40   -21600.00
02365             -21.80   -22400.00
02366              22.60   -22400.00
02367              -7.60   -22400.00
02368             -11.00   -23200.00
02369              16.20   -23200.00
02370              -4.20   -24000.00
02371              -8.00   -24000.00
02372              17.00   -24800.00
02373              -9.40   -24800.00
02374              -4.00   -25600.00
02375              14.00   -26400.00
02376             -11.60   -26400.00
02377               3.40   -26400.00
02378               6.20   -27200.00
02379              -7.20   -27200.00
02380               3.00   -27200.00
02381               3.40   -27200.00
02382              -3.60   -28000.00
02383               2.80   -28800.00
02384               3.00   -28800.00
02385              -3.80   -28800.00
02386               3.00   -29600.00
02387               1.80   -29600.00
02388              -3.40   -29600.00
02389               4.00   -29600.00
02390               1.20   -30400.00
02391              -1.80   -30400.00
02392               3.40   -30400.00
02393              -0.60   -31200.00
02394              -0.60   -32000.00
02395               2.20   -31200.00
02396              -0.20   -32000.00
02397               1.00   -32000.00
02398               1.60   -32000.00
02399              -0.20   -32000.00
02400               0.60   -32000.00
02401               2.00   -32000.00
02402              -0.40   -32000.00
02403               0.20   -32000.00
02404               2.60   -32800.00
02405              -0.20   -32000.00
02406               0.60   -32800.00
02407               2.00   -32800.00
02408               0.20   -32000.00
02409               2.60   -32800.00
02410              -2.80   -32800.00
02411               3.20   -32800.00
02412               0.20   -32000.00
02413              -5.20   -32000.00
02414               6.80   -32000.00
02415              -0.40   -32000.00
02416               4.60   -32000.00
02417              -0.60   -32000.00
02418               0.20   -32000.00
02419               1.40   -32000.00
02420              -5.00   -32000.00
02421               2.00   -30400.00
02422               0.20   -31200.00
02423               4.20   -31200.00
02424               2.60   -31200.00
02425              -1.40   -30400.00
02426               3.60   -30400.00
02427              -1.80   -30400.00
02428               2.60   -30400.00
02429              -0.80   -29600.00
02430              -3.40   -29600.00
02431               2.80   -29600.00
02432               1.00   -28800.00
02433              -2.60   -28800.00
02434               3.40   -28800.00
02435               4.40   -28800.00
02436              -0.40   -28000.00
02437               1.60   -28000.00
02438              -0.60   -27200.00
02439              -2.40   -27200.00
02440               2.00   -26400.00
02441              -2.00   -26400.00
02442               0.40   -25600.00
02443               4.40   -25600.00
02444               0.40   -25600.00
02445               0.20   -24800.00
02446               2.00   -24000.00
02447              -0.40   -24000.00
02448              -1.20   -24000.00
02449               0.00   -23200.00
02450               0.20   -23200.00
02451               1.00   -22400.00
02452               1.80   -22400.00
02453               1.20   -21600.00
02454               2.20   -20800.00
02455               0.40   -20000.00
02456              -1.00   -20000.00
02457               0.20   -20000.00
02458              -1.20   -19200.00
02459              -1.20   -18400.00
02460               1.20   -17600.00
02461               1.20   -17600.00
02462               0.80   -17600.00
02463               2.40   -16000.00
02464               1.20   -16000.00
02465              -0.40   -16000.00
02466               0.20   -15200.00
02467              -0.40   -14400.00
02468              -1.20   -14400.00
02469               0.80   -13600.00
02470               0.00   -12800.00
02471               0.20   -12000.00
02472               1.20   -11200.00
02473               0.40   -11200.00
02474              -0.20   -10400.00
02475               0.40    -9600.00
02476              -0.60    -9600.00
02477               0.20    -9600.00
02478               0.40    -8000.00
02479              -0.40    -7200.00
02480               0.60    -6400.00
02481               0.80    -6400.00
02482              -0.40    -6400.00
02483               0.40    -4800.00
02484              -0.60    -4800.00
02485              -1.20    -4000.00
02486              -0.20    -3200.00
02487              -0.60    -3200.00
02488               0.00    -1600.00
02489               0.40    -1600.00
02490              -0.40     -800.00
02491               0.20     -800.00
02492               0.40        0.00
02493              -0.20     1600.00
02494               1.40     1600.00
02495               3.20     1600.00
02496              -3.20     2400.00
02497              -0.40     3200.00
02498               2.00     4000.00
02499              -1.40     3200.00
02500               0.60     4800.00
02501               9.00     4800.00
02502              25.00     7200.00
02503             -11.40     7200.00
02504             -25.00     8000.00
02505              19.60     8800.00
02506              11.40     8800.00
02507             -25.00     8800.00
02508               7.60     9600.00
02509              25.00    10400.00
02510             -25.00    10400.00
02511               6.80    11200.00
02512              25.00    12000.00
02513             -25.00    12800.00
02514              25.00    12800.00
02515               1.40    13600.00
02516             -25.00    13600.00
02517              25.00    15200.00
02518             -25.00    15200.00
02519              25.00    16000.00
02520              25.00    16000.00
02521             -25.00    17600.00
02522              25.00    17600.00
02523              25.00    17600.00
02524             -25.00    18400.00
02525               1.00    19200.00
02526              25.00    19200.00
02527             -25.00    19200.00
02528              10.60    20800.00
02529              25.00    21600.00
02530             -25.00    21600.00
02531              25.00    22400.00
02532              -0.60    22400.00
02533             -25.00    22400.00
02534              22.20    24000.00
02535              -5.20    24000.00
02536             -14.80    24000.00
02537              18.60    25600.00
02538              -4.40    24800.00
02539             -15.00    25600.00
02540              18.80    25600.00
02541             -12.40    26400.00
02542              -3.60    26400.00
02543              12.40    27200.00
02544             -12.40    27200.00
02545               1.40    27200.00
02546               3.80    28000.00
02547              -6.60    28000.00
02548               0.40    28000.00
02549               2.60    28800.00
02550              -5.40    28800.00
02551              -2.20    28800.00
02552               2.40    29600.00
02553              -5.40    29600.00
02554               0.40    30400.00
02555               2.20    30400.00
02556              -4.60    30400.00
02557               2.80    31200.00
02558              -2.00    30400.00
02559              -3.60    31200.00
02560               1.40    31200.00
02561              -3.80    31200.00
02562              -0.80    32000.00
02563              -0.40    32800.00
02564              -1.80    32000.00
02565              -2.20    32000.00
02566              -1.20    32800.00
02567              -0.80    32800.00
02568              -2.80    32800.00
02569               0.00    32800.00
02570              -0.60    32000.00
02571              -2.60    33600.00
02572               1.00    33600.00
02573              -2.60    32800.00
02574              -1.40    32800.00
02575               0.00    32800.00
02576              -3.00    33600.00
02577              -0.20    32800.00
02578              -1.60    32000.00
02579              -2.60    32800.00
02580              -0.20    32800.00
02581              -1.20    32000.00
02582              -1.80    32800.00
02583              -0.80    32800.00
02584              -2.00    32000.00
02585              -0.40    32000.00
02586              -1.80    32000.00
02587              -1.80    32800.00
02588              -1.00    32000.00
02589               0.00    31200.00
02590              -2.80    31200.00
02591              -1.00    31200.00
02592               0.20    31200.00
02593              -3.40    30400.00
02594              -0.40    30400.00
02595              -0.20    30400.00
02596              -3.40    30400.00
02597              -0.20    30400.00
02598              -0.40    28800.00
02599              -3.00    29600.00
02600              -0.40    28800.00
02601              -1.00    28800.00
02602              -2.80    28800.00
02603              -0.60    28000.00
02604              -0.40    28000.00
02605              -2.20    27200.00
02606              -0.60    27200.00
02607              -0.60    27200.00
02608              -2.20    26400.00
02609               0.20    25600.00
02610              -2.00    25600.00
02611              -1.80    25600.00
02612              -0.20    24800.00
02613              -2.20    24800.00
02614              -1.40    24000.00
02615              -1.00    24000.00
02616              -2.20    23200.00
02617              -1.20    23200.00
02618              -1.20    22400.00
02619              -1.40    21600.00
02620              -1.00    21600.00
02621              -1.00    21600.00
02622              -1.00    20800.00
02623              -1.20    20000.00
02624              -0.80    19200.00
02625              -1.20    19200.00
02626              -1.00    18400.00
02627              -1.20    18400.00
02628              -2.20    17600.00
02629              -1.40    17600.00
02630              -1.20    16000.00
02631              -1.80    16000.00
02632              -0.60    15200.00
02633              -1.20    15200.00
02634              -1.20    14400.00
02635              -0.40    14400.00
02636              -1.00    13600.00
02637              -1.40    12800.00
02638              -0.20    12000.00
02639              -1.20    12000.00
02640              -1.40    11200.00
02641              -1.00    10400.00
02642              -1.20     9600.00
02643              -1.80     9600.00
02644              -0.40     8800.00
02645              -1.40     8000.00
02646              -1.20     8000.00
02647               0.20     7200.00
02648              -1.00     6400.00
02649              -0.60     5600.00
02650               0.20     5600.00
02651              -0.60     4800.00
02652              -0.20     4000.00
02653              -0.40     3200.00
02654              -0.60     2400.00
02655              -0.60     2400.00
02656              -1.20     1600.00
02657              -1.40     1600.00
02658              -0.20        0.00
02659              -0.40        0.00
02660              -0.20     -800.00
02661               4.20    -1600.00
02662              -1.00    -1600.00
02663              -1.20    -1600.00
02664               2.80    -3200.00
02665               0.20    -3200.00
02666              -1.40    -4000.00
02667               2.80    -4800.00
02668               6.00    -5600.00
02669              21.00    -6400.00
02670               2.20    -7200.00
02671             -25.00    -8000.00
02672               3.40    -8800.00
02673              21.80    -8800.00
02674             -25.00    -9600.00
02675             -20.60    -9600.00
02676              25.00    -9600.00
02677              25.00   -11200.00
02678             -25.00   -11200.00
02679              25.00   -11200.00
02680              25.00   -12800.00
02681             -25.00   -12000.00
02682              25.00   -13600.00
02683              -4.20   -13600.00
02684             -17.20   -14400.00
02685              25.00   -15200.00
02686             -25.00   -16000.00
02687              25.00   -16800.00
02688               9.00   -16000.00
02689             -25.00   -16800.00
02690              25.00   -17600.00
02691              11.80   -18400.00
02692             -25.00   -19200.00
02693               9.00   -19200.00
02694              23.60   -20000.00
02695             -25.00   -20000.00
02696              18.60   -20800.00
02697              14.40   -20800.00
02698             -25.00   -22400.00
02699              20.00   -22400.00
02700              -1.60   -22400.00
02701             -15.00   -23200.00
02702              15.40   -23200.00
02703              -0.40   -23200.00
02704             -10.40   -24000.00
02705              15.00   -24800.00
02706              -4.60   -24800.00
02707              -7.60   -25600.00
02708              14.00   -25600.00
02709              -8.20   -26400.00
02710              -0.60   -26400.00
02711               7.80   -26400.00
02712              -6.00   -26400.00
02713               1.40   -27200.00
02714               4.80   -27200.00
02715              -3.40   -28800.00
02716               1.80   -28800.00
02717               4.40   -28800.00
02718              -4.20   -29600.00
02719               1.60   -29600.00
02720               3.60   -29600.00
02721              -4.20   -29600.00
02722               3.00   -29600.00
02723               2.80   -30400.00
02724              -3.00   -30400.00
02725               3.80   -30400.00
02726               0.20   -31200.00
02727              -1.20   -31200.00
02728               3.00   -32000.00
02729               0.40   -32000.00
02730               0.60   -32000.00
02731               1.80   -32000.00
02732               0.20   -32000.00
02733               0.40   -32000.00
02734               2.00   -32000.00
02735              -0.40   -32000.00
02736              -0.40   -32000.00
02737               2.00   -32000.00
02738               0.20   -32000.00
02739               0.20   -32800.00
02740               1.80   -32800.00
02741               0.20   -32800.00
02742               1.40   -32800.00
02743               1.80   -32800.00
02744              -0.40   -32000.00
02745               1.80   -32800.00
02746               0.80   -32000.00
02747              -0.20   -32800.00
02748               1.20   -32000.00
02749               0.40   -32800.00
02750              -0.60   -32000.00
02751               0.80   -32000.00
02752               1.20   -32000.00
02753              -0.80   -32000.00
02754               1.00   -32000.00
02755               1.80   -30400.00
02756               0.40   -31200.00
02757               1.00   -31200.00
02758               0.60   -30400.00
02759               1.00   -30400.00
02760               1.20   -29600.00
02761               0.20   -30400.00
02762               0.40   -29600.00
02763               1.20   -29600.00
02764               0.20   -28800.00
02765               0.20   -28800.00
02766               1.00   -28800.00
02767               0.40   -28800.00
02768               0.40   -28000.00
02769               1.20   -28000.00
02770               0.40   -27200.00
02771               1.00   -27200.00
02772               1.20   -27200.00
02773               0.20   -27200.00
02774               0.40   -26400.00
02775               1.40   -26400.00
02776               0.00   -25600.00
02777               0.40   -25600.00
02778               1.00   -24800.00
02779               0.20   -24000.00
02780               0.40   -24000.00
02781               1.00   -24000.00
02782               0.20   -24000.00
02783               1.00   -23200.00
02784               0.60   -22400.00
02785               0.20   -22400.00
02786               0.40   -21600.00
02787               0.80   -20800.00
02788               0.20   -20000.00
02789               0.60   -20000.00
02790               0.40   -19200.00
02791              -0.20   -18400.00
02792               0.80   -18400.00
02793               0.40   -17600.00
02794               0.20   -17600.00
02795               0.40   -16800.00
02796               0.20   -16000.00
02797               1.00   -16000.00
02798               0.40   -16000.00
02799               0.20   -15200.00
02800               1.00   -14400.00
02801               0.20   -13600.00
02802               0.20   -13600.00
02803               0.40   -12800.00
02804              -0.20   -12000.00
02805               0.20   -11200.00
02806               0.40   -11200.00
02807               0.20   -10400.00
02808              -0.20   -10400.00
02809              -0.20    -9600.00
02810               0.40    -8800.00
02811              -0.20    -8800.00
02812              -0.20    -8000.00
02813               0.00    -7200.00
02814              -0.40    -6400.00
02815              -0.20    -6400.00
02816              -0.20    -5600.00
02817              -0.20    -4800.00
02818               0.00    -4000.00
02819              -0.40    -3200.00
02820              -0.20    -3200.00
02821               0.20    -1600.00
02822              -0.20     -800.00
02823              -0.20     -800.00
02824               0.20     -800.00
02825              -0.20        0.00
02826               0.20      800.00
02827               1.00     1600.00
02828               2.80     1600.00
02829              -2.40     2400.00
02830               0.00     2400.00
02831               1.20     3200.00
02832              -1.00     4000.00
02833              -0.40     4000.00
02834               7.00     5600.00
02835              25.00     7200.00
02836               2.80     7200.00
02837             -25.00     8000.00
02838              10.00     8800.00
02839              20.20     8800.00
02840             -25.00     8800.00
02841             -11.60     9600.00
02842              25.00    10400.00
02843             -25.00    11200.00
02844             -25.00    11200.00
02845              25.00    12000.00
02846             -25.00    12000.00
02847              25.00    12800.00
02848              25.00    12800.00
02849             -25.00    14400.00
02850              25.00    14400.00
02851             -25.00    15200.00
02852              -9.20    15200.00
02853              25.00    16000.00
02854             -25.00    16800.00
02855              17.00    17600.00
02856              25.00    17600.00
02857             -25.00    18400.00
02858             -13.40    19200.00
02859              25.00    19200.00
02860             -25.00    20000.00
02861              -9.20    20800.00
02862              25.00    21600.00
02863             -25.00    21600.00
02864              17.40    22400.00
02865              13.00    22400.00
02866             -25.00    22400.00
02867              18.80    24000.00
02868               2.60    24000.00
02869             -18.80    24000.00
02870              14.60    24800.00
02871               3.60    24800.00
02872             -20.60    24800.00
02873              16.80    25600.00
02874              -6.00    25600.00
02875             -10.20    26400.00
02876              14.00    27200.00
02877              -9.40    27200.00
02878              -2.20    28000.00
02879               5.20    27200.00
02880              -5.40    28000.00
02881              -1.40    28800.00
02882               3.60    28800.00
02883              -3.80    28800.00
02884              -3.80    28800.00
02885               2.80    29600.00
02886              -5.00    30400.00
02887              -2.20    30400.00
02888               3.60    30400.00
02889              -5.20    31200.00
02890               0.60    30400.00
02891               0.60    31200.00
02892              -4.60    31200.00
02893               1.00    31200.00
02894              -2.20    31200.00
02895              -2.60    32000.00
02896               0.60    31200.00
02897              -1.80    32800.00
02898              -2.20    32800.00
02899              -0.80    32000.00
02900              -0.20    32800.00
02901              -2.40    32800.00
02902              -1.00    32800.00
02903              -0.60    32800.00
02904              -3.00    32800.00
02905               1.00    32000.00
02906              -2.20    33600.00
02907              -2.60    32000.00
02908               0.80    33600.00
02909              -2.80    33600.00
02910              -0.40    32800.00
02911              -0.60    32800.00
02912              -2.60    32800.00
02913              -0.60    32800.00
02914              -1.40    32800.00
02915              -1.20    32000.00
02916              -1.20    32800.00
02917              -1.00    32800.00
02918              -0.60    32000.00
02919              -1.60    32000.00
02920              -1.40    32000.00
02921              -2.00    32000.00
02922              -1.00    32000.00
02923              -1.80    31200.00
02924              -2.00    31200.00
02925              -0.20    31200.00
02926              -1.80    30400.00
02927              -1.00    30400.00
02928              -0.80    31200.00
02929              -2.00    30400.00
02930              -0.60    30400.00
02931              -1.20    29600.00
02932              -1.80    28800.00
02933              -1.00    28800.00
02934              -2.00    28800.00
02935              -1.80    28800.00
02936              -1.40    28000.00
02937              -2.00    28000.00
02938              -1.80    28000.00
02939              -1.00    27200.00
02940              -1.20    27200.00
02941              -1.00    26400.00
02942              -0.60    26400.00
02943              -1.20    25600.00
02944              -1.40    25600.00
02945              -0.60    24800.00
02946              -1.40    24800.00
02947              -1.60    24000.00
02948              -1.00    24000.00
02949              -2.20    24000.00
02950              -1.80    24000.00
02951              -1.40    22400.00
02952              -1.40    22400.00
02953              -1.20    21600.00
02954              -1.20    21600.00
02955              -0.60    20800.00
02956              -1.40    20800.00
02957              -1.00    20000.00
02958              -0.60    19200.00
02959              -1.20    18400.00
02960              -0.80    17600.00
02961              -1.40    17600.00
02962              -1.20    16800.00
02963              -0.80    16800.00
02964              -2.00    16000.00
02965              -1.40    16000.00
02966              -1.20    15200.00
02967              -1.20    14400.00
02968              -0.60    14400.00
02969              -0.20    13600.00
02970              -1.00    12800.00
02971              -1.20    12000.00
02972              -0.60    12000.00
02973              -0.40    11200.00
02974              -1.20    11200.00
02975              -1.00     9600.00
02976              -1.00     9600.00
02977              -0.60     8800.00
02978              -1.80     8800.00
02979              -1.20     8000.00
02980               0.20     7200.00
02981              -1.40     6400.00
02982              -1.00     5600.00
02983               0.20     4800.00
02984              -1.00     4800.00
02985              -1.00     3200.00
02986              -0.20     3200.00
02987              -0.20     3200.00
02988              -1.00     2400.00
02989              -0.60     1600.00
02990              -0.60     1600.00
02991              -0.40        0.00
02992              -0.60        0.00
02993               0.20     -800.00
02994               3.60     -800.00
02995               0.20    -1600.00
02996              -1.40    -2400.00
02997               2.00    -3200.00
02998               0.00    -3200.00
02999              -1.20    -3200.00
03000               1.20    -4000.00
03001               4.80    -4800.00
03002              19.00    -6400.00
03003              12.20    -7200.00
03004             -25.00    -8000.00
03005              -6.00    -8000.00
03006              25.00    -8800.00
03007             -19.80    -9600.00
03008             -25.00    -9600.00
03009              25.00    -9600.00
03010              25.00   -11200.00
03011             -25.00   -10400.00
03012               9.80   -12000.00
03013              25.00   -12800.00
03014             -25.00   -12800.00
03015              25.00   -12800.00
03016              15.40   -14400.00
03017             -25.00   -14400.00
03018              25.00   -14400.00
03019             -25.00   -15200.00
03020              14.60   -16000.00
03021              20.60   -16000.00
03022             -25.00   -16800.00
03023              18.00   -17600.00
03024              21.20   -17600.00
03025             -25.00   -18400.00
03026              -1.80   -18400.00
03027              25.00   -20000.00
03028             -25.00   -19200.00
03029               6.60   -20000.00
03030              23.40   -20800.00
03031             -25.00   -21600.00
03032              13.20   -22400.00
03033               6.80   -22400.00
03034             -18.00   -22400.00
03035              11.40   -23200.00
03036               5.20   -24000.00
03037             -12.60   -24800.00
03038              12.60   -24000.00
03039               1.20   -24800.00
03040             -11.60   -25600.00
03041              13.60   -25600.00
03042              -4.60   -26400.00
03043              -4.60   -26400.00
03044               9.20   -27200.00
03045              -5.40   -27200.00
03046              -0.60   -27200.00
03047               6.00   -27200.00
03048              -2.80   -28800.00
03049               1.00   -28800.00
03050               5.00   -28800.00
03051              -2.80   -29600.00
03052               0.40   -28800.00
03053               4.00   -29600.00
03054              -3.20   -29600.00
03055               1.80   -29600.00
03056               3.40   -30400.00
03057              -3.40   -30400.00
03058               2.60   -29600.00
03059               1.00   -30400.00
03060              -1.40   -30400.00
03061               2.20   -31200.00
03062               0.60   -32000.00
03063               0.40   -32000.00
03064               2.00   -32000.00
03065               0.20   -32000.00
03066               0.20   -32000.00
03067               2.00   -32000.00
03068               0.40   -32000.00
03069              -1.00   -32800.00
03070               1.40   -32000.00
03071               0.60   -32000.00
03072              -0.40   -32800.00
03073               1.40   -32800.00
03074              -0.20   -32800.00
03075               1.00   -32000.00
03076               1.80   -32000.00
03077              -0.20   -32800.00
03078               1.20   -32000.00
03079               1.00   -32800.00
03080               0.40   -32800.00
03081               1.00   -32000.00
03082               0.40   -32000.00
03083               0.40   -32000.00
03084               0.60   -32000.00
03085               0.80   -32000.00
03086              -0.20   -32000.00
03087               0.40   -32000.00
03088               1.20   -31200.00
03089               0.60   -32000.00
03090               1.00   -30400.00
03091               1.00   -30400.00
03092               0.60   -30400.00
03093               1.80   -29600.00
03094               0.40   -29600.00
03095               0.40   -30400.00
03096               1.20   -29600.00
03097               0.40   -29600.00
03098               0.20   -28800.00
03099               1.00   -28800.00
03100               0.40   -28800.00
03101               0.40   -28800.00
03102               1.00   -28800.00
03103               0.40   -28800.00
03104               0.40   -27200.00
03105               1.20   -27200.00
03106               0.20   -26400.00
03107               0.20   -26400.00
03108               1.20   -26400.00
03109               0.20   -25600.00
03110               0.40   -25600.00
03111               1.00   -25600.00
03112               0.40   -24000.00
03113               1.00   -24000.00
03114               0.40   -24000.00
03115               0.60   -24000.00
03116               1.00   -23200.00
03117               0.60   -22400.00
03118               0.40   -22400.00
03119               0.40   -22400.00
03120               0.40   -21600.00
03121               0.00   -20000.00
03122               0.60   -20000.00
03123               0.40   -20000.00
03124              -0.60   -18400.00
03125               1.00   -18400.00
03126               0.60   -17600.00
03127               0.20   -17600.00
03128               1.20   -17600.00
03129               0.40   -16800.00
03130               0.40   -16000.00
03131               0.40   -16000.00
03132              -0.20   -15200.00
03133               0.40   -14400.00
03134              -0.20   -14400.00
03135              -0.20   -13600.00
03136               0.20   -12800.00
03137              -0.40   -12800.00
03138               0.00   -11200.00
03139               0.40   -11200.00
03140              -0.20   -11200.00
03141               0.20   -10400.00
03142               0.20    -9600.00
03143              -0.20    -8800.00
03144               0.40    -8000.00
03145               0.20    -8000.00
03146              -0.20    -7200.00
03147               0.40    -6400.00
03148              -0.20    -6400.00
03149              -0.60    -4800.00
03150              -0.40    -4000.00
03151              -0.60    -4000.00
03152              -0.60    -3200.00
03153              -0.20    -2400.00
03154              -0.40    -2400.00
03155              -0.20    -1600.00
03156               0.40    -1600.00
03157               0.20     -800.00
03158               0.20        0.00
03159               1.00        0.00
03160               0.60     1600.00
03161               3.00     1600.00
03162              -1.40     2400.00
03163              -1.00     2400.00
03164               1.20     3200.00
03165              -0.60     3200.00
03166              -1.20     4000.00
03167               5.80     4800.00
03168              21.20     6400.00
03169              14.60     7200.00
03170             -25.00     8000.00
03171              -1.20     8000.00
03172              25.00     8800.00
03173             -25.00     8800.00
03174             -25.00     8800.00
03175              25.00     9600.00
03176             -13.40    10400.00
03177             -25.00    12000.00
03178              25.00    12000.00
03179             -25.00    12000.00
03180              -8.60    12800.00
03181              25.00    12800.00
03182             -25.00    13600.00
03183              25.00    14400.00
03184             -23.60    15200.00
03185             -25.00    15200.00
03186              25.00    16000.00
03187             -25.00    16800.00
03188              -6.00    17600.00
03189              25.00    17600.00
03190             -25.00    18400.00
03191             -25.00    19200.00
03192              25.00    19200.00
03193             -19.60    20000.00
03194             -25.00    19200.00
03195              25.00    20800.00
03196             -25.00    21600.00
03197               2.80    21600.00
03198              25.00    21600.00
03199             -25.00    22400.00
03200              12.60    23200.00
03201               9.80    24000.00
03202             -20.20    24000.00
03203               9.80    24800.00
03204              10.60    24800.00
03205             -22.20    24800.00
03206              13.00    25600.00
03207               1.20    25600.00
03208             -15.20    26400.00
03209              14.00    27200.00
03210              -6.60    27200.00
03211              -5.60    28000.00
03212               6.20    28000.00
03213              -5.20    28000.00
03214              -3.00    28000.00
03215               4.40    28800.00
03216              -3.40    28800.00
03217              -5.00    28800.00
03218               3.40    28800.00
03219              -3.80    30400.00
03220              -3.80    29600.00
03221               5.80    30400.00
03222              -4.40    30400.00
03223              -0.60    31200.00
03224               2.60    31200.00
03225              -5.40    31200.00
03226               0.40    31200.00
03227              -1.20    31200.00
03228              -3.40    32000.00
03229               0.40    32800.00
03230              -1.40    32000.00
03231              -2.20    32000.00
03232              -1.00    32000.00
03233              -0.20    32800.00
03234              -2.00    32000.00
03235              -1.00    32800.00
03236               0.00    33600.00
03237              -2.60    32800.00
03238               0.40    32800.00
03239              -1.80    32800.00
03240              -2.60    33600.00
03241               0.60    32800.00
03242              -3.00    32800.00
03243              -0.60    32800.00
03244              -0.40    33600.00
03245              -3.40    32800.00
03246              -0.20    32000.00
03247              -0.60    32800.00
03248              -1.80    32800.00
03249              -0.60    32800.00
03250              -0.80    32000.00
03251              -1.20    32800.00
03252              -1.20    32000.00
03253              -1.00    32000.00
03254              -2.00    32800.00
03255              -1.20    32000.00
03256              -1.20    31200.00
03257              -2.20    31200.00
03258              -0.80    31200.00
03259              -1.80    31200.00
03260              -1.60    30400.00
03261              -0.60    31200.00
03262              -2.00    30400.00
03263              -1.20    30400.00
03264              -0.60    30400.00
03265              -1.20    29600.00
03266              -1.20    28800.00
03267              -1.40    28800.00
03268              -1.40    28800.00
03269              -1.80    28800.00
03270              -1.80    28000.00
03271              -1.00    27200.00
03272              -1.80    27200.00
03273              -1.80    27200.00
03274              -1.20    26400.00
03275              -1.20    25600.00
03276              -1.40    25600.00
03277              -1.40    25600.00
03278              -1.00    25600.00
03279              -1.00    24800.00
03280              -0.60    24000.00
03281              -1.80    24000.00
03282              -1.80    24000.00
03283              -0.60    23200.00
03284              -2.20    22400.00
03285              -0.60    22400.00
03286              -1.00    21600.00
03287              -2.20    20800.00
03288              -0.20    20800.00
03289              -2.00    20800.00
03290              -0.80    19200.00
03291              -0.60    19200.00
03292              -2.20    19200.00
03293               0.60    18400.00
03294              -1.60    17600.00
03295              -2.60    17600.00
03296               1.00    16000.00
03297              -2.20    16000.00
03298              -1.80    16000.00
03299               0.40    15200.00
03300              -2.60    14400.00
03301              -0.60    14400.00
03302               0.20    13600.00
03303              -2.60    12800.00
03304              -0.40    12800.00
03305              -0.20    12000.00
03306              -2.00    11200.00
03307              -0.40    11200.00
03308              -1.20     9600.00
03309              -1.40     9600.00
03310              -0.40     8800.00
03311              -0.60     8800.00
03312              -1.60     8000.00
03313              -0.20     7200.00
03314              -0.60     6400.00
03315              -1.20     6400.00
03316               0.00     5600.00
03317              -0.40     4800.00
03318              -1.20     4000.00
03319              -0.20     3200.00
03320              -0.60     3200.00
03321              -1.40     1600.00
03322              -0.60     1600.00
03323              -1.00     1600.00
03324              -0.80      800.00
03325               0.00        0.00
03326              -0.20     -800.00
03327               2.60     -800.00
03328               1.40    -1600.00
03329              -2.20    -1600.00
03330               1.80    -3200.00
03331               0.60    -3200.00
03332              -1.40    -3200.00
03333               1.00    -4000.00
03334               4.20    -4800.00
03335              14.00    -5600.00
03336              18.80    -7200.00
03337             -25.00    -8000.00
03338             -17.40    -8000.00
03339              25.00    -8800.00
03340             -11.00    -9600.00
03341             -25.00    -9600.00
03342              15.80    -9600.00
03343              25.00   -11200.00
03344             -25.00   -10400.00
03345             -14.80   -11200.00
03346              25.00   -12800.00
03347             -25.00   -12000.00
03348               6.40   -13600.00
03349              25.00   -13600.00
03350             -25.00   -14400.00
03351              25.00   -14400.00
03352             -23.20   -15200.00
03353               1.00   -16000.00
03354              25.00   -16800.00
03355             -25.00   -16800.00
03356               8.20   -17600.00
03357              25.00   -18400.00
03358             -25.00   -18400.00
03359             -10.80   -19200.00
03360              25.00   -19200.00
03361             -24.20   -20000.00
03362              -4.20   -20800.00
03363              25.00   -20800.00
03364             -24.60   -22400.00
03365               5.80   -22400.00
03366              13.20   -22400.00
03367             -19.60   -23200.00
03368               7.80   -23200.00
03369               9.40   -24000.00
03370             -13.40   -24000.00
03371               8.80   -24800.00
03372               6.80   -24800.00
03373             -13.60   -25600.00
03374              11.60   -25600.00
03375               0.40   -26400.00
03376              -8.20   -26400.00
03377               9.80   -26400.00
03378              -2.80   -27200.00
03379              -3.40   -27200.00
03380               6.00   -27200.00
03381              -1.20   -28000.00
03382              -1.00   -28800.00
03383               5.20   -28800.00
03384              -1.20   -28800.00
03385              -1.80   -29600.00
03386               4.80   -29600.00
03387              -2.20   -29600.00
03388               0.40   -29600.00
03389               4.40   -30400.00
03390              -2.80   -31200.00
03391               1.80   -30400.00
03392               2.00   -30400.00
03393              -2.00   -31200.00
03394               1.80   -31200.00
03395               1.00   -31200.00
03396               0.20   -32000.00
03397               1.80   -32000.00
03398               0.20   -32000.00
03399              -0.20   -32000.00
03400               1.80   -32000.00
03401               0.60   -32000.00
03402              -0.60   -32000.00
03403               1.80   -32800.00
03404               0.60   -32800.00
03405              -0.60   -32000.00
03406               1.80   -32800.00
03407              -0.20   -32800.00
03408               0.60   -32000.00
03409               2.00   -32800.00
03410              -0.60   -32000.00
03411               1.40   -32000.00
03412               0.60   -32800.00
03413              -0.20   -32000.00
03414               1.20   -32000.00
03415               0.60   -32000.00
03416               0.20   -32000.00
03417               1.00   -32000.00
03418               1.20   -32000.00
03419              -0.20   -32000.00
03420               0.60   -32000.00
03421               2.00   -32000.00
03422               0.40   -31200.00
03423               1.00   -30400.00
03424               1.20   -32000.00
03425               0.20   -30400.00
03426               1.20   -30400.00
03427               0.40   -29600.00
03428               0.40   -29600.00
03429               0.20   -29600.00
03430               0.60   -29600.00
03431               0.40   -28800.00
03432               0.40   -29600.00
03433               0.60   -28800.00
03434               1.40   -28800.00
03435               0.60   -28000.00
03436               0.60   -28000.00
03437               1.00   -27200.00
03438               1.40   -27200.00
03439              -0.20   -26400.00
03440               0.40   -26400.00
03441               1.80   -26400.00
03442              -1.00   -25600.00
03443               0.20   -25600.00
03444               1.40   -24800.00
03445              -0.40   -24000.00
03446               0.80   -24000.00
03447               1.20   -24000.00
03448               0.20   -23200.00
03449               1.00   -23200.00
03450               1.00   -22400.00
03451               0.60   -22400.00
03452               0.40   -22400.00
03453               1.00   -20800.00
03454               1.00   -20800.00
03455              -0.80   -20800.00
03456               0.20   -20000.00
03457               0.20   -19200.00
03458              -0.80   -18400.00
03459               1.20   -18400.00
03460               0.60   -17600.00
03461               0.00   -16800.00
03462              -0.20   -16800.00
03463               1.00   -16000.00
03464               1.20   -16000.00
03465              -2.20   -15200.00
03466               2.00   -14400.00
03467               2.00   -14400.00
03468              -3.40   -13600.00
03469               2.00   -13600.00
03470               1.00   -12800.00
03471              -3.60   -12000.00
03472               1.00   -11200.00
03473               1.80   -10400.00
03474              -1.40   -10400.00
03475              -0.20    -9600.00
03476               1.40    -9600.00
03477              -0.60    -8000.00
03478               0.20    -8000.00
03479              -0.20    -7200.00
03480               0.20    -6400.00
03481               1.20    -5600.00
03482              -1.60    -5600.00
03483              -0.20    -4800.00
03484               1.00    -4000.00
03485              -1.20    -4000.00
03486               0.20    -3200.00
03487               0.60    -2400.00
03488              -1.20    -1600.00
03489              -1.20     -800.00
03490               1.00     -800.00
03491              -0.40        0.00
03492               0.60        0.00
03493               1.80      800.00
03494               2.00     1600.00
03495               0.20     2400.00
03496              -1.20     2400.00
03497               0.40     3200.00
03498               0.40     4000.00
03499              -1.20     3200.00
03500               4.20     4800.00
03501              17.00     6400.00
03502              24.20     7200.00
03503             -25.00     8000.00
03504             -14.00     8000.00
03505              25.00     8800.00
03506             -19.40     8000.00
03507             -25.00     8800.00
03508              25.00    10400.00
03509              17.40     9600.00
03510             -25.00    11200.00
03511              25.00    12000.00
03512             -18.80    12000.00
03513             -25.00    12800.00
03514              25.00    12800.00
03515             -25.00    12800.00
03516              25.00    14400.00
03517              12.20    15200.00
03518             -25.00    15200.00
03519              25.00    16000.00
03520             -25.00    16000.00
03521             -25.00    16800.00
03522              25.00    17600.00
03523             -19.80    18400.00
03524             -25.00    18400.00
03525              25.00    19200.00
03526              -1.40    20000.00
03527             -25.00    20800.00
03528              25.00    20800.00
03529             -20.40    21600.00
03530             -13.40    22400.00
03531              25.00    22400.00
03532             -25.00    22400.00
03533               4.40    23200.00
03534              16.40    24000.00
03535             -20.40    24000.00
03536               3.00    24800.00
03537              16.20    24800.00
03538             -22.20    24800.00
03539               6.20    25600.00
03540               8.60    26400.00
03541             -18.80    25600.00
03542              12.20    27200.00
03543              -1.20    27200.00
03544              -8.80    27200.00
03545               6.80    28000.00
03546              -3.60    28800.00
03547              -4.40    28000.00
03548               4.40    28800.00
03549              -2.20    28800.00
03550              -5.80    28800.00
03551               2.60    28800.00
03552              -2.20    30400.00
03553              -5.20    30400.00
03554               5.20    30400.00
03555              -3.00    31200.00
03556              -2.20    30400.00
03557               3.60    31200.00
03558              -4.60    31200.00
03559              -0.40    31200.00
03560               0.20    32800.00
03561              -3.00    32000.00
03562               0.20    32000.00
03563              -1.20    32800.00
03564              -2.40    32800.00
03565              -1.80    32000.00
03566              -0.40    32000.00
03567              -1.80    32800.00
03568              -2.00    32800.00
03569               0.20    32800.00
03570              -2.20    32800.00
03571              -0.20    32800.00
03572              -0.60    33600.00
03573              -3.20    32800.00
03574               0.60    32800.00
03575              -2.20    32800.00
03576              -1.80    32800.00
03577               0.60    32000.00
03578              -3.60    32800.00
03579              -0.60    32800.00
03580              -0.20    32000.00
03581              -2.20    32800.00
03582              -1.40    32000.00
03583              -1.00    32800.00
03584              -1.20    32000.00
03585              -1.80    32000.00
03586              -1.20    32000.00
03587              -1.00    32000.00
03588              -1.40    31200.00
03589              -1.20    31200.00
03590              -2.00    31200.00
03591              -1.20    31200.00
03592              -2.00    31200.00
03593              -2.00    30400.00
03594              -0.20    30400.00
03595              -2.20    30400.00
03596              -1.40    30400.00
03597               0.00    29600.00
03598              -1.80    28800.00
03599              -1.80    28800.00
03600              -1.20    28800.00
03601              -2.20    28800.00
03602              -2.00    28000.00
03603              -1.00    28000.00
03604              -1.40    27200.00
03605              -1.80    27200.00
03606              -0.60    27200.00
03607              -1.00    27200.00
03608              -1.80    26400.00
03609              -1.20    25600.00
03610              -1.80    25600.00
03611              -1.80    25600.00
03612              -0.60    24800.00
03613              -1.20    24800.00
03614              -1.40    24000.00
03615              -1.60    24000.00
03616              -1.00    23200.00
03617              -1.40    23200.00
03618              -1.20    22400.00
03619              -1.20    22400.00
03620              -1.20    21600.00
03621              -0.40    21600.00
03622              -1.60    20000.00
03623              -1.20    20000.00
03624              -0.80    19200.00
03625              -1.20    18400.00
03626              -0.60    18400.00
03627              -1.20    17600.00
03628              -1.60    17600.00
03629              -1.20    16800.00
03630              -1.20    16000.00
03631              -1.00    16000.00
03632              -1.20    15200.00
03633              -0.60    15200.00
03634              -0.40    14400.00
03635              -1.00    14400.00
03636              -0.60    12800.00
03637              -0.40    12800.00
03638              -0.60    12000.00
03639              -1.20    11200.00
03640              -0.60    11200.00
03641              -1.20     9600.00
03642              -1.80     9600.00
03643              -0.60     8800.00
03644              -0.40     8000.00
03645              -1.80     8000.00
03646              -0.60     8000.00
03647              -0.40     6400.00
03648              -0.80     5600.00
03649              -0.60     5600.00
03650              -0.20     4800.00
03651              -0.80     4000.00
03652              -0.40     3200.00
03653              -0.60     3200.00
03654              -0.60     2400.00
03655              -1.20     1600.00
03656              -1.00      800.00
03657              -1.00      800.00
03658              -0.40        0.00
03659              -0.60     -800.00
03660               1.80     -800.00
03661               2.40    -1600.00
03662              -2.60    -1600.00
03663               1.20    -3200.00
03664               2.00    -3200.00
03665              -1.00    -3200.00
03666               0.20    -4000.00
03667               4.20    -4800.00
03668              11.40    -4800.00
03669              22.20    -7200.00
03670             -25.00    -8000.00
03671             -25.00    -8000.00
03672              24.40    -8800.00
03673              -2.60    -8800.00
03674             -25.00    -9600.00
03675               5.40    -8800.00
03676              25.00   -10400.00
03677             -24.40   -11200.00
03678             -25.00   -11200.00
03679              25.00   -12000.00
03680             -25.00   -12000.00
03681             -15.80   -13600.00
03682              25.00   -13600.00
03683             -25.00   -14400.00
03684              25.00   -15200.00
03685             -10.20   -14400.00
03686             -13.00   -16000.00
03687              25.00   -16800.00
03688             -25.00   -16000.00
03689              -4.20   -17600.00
03690              25.00   -17600.00
03691             -19.60   -18400.00
03692             -20.40   -19200.00
03693              25.00   -19200.00
03694             -13.60   -20000.00
03695             -16.00   -20000.00
03696              25.00   -20800.00
03697             -18.80   -21600.00
03698              -2.80   -22400.00
03699              19.20   -22400.00
03700             -19.00   -22400.00
03701               3.40   -23200.00
03702              12.20   -23200.00
03703             -13.00   -24000.00
03704               5.20   -24000.00
03705              10.80   -24800.00
03706             -15.00   -24800.00
03707               8.40   -25600.00
03708               5.20   -26400.00
03709             -10.80   -26400.00
03710               9.80   -27200.00
03711              -0.20   -27200.00
03712              -5.20   -27200.00
03713               5.80   -28000.00
03714               0.20   -28800.00
03715              -2.00   -27200.00
03716               4.40   -28800.00
03717               0.20   -28800.00
03718              -3.00   -29600.00
03719               4.40   -29600.00
03720              -1.40   -29600.00
03721              -1.40   -29600.00
03722               4.60   -29600.00
03723              -1.40   -30400.00
03724              -0.20   -30400.00
03725               3.40   -30400.00
03726              -2.00   -31200.00
03727               1.20   -31200.00
03728               2.20   -31200.00
03729              -0.40   -32000.00
03730               1.40   -32000.00
03731               1.20   -32000.00
03732              -0.60   -32000.00
03733               1.20   -32000.00
03734               1.60   -32800.00
03735              -1.40   -32000.00
03736               1.20   -32000.00
03737               2.00   -32800.00
03738              -1.20   -32800.00
03739               1.20   -32000.00
03740               1.20   -32800.00
03741               0.20   -32800.00
03742               1.80   -32800.00
03743               1.20   -32000.00
03744               1.20   -32000.00
03745               1.00   -32800.00
03746              -0.20   -32800.00
03747               2.00   -32000.00
03748               0.20   -32800.00
03749              -1.00   -32000.00
03750               1.60   -32800.00
03751               1.20   -32000.00
03752              -0.60   -32000.00
03753               0.80   -32000.00
03754               2.60   -32000.00
03755               0.20   -31200.00
03756               0.60   -32000.00
03757               2.40   -30400.00
03758              -0.40   -30400.00
03759               1.20   -30400.00
03760               1.40   -30400.00
03761               0.40   -30400.00
03762               0.40   -29600.00
03763               0.40   -29600.00
03764               1.20   -29600.00
03765               0.80   -29600.00
03766               0.20   -28800.00
03767               1.60   -28800.00
03768               0.40   -28000.00
03769               0.20   -27200.00
03770               1.20   -28000.00
03771               1.40   -27200.00
03772               0.20   -27200.00
03773               1.20   -26400.00
03774               1.80   -25600.00
03775               0.40   -25600.00
03776              -0.20   -25600.00
03777               1.00   -24800.00
03778               0.40   -25600.00
03779              -0.40   -24000.00
03780               1.00   -24000.00
03781               0.40   -24000.00
03782               0.20   -23200.00
03783               1.00   -22400.00
03784               1.00   -22400.00
03785               0.20   -22400.00
03786               0.60   -21600.00
03787               0.60   -20800.00
03788               0.20   -20800.00
03789              -0.20   -20000.00
03790              -0.20   -18400.00
03791               0.20   -19200.00
03792               0.40   -17600.00
03793               0.40   -17600.00
03794              -0.40   -17600.00
03795               0.20   -16800.00
03796               1.00   -16000.00
03797               0.20   -16000.00
03798              -0.20   -15200.00
03799               0.40   -14400.00
03800               0.20   -14400.00
03801              -0.40   -13600.00
03802               0.20   -12800.00
03803               0.40   -12800.00
03804              -0.20   -12000.00
03805               0.20   -11200.00
03806               0.40   -11200.00
03807              -0.20   -10400.00
03808              -0.20    -9600.00
03809              -0.20    -9600.00
03810               0.20    -8800.00
03811               0.20    -8000.00
03812               0.40    -7200.00
03813               0.20    -6400.00
03814              -0.20    -6400.00
03815              -0.40    -5600.00
03816              -0.20    -4800.00
03817              -0.40    -4000.00
03818               0.40    -4000.00
03819              -0.40    -3200.00
03820               0.20    -2400.00
03821               0.80    -1600.00
03822              -0.80    -1600.00
03823              -0.40     -800.00
03824               0.60        0.00
03825              -0.20      800.00
03826               0.40     1600.00
03827               3.00     2400.00
03828               0.40     1600.00
03829              -2.80     2400.00
03830               1.20     3200.00
03831               0.40     3200.00
03832              -1.80     4800.00
03833               2.80     4800.00
03834              13.80     5600.00
03835              25.00     7200.00
03836             -25.00     8000.00
03837             -25.00     8000.00
03838              25.00     8800.00
03839              -9.40     8000.00
03840             -25.00     9600.00
03841              25.00     9600.00
03842              25.00    10400.00
03843             -25.00    11200.00
03844              25.00    12000.00
03845              18.00    12000.00
03846             -25.00    12000.00
03847              25.00    13600.00
03848             -25.00    12800.00
03849              25.00    14400.00
03850              25.00    15200.00
03851             -25.00    15200.00
03852              25.00    16000.00
03853              -5.00    16000.00
03854             -25.00    17600.00
03855              25.00    17600.00
03856              -4.40    18400.00
03857             -25.00    18400.00
03858              25.00    19200.00
03859              14.80    19200.00
03860             -25.00    20800.00
03861              25.00    20800.00
03862              -2.80    21600.00
03863             -25.00    21600.00
03864              25.00    21600.00
03865             -25.00    22400.00
03866              -6.00    22400.00
03867              21.00    24000.00
03868             -16.80    24000.00
03869              -4.00    24800.00
03870              19.60    24800.00
03871             -18.20    24800.00
03872              -1.20    25600.00
03873              13.80    25600.00
03874             -18.80    26400.00
03875               8.20    27200.00
03876               3.60    27200.00
03877             -11.00    28000.00
03878               5.80    27200.00
03879              -0.60    28000.00
03880              -5.80    28800.00
03881               3.40    28800.00
03882               0.60    28800.00
03883              -6.60    29600.00
03884               1.40    28800.00
03885               0.40    30400.00
03886              -6.40    30400.00
03887               4.20    30400.00
03888              -1.00    30400.00
03889              -4.20    31200.00
03890               3.60    31200.00
03891              -4.20    31200.00
03892              -1.80    31200.00
03893               1.00    32800.00
03894              -3.80    32000.00
03895               0.40    31200.00
03896               0.40    32800.00
03897              -2.80    32800.00
03898              -1.20    32000.00
03899               0.00    32800.00
03900              -2.20    32000.00
03901              -2.00    32000.00
03902               0.20    32800.00
03903              -2.20    32800.00
03904              -0.60    32800.00
03905              -0.60    33600.00
03906              -2.60    33600.00
03907               1.00    32800.00
03908              -2.20    32800.00
03909              -1.60    32800.00
03910               0.40    32800.00
03911              -3.40    33600.00
03912              -1.20    32800.00
03913              -0.60    32800.00
03914              -2.00    32800.00
03915              -1.20    32800.00
03916              -1.40    32800.00
03917              -0.60    32000.00
03918              -1.60    32000.00
03919              -2.00    32000.00
03920              -1.20    32800.00
03921              -1.40    32000.00
03922              -1.80    31200.00
03923              -1.80    31200.00
03924              -1.00    31200.00
03925              -1.40    31200.00
03926              -1.80    30400.00
03927              -0.40    30400.00
03928              -1.20    30400.00
03929              -1.80    30400.00
03930              -0.60    29600.00
03931              -1.20    29600.00
03932              -1.80    28800.00
03933              -1.40    28800.00
03934              -1.40    28800.00
03935              -2.00    28000.00
03936              -1.80    28800.00
03937              -1.60    28000.00
03938              -1.80    27200.00
03939              -1.00    27200.00
03940              -1.00    27200.00
03941              -1.20    25600.00
03942              -0.20    26400.00
03943              -1.00    25600.00
03944              -2.20    25600.00
03945              -1.00    24800.00
03946              -0.40    24800.00
03947              -1.20    24000.00
03948              -2.20    24000.00
03949              -1.20    23200.00
03950              -0.60    23200.00
03951              -2.60    22400.00
03952              -1.40    22400.00
03953               0.40    21600.00
03954              -1.20    21600.00
03955              -1.60    20000.00
03956               0.20    19200.00
03957              -2.20    19200.00
03958              -2.20    18400.00
03959               0.60    18400.00
03960              -0.40    17600.00
03961              -1.80    17600.00
03962              -1.80    16800.00
03963              -0.60    16000.00
03964              -1.20    16000.00
03965              -2.40    15200.00
03966              -0.40    14400.00
03967              -0.80    13600.00
03968              -0.20    14400.00
03969              -1.20    12800.00
03970              -0.60    12800.00
03971              -0.60    12000.00
03972              -0.60    11200.00
03973              -1.40    11200.00
03974              -1.00     9600.00
03975              -0.60     9600.00
03976              -1.80     8800.00
03977              -0.20     8800.00
03978              -1.20     8000.00
03979              -1.40     7200.00
03980              -0.20     6400.00
03981              -1.40     6400.00
03982              -1.40     5600.00
03983              -0.60     4800.00
03984              -0.60     4800.00
03985              -0.20     4000.00
03986              -0.60     3200.00
03987              -0.60     2400.00
03988              -0.60     1600.00
03989              -1.40     1600.00
03990              -0.80      800.00
03991              -0.20     -800.00
03992              -0.60     -800.00
03993               1.20     -800.00
03994               2.60    -1600.00
03995              -2.20    -1600.00
03996               0.40    -3200.00
03997               1.80    -3200.00
03998              -0.40    -3200.00
03999              -0.80    -4000.00
04000               3.60    -4800.00
04001               8.60    -5600.00
04002              24.20    -6400.00
04003             -21.80    -8000.00
04004             -25.00    -8000.00
04005              21.40    -8000.00
04006               6.80    -9600.00
04007             -25.00    -9600.00
04008              -3.00    -9600.00
04009              25.00   -10400.00
04010              -2.60   -11200.00
04011             -25.00   -10400.00
04012              25.00   -12800.00
04013             -16.20   -12000.00
04014             -25.00   -13600.00
04015              25.00   -13600.00
04016             -25.00   -13600.00
04017              15.40   -14400.00
04018               4.20   -14400.00
04019             -25.00   -16000.00
04020              25.00   -16000.00
04021             -18.80   -16800.00
04022             -15.00   -17600.00
04023              25.00   -17600.00
04024             -10.80   -18400.00
04025             -25.00   -18400.00
04026              25.00   -20000.00
04027              -1.60   -20000.00
04028             -25.00   -20800.00
04029              25.00   -20800.00
04030              -9.60   -20800.00
04031             -11.40   -21600.00
04032              22.80   -22400.00
04033             -15.20   -23200.00
04034              -2.60   -23200.00
04035              15.00   -23200.00
04036              -9.40   -24000.00
04037              -0.80   -24000.00
04038              13.40   -24800.00
04039             -13.80   -24800.00
04040               3.60   -25600.00
04041               9.00   -25600.00
04042             -11.80   -26400.00
04043               7.40   -26400.00
04044               2.20   -27200.00
04045              -6.00   -27200.00
04046               4.20   -28000.00
04047               1.00   -28000.00
04048              -2.80   -28800.00
04049               3.80   -28000.00
04050               2.00   -29600.00
04051              -2.80   -29600.00
04052               4.40   -28800.00
04053              -0.40   -29600.00
04054              -2.60   -29600.00
04055               4.40   -29600.00
04056              -2.00   -30400.00
04057              -1.40   -30400.00
04058               3.80   -31200.00
04059              -2.00   -30400.00
04060               0.20   -31200.00
04061               3.40   -31200.00
04062              -0.60   -32000.00
04063               0.60   -32000.00
04064               1.40   -32000.00
04065              -0.20   -32000.00
04066               1.00   -32000.00
04067               1.40   -32000.00
04068              -0.20   -32000.00
04069               0.40   -32000.00
04070               1.00   -32800.00
04071               0.40   -32000.00
04072               1.00   -32800.00
04073               0.00   -32800.00
04074               1.20   -32000.00
04075               2.00   -32800.00
04076              -0.60   -32000.00
04077               1.20   -32000.00
04078               1.80   -32800.00
04079               0.00   -32800.00
04080               1.80   -32000.00
04081               0.60   -32800.00
04082              -0.20   -32000.00
04083               1.40   -32000.00
04084               1.80   -32000.00
04085              -0.20   -32000.00
04086               0.60   -32000.00
04087               0.80   -32000.00
04088              -0.20   -31200.00
04089               1.40   -31200.00
04090               1.20   -30400.00
04091               0.20   -30400.00
04092               2.20   -30400.00
04093               0.80   -29600.00
04094               0.40   -29600.00
04095               1.00   -29600.00
04096               0.20   -29600.00
04097               0.60   -29600.00
04098               1.40   -28800.00
04099               0.60   -28800.00
04100               0.60   -28800.00
04101               1.00   -28800.00
04102               0.40   -27200.00
04103               0.40   -28000.00
04104               0.80   -27200.00
04105               0.20   -27200.00
04106               0.40   -26400.00
04107               0.80   -26400.00
04108               0.40   -25600.00
04109               0.20   -25600.00
04110               0.40   -25600.00
04111               0.60   -24800.00
04112               1.00   -24000.00
04113               0.80   -24000.00
04114              -0.20   -24000.00
04115               0.20   -23200.00
04116               0.60   -23200.00
04117               0.20   -22400.00
04118               0.40   -22400.00
04119               1.00   -22400.00
04120               0.40   -20800.00
04121               0.40   -20800.00
04122               0.20   -20000.00
04123              -0.60   -18400.00
04124               0.40   -19200.00
04125               0.60   -18400.00
04126               0.20   -17600.00
04127               1.00   -17600.00
04128               0.40   -16800.00
04129               0.20   -16800.00
04130               1.20   -16000.00
04131               0.20   -15200.00
04132              -0.20   -16000.00
04133               0.40   -14400.00
04134              -0.20   -13600.00
04135              -0.40   -13600.00
04136               0.20   -12800.00
04137               0.40   -12800.00
04138              -0.40   -12000.00
04139               0.00   -10400.00
04140               0.40   -10400.00
04141              -0.20   -10400.00
04142               0.40    -9600.00
04143               1.00    -8800.00
04144               0.20    -8000.00
04145               0.00    -8000.00
04146              -0.20    -7200.00
04147              -0.40    -6400.00
04148               0.20    -5600.00
04149              -0.60    -4800.00
04150              -0.40    -4000.00
04151               0.20    -3200.00
04152              -0.20    -3200.00
04153               0.20    -2400.00
04154               0.20    -1600.00
04155               0.00    -1600.00
04156               0.20     -800.00
04157               0.40        0.00
04158               0.20        0.00
04159               0.80     1600.00
04160               1.80     1600.00
04161               2.00     1600.00
04162              -2.00     2400.00
04163               0.40     3200.00
04164               0.80     3200.00
04165              -1.60     4000.00
04166               1.20     4800.00
04167              10.60     5600.00
04168              25.00     7200.00
04169             -25.00     8000.00
04170             -25.00     8000.00
04171              25.00     8000.00
04172               0.20     8800.00
04173             -25.00     8800.00
04174              25.00     9600.00
04175              25.00    10400.00
04176             -25.00     9600.00
04177              25.00    12000.00
04178              25.00    12000.00
04179             -25.00    12000.00
04180              25.00    13600.00
04181             -25.00    13600.00
04182              -1.80    14400.00
04183              25.00    14400.00
04184             -25.00    15200.00
04185              25.00    16000.00
04186              25.00    16000.00
04187             -25.00    17600.00
04188              25.00    17600.00
04189              12.40    18400.00
04190             -25.00    18400.00
04191              17.40    18400.00
04192              25.00    19200.00
04193             -25.00    20800.00
04194              25.00    20800.00
04195              15.40    21600.00
04196             -25.00    21600.00
04197              25.00    21600.00
04198             -16.60    22400.00
04199             -16.00    22400.00
04200              22.80    23200.00
04201             -11.80    24000.00
04202              -9.00    24000.00
04203              20.20    24800.00
04204             -13.00    24800.00
04205              -7.20    25600.00
04206              17.20    25600.00
04207             -18.20    26400.00
04208               3.40    26400.00
04209               8.40    27200.00
04210             -13.20    27200.00
04211               5.20    27200.00
04212               2.00    28000.00
04213              -7.00    28800.00
04214               2.00    28800.00
04215               1.80    28800.00
04216              -5.80    28800.00
04217              -0.60    29600.00
04218               2.60    30400.00
04219              -5.80    30400.00
04220               1.40    30400.00
04221               2.00    30400.00
04222              -4.80    31200.00
04223               2.60    30400.00
04224              -2.20    31200.00
04225              -4.40    31200.00
04226               1.00    32000.00
04227              -1.80    31200.00
04228              -2.00    32000.00
04229               0.20    32800.00
04230              -1.00    32000.00
04231              -3.40    32000.00
04232               0.40    32800.00
04233              -0.60    32800.00
04234              -3.60    32800.00
04235               1.40    32800.00
04236              -1.80    32000.00
04237              -2.20    32800.00
04238               0.60    32800.00
04239              -3.80    32800.00
04240              -0.20    32800.00
04241              -1.00    32800.00
04242              -3.20    32800.00
04243               0.40    32800.00
04244              -2.80    32000.00
04245              -2.00    32800.00
04246              -0.20    32800.00
04247              -1.80    32800.00
04248              -1.40    32800.00
04249              -1.20    32800.00
04250              -1.00    32000.00
04251              -1.80    32000.00
04252              -1.20    32000.00
04253              -1.20    32000.00
04254              -2.00    31200.00
04255              -1.20    31200.00
04256              -2.20    32000.00
04257              -1.20    31200.00
04258              -1.20    31200.00
04259              -2.20    31200.00
04260              -0.80    31200.00
04261              -1.20    30400.00
04262              -2.00    30400.00
04263              -0.40    29600.00
04264              -0.60    28800.00
04265              -1.40    29600.00
04266              -1.00    28800.00
04267              -1.20    28800.00
04268              -2.00    28800.00
04269              -1.80    28000.00
04270              -1.00    27200.00
04271              -1.80    27200.00
04272              -2.00    27200.00
04273              -0.80    27200.00
04274              -1.20    26400.00
04275              -1.00    26400.00
04276              -1.00    25600.00
04277              -1.40    24800.00
04278              -0.40    24800.00
04279              -1.00    24800.00
04280              -1.20    24000.00
04281              -1.20    24000.00
04282              -1.20    24000.00
04283              -1.20    24000.00
04284              -1.40    22400.00
04285              -0.60    22400.00
04286              -1.40    21600.00
04287              -1.20    21600.00
04288              -0.60    20800.00
04289              -1.60    20800.00
04290              -0.80    19200.00
04291              -1.00    19200.00
04292              -0.60    18400.00
04293              -1.00    17600.00
04294              -1.20    17600.00
04295              -0.60    16800.00
04296              -1.00    16000.00
04297              -1.40    16000.00
04298              -0.40    15200.00
04299              -1.40    14400.00
04300              -0.60    14400.00
04301              -1.00    13600.00
04302              -1.40    12800.00
04303              -1.00    12800.00
04304              -0.60    12000.00
04305              -1.20    11200.00
04306              -0.60    11200.00
04307              -1.00     9600.00
04308              -1.20     9600.00
04309              -1.20     8800.00
04310              -0.80     8800.00
04311              -1.20     8000.00
04312              -0.80     8000.00
04313              -0.60     7200.00
04314              -1.20     6400.00
04315              -0.60     5600.00
04316              -0.60     4800.00
04317              -1.20     4800.00
04318              -0.60     4800.00
04319              -1.00     3200.00
04320              -1.00     2400.00
04321              -0.60     2400.00
04322              -1.20     1600.00
04323              -1.20      800.00
04324               0.20        0.00
04325              -0.20     -800.00
04326               0.20    -1600.00
04327               3.80    -1600.00
04328              -1.20    -1600.00
04329              -1.00    -2400.00
04330               2.40    -3200.00
04331              -0.20    -3200.00
04332              -1.80    -4000.00
04333               3.20    -4000.00
04334               7.00    -5600.00
04335              23.60    -7200.00
04336             -10.20    -7200.00
04337             -25.00    -8000.00
04338              14.20    -8000.00
04339              15.00    -9600.00
04340             -25.00    -9600.00
04341             -10.80    -8800.00
04342              25.00    -9600.00
04343              18.80   -10400.00
04344             -25.00   -11200.00
04345              25.00   -12000.00
04346               8.40   -12000.00
04347             -25.00   -12800.00
04348              25.00   -13600.00
04349             -25.00   -13600.00
04350               1.80   -14400.00
04351              17.00   -14400.00
04352             -25.00   -16000.00
04353              25.00   -16000.00
04354              -6.20   -16800.00
04355             -24.60   -16800.00
04356              25.00   -17600.00
04357              -0.60   -18400.00
04358             -25.00   -19200.00
04359              21.00   -19200.00
04360              10.80   -19200.00
04361             -25.00   -20000.00
04362              25.00   -20800.00
04363               0.60   -20800.00
04364             -19.60   -21600.00
04365              23.00   -22400.00
04366             -10.60   -22400.00
04367              -8.60   -23200.00
04368              15.80   -23200.00
04369              -6.20   -24000.00
04370              -5.40   -24000.00
04371              15.60   -24800.00
04372             -10.40   -25600.00
04373              -1.80   -25600.00
04374              12.60   -25600.00
04375             -11.60   -26400.00
04376               3.80   -26400.00
04377               4.80   -26400.00
04378              -6.60   -27200.00
04379               3.00   -27200.00
04380               2.60   -28000.00
04381              -3.00   -28000.00
04382               2.60   -28800.00
04383               3.40   -28800.00
04384              -4.40   -28800.00
04385               2.60   -29600.00
04386               2.20   -29600.00
04387              -3.60   -29600.00
04388               4.20   -30400.00
04389               1.20   -30400.00
04390              -2.60   -30400.00
04391               4.20   -31200.00
04392              -1.00   -31200.00
04393              -1.20   -31200.00
04394               3.00   -32000.00
04395              -0.40   -32000.00
04396               0.80   -32000.00
04397               1.80   -32000.00
04398              -0.40   -32000.00
04399               0.60   -32000.00
04400               2.00   -32000.00
04401              -0.60   -32000.00
04402               0.40   -32800.00
04403               2.20   -32800.00
04404              -0.80   -32000.00
04405               1.00   -32800.00
04406               1.20   -32000.00
04407              -0.40   -32800.00
04408               2.60   -32800.00
04409               0.80   -32800.00
04410              -0.20   -32800.00
04411               2.20   -32000.00
04412               0.40   -32000.00
04413               0.20   -32800.00
04414               1.40   -32000.00
04415               0.20   -32800.00
04416               0.40   -32000.00
04417               1.80   -32000.00
04418               0.80   -32000.00
04419               0.20   -32000.00
04420               1.80   -32000.00
04421               1.00   -31200.00
04422               0.40   -31200.00
04423               1.80   -30400.00
04424               0.40   -31200.00
04425               1.00   -30400.00
04426               1.60   -30400.00
04427              -0.20   -29600.00
04428               1.00   -29600.00
04429               1.40   -29600.00
04430              -0.20   -29600.00
04431               0.80   -28800.00
04432               1.60   -28800.00
04433              -0.20   -28800.00
04434               0.80   -28000.00
04435               1.20   -28800.00
04436               0.20   -27200.00
04437               0.60   -27200.00
04438               1.00   -27200.00
04439               0.20   -26400.00
04440               0.80   -26400.00
04441               0.60   -26400.00
04442              -0.40   -25600.00
04443               0.60   -25600.00
04444               0.20   -25600.00
04445               0.40   -24000.00
04446               1.00   -24000.00
04447               0.40   -23200.00
04448               0.60   -24000.00
04449               1.00   -23200.00
04450               1.20   -22400.00
04451               0.00   -21600.00
04452               0.40   -20800.00
04453               0.80   -20800.00
04454              -0.60   -20800.00
04455               0.20   -20000.00
04456              -0.20   -19200.00
04457              -0.40   -18400.00
04458               0.60   -18400.00
04459               0.40   -17600.00
04460              -0.20   -17600.00
04461               1.00   -16800.00
04462               0.20   -16800.00
04463               0.40   -16000.00
04464               1.20   -15200.00
04465              -0.20   -15200.00
04466               0.00   -14400.00
04467               1.00   -13600.00
04468              -1.20   -13600.00
04469               0.20   -12800.00
04470               1.20   -12000.00
04471              -1.20   -11200.00
04472               0.40   -11200.00
04473               1.00   -10400.00
04474              -0.60    -9600.00
04475               0.40    -9600.00
04476               1.00    -8800.00
04477              -0.60    -8000.00
04478               0.80    -8000.00
04479               0.60    -7200.00
04480              -1.20    -6400.00
04481               1.20    -5600.00
04482              -0.40    -4800.00
04483              -0.80    -4800.00
04484               1.20    -4000.00
04485              -1.20    -3200.00
04486              -0.60    -2400.00
04487               0.60    -1600.00
04488              -0.60    -1600.00
04489               0.00     -800.00
04490               0.20        0.00
04491               0.20        0.00
04492               0.40      800.00
04493               1.80     1600.00
04494               3.40     1600.00
04495              -2.80     2400.00
04496               0.20     3200.00
04497               1.40     3200.00
04498              -1.80     4000.00
04499              -0.20     4800.00
04500               9.00     4800.00
04501              25.00     7200.00
04502             -14.00     8000.00
04503             -25.00     8000.00
04504              21.20     8000.00
04505              10.20     8800.00
04506             -25.00     8800.00
04507              10.80     9600.00
04508              25.00    10400.00
04509             -25.00    11200.00
04510              13.80    12000.00
04511              25.00    12800.00
04512             -25.00    12000.00
04513              25.00    12800.00
04514              -4.60    12800.00
04515             -25.00    14400.00
04516              25.00    14400.00
04517             -25.00    15200.00
04518              25.00    16000.00
04519              25.00    16000.00
04520             -25.00    16800.00
04521              25.00    17600.00
04522              25.00    17600.00
04523             -25.00    18400.00
04524               3.40    19200.00
04525              25.00    19200.00
04526             -25.00    19200.00
04527              13.40    20800.00
04528              25.00    21600.00
04529             -25.00    21600.00
04530              25.00    22400.00
04531              -3.00    22400.00
04532             -25.00    22400.00
04533              22.80    24000.00
04534              -5.80    24000.00
04535             -15.00    24000.00
04536              19.20    24800.00
04537              -5.20    24800.00
04538             -14.80    25600.00
04539              18.60    25600.00
04540             -13.00    25600.00
04541              -2.80    26400.00
04542              12.20    27200.00
04543             -12.40    27200.00
04544               2.00    28000.00
04545               3.80    28000.00
04546              -7.00    28000.00
04547               0.40    28800.00
04548               3.00    28000.00
04549              -5.40    28800.00
04550              -2.20    29600.00
04551               3.00    30400.00
04552              -6.00    30400.00
04553               0.80    29600.00
04554               3.00    30400.00
04555              -5.40    30400.00
04556               3.40    31200.00
04557              -1.20    31200.00
04558              -4.20    31200.00
04559               2.00    32000.00
04560              -3.60    32800.00
04561              -1.80    32000.00
04562               0.80    32000.00
04563              -2.60    32800.00
04564              -2.40    32000.00
04565              -0.40    32800.00
04566              -1.20    32800.00
04567              -2.80    32800.00
04568               0.20    32000.00
04569              -1.40    32800.00
04570              -2.60    32800.00
04571               0.60    32800.00
04572              -3.00    33600.00
04573              -1.00    32800.00
04574               0.20    32800.00
04575              -3.40    33600.00
04576              -0.20    32000.00
04577              -2.20    32800.00
04578              -2.20    32800.00
04579              -0.40    32800.00
04580              -2.20    32800.00
04581              -1.40    32800.00
04582              -1.20    32800.00
04583              -1.20    32800.00
04584              -1.20    32000.00
04585              -1.40    32000.00
04586              -1.00    32800.00
04587              -1.60    32000.00
04588              -1.00    31200.00
04589              -2.00    31200.00
04590              -1.00    31200.00
04591              -1.20    31200.00
04592              -2.20    31200.00
04593              -1.00    31200.00
04594              -1.00    30400.00
04595              -2.00    30400.00
04596              -0.60    29600.00
04597              -1.40    30400.00
04598              -1.20    28800.00
04599              -1.00    28800.00
04600              -1.40    28800.00
04601              -1.40    28800.00
04602              -1.40    28000.00
04603              -1.00    28000.00
04604              -1.20    27200.00
04605              -1.20    27200.00
04606              -0.60    27200.00
04607              -1.40    27200.00
04608              -0.80    25600.00
04609              -1.20    25600.00
04610              -1.80    25600.00
04611              -0.20    24800.00
04612              -1.80    24800.00
04613              -1.40    24000.00
04614              -0.60    24000.00
04615              -2.00    23200.00
04616              -1.00    22400.00
04617              -0.40    22400.00
04618              -2.00    22400.00
04619              -0.40    22400.00
04620               0.20    20800.00
04621              -1.80    20800.00
04622              -0.80    20000.00
04623              -1.00    19200.00
04624              -1.80    19200.00
04625              -1.00    18400.00
04626              -1.20    18400.00
04627              -2.00    17600.00
04628              -0.60    16800.00
04629              -1.20    16800.00
04630              -1.80    16000.00
04631              -0.60    15200.00
04632              -1.40    15200.00
04633              -1.00    14400.00
04634              -0.40    13600.00
04635              -1.20    13600.00
04636              -0.60    12800.00
04637              -0.80    12000.00
04638              -1.20    12000.00
04639              -0.80    11200.00
04640              -0.60    10400.00
04641              -1.40     9600.00
04642              -1.20     8800.00
04643              -1.20     8800.00
04644              -1.20     8000.00
04645              -1.00     8000.00
04646              -0.80     6400.00
04647              -1.20     6400.00
04648              -0.40     5600.00
04649              -0.60     5600.00
04650              -0.80     4800.00
04651              -0.20     4000.00
04652              -0.60     3200.00
04653              -1.20     3200.00
04654              -0.40     1600.00
04655              -1.00     1600.00
04656              -1.20      800.00
04657               0.20        0.00
04658              -0.40     -800.00
04659              -0.20     -800.00
04660               3.60    -1600.00
04661              -0.60    -1600.00
04662              -1.20    -1600.00
04663               2.20    -3200.00
04664               0.40    -3200.00
04665              -1.00    -4000.00
04666               2.20    -4000.00
04667               6.80    -4800.00
04668              21.20    -6400.00
04669               0.20    -7200.00
04670             -25.00    -8000.00
04671               5.00    -8000.00
04672              20.40    -8800.00
04673             -25.00    -9600.00
04674             -19.00    -9600.00
04675              25.00    -9600.00
04676              25.00   -11200.00
04677             -25.00   -10400.00
04678              25.00   -12800.00
04679              25.00   -12000.00
04680             -25.00   -12800.00
04681              25.00   -13600.00
04682              -8.20   -13600.00
04683             -13.60   -14400.00
04684              25.00   -15200.00
04685             -25.00   -16000.00
04686              25.00   -16000.00
04687               6.80   -16800.00
04688             -25.00   -16800.00
04689              25.00   -17600.00
04690               9.80   -17600.00
04691             -25.00   -19200.00
04692              12.00   -19200.00
04693              22.00   -19200.00
04694             -25.00   -20000.00
04695              20.40   -20800.00
04696              12.40   -21600.00
04697             -25.00   -21600.00
04698              20.40   -22400.00
04699              -2.80   -22400.00
04700             -14.00   -22400.00
04701              14.20   -23200.00
04702              -0.60   -24000.00
04703              -9.80   -24000.00
04704              14.40   -24000.00
04705              -5.40   -25600.00
04706              -6.60   -25600.00
04707              13.60   -25600.00
04708              -8.60   -25600.00
04709               0.60   -26400.00
04710               6.60   -26400.00
04711              -6.00   -27200.00
04712               2.00   -27200.00
04713               3.60   -27200.00
04714              -2.80   -28000.00
04715               2.20   -28800.00
04716               3.40   -28800.00
04717              -3.40   -29600.00
04718               1.20   -28800.00
04719               2.60   -29600.00
04720              -3.00   -29600.00
04721               2.20   -30400.00
04722               1.80   -30400.00
04723              -2.00   -30400.00
04724               3.00   -30400.00
04725               0.20   -30400.00
04726              -0.60   -31200.00
04727               2.00   -32000.00
04728               0.20   -32000.00
04729               0.60   -32000.00
04730               1.80   -32000.00
04731               0.20   -32000.00
04732               0.20   -32000.00
04733               1.40   -32000.00
04734              -0.60   -32000.00
04735               1.00   -32000.00
04736               2.60   -32800.00
04737              -2.00   -32000.00
04738               0.20   -32800.00
04739               2.60   -32000.00
04740              -0.60   -32800.00
04741               2.00   -32800.00
04742               2.20   -32800.00
04743              -1.00   -32000.00
04744               2.00   -32000.00
04745               1.40   -32000.00
04746              -0.20   -32800.00
04747               1.00   -32000.00
04748               0.60   -32000.00
04749              -0.20   -32000.00
04750               1.40   -32000.00
04751               1.00   -32000.00
04752              -1.40   -32000.00
04753               1.80   -32000.00
04754               3.00   -32000.00
04755              -0.20   -30400.00
04756               1.00   -31200.00
04757               1.00   -30400.00
04758              -0.20   -30400.00
04759               1.60   -30400.00
04760               1.00   -29600.00
04761               0.20   -29600.00
04762               0.40   -29600.00
04763               0.60   -29600.00
04764               0.20   -28800.00
04765               0.60   -28800.00
04766               0.60   -28800.00
04767               0.60   -28000.00
04768               1.00   -28000.00
04769               0.60   -27200.00
04770               0.40   -27200.00
04771               1.20   -27200.00
04772               1.00   -26400.00
04773               0.60   -26400.00
04774               0.60   -25600.00
04775               0.40   -25600.00
04776               0.20   -25600.00
04777               0.20   -24800.00
04778               0.80   -25600.00
04779               0.40   -24000.00
04780               0.00   -24000.00
04781               1.20   -23200.00
04782               0.60   -23200.00
04783               0.20   -22400.00
04784               1.20   -22400.00
04785               0.20   -21600.00
04786               1.00   -20800.00
04787               1.00   -20800.00
04788               0.00   -20000.00
04789               0.20   -20000.00
04790              -0.20   -18400.00
04791               0.20   -18400.00
04792               0.60   -18400.00
04793               0.00   -17600.00
04794               0.60   -16800.00
04795               1.00   -16800.00
04796               0.40   -16000.00
04797               0.40   -16000.00
04798               0.80   -16000.00
04799              -0.20   -14400.00
04800               0.40   -14400.00
04801               0.20   -13600.00
04802              -0.20   -12800.00
04803               0.60   -12000.00
04804              -0.20   -12800.00
04805               0.20   -11200.00
04806               1.20   -11200.00
04807               0.20   -10400.00
04808              -0.20    -9600.00
04809               0.60    -8800.00
04810               0.40    -8800.00
04811              -0.20    -8000.00
04812              -0.40    -7200.00
04813               0.40    -6400.00
04814               0.40    -6400.00
04815              -0.60    -4800.00
04816              -0.40    -4000.00
04817               0.40    -4000.00
04818               0.20    -3200.00
04819              -0.40    -2400.00
04820               0.60    -1600.00
04821               0.60    -1600.00
04822              -1.20     -800.00
04823              -0.20     -800.00
04824               0.60        0.00
04825              -1.00      800.00
04826               1.00     1600.00
04827               3.60     1600.00
04828              -3.20     2400.00
04829              -0.60     2400.00
04830               2.40     4000.00
04831              -0.60     3200.00
04832              -0.60     4800.00
04833               7.40     5600.00
04834              25.00     7200.00
04835              -1.00     7200.00
04836             -25.00     8000.00
04837              12.60     8800.00
04838              18.20     8800.00
04839             -25.00     8800.00
04840              -7.00     9600.00
04841              25.00    10400.00
04842             -25.00    10400.00
04843             -20.80    11200.00
04844              25.00    12000.00
04845             -25.00    12000.00
04846              25.00    12800.00
04847              25.00    12800.00
04848             -25.00    14400.00
04849              25.00    14400.00
04850             -25.00    15200.00
04851              -0.20    16000.00
04852              25.00    16000.00
04853             -25.00    16800.00
04854              21.80    17600.00
04855              25.00    17600.00
04856             -25.00    18400.00
04857             -10.20    18400.00
04858              25.00    19200.00
04859             -25.00    19200.00
04860              -4.40    20800.00
04861              25.00    20800.00
04862             -25.00    21600.00
04863              21.00    22400.00
04864              10.00    22400.00
04865             -25.00    23200.00
04866              20.60    23200.00
04867               0.60    24000.00
04868             -18.00    24800.00
04869              16.40    24000.00
04870               1.20    24800.00
04871             -19.60    25600.00
04872              18.00    25600.00
04873              -7.40    25600.00
04874              -9.20    27200.00
04875              14.60    27200.00
04876             -10.20    27200.00
04877              -1.80    27200.00
04878               5.80    27200.00
04879              -6.00    28000.00
04880              -1.20    28800.00
04881               4.20    28800.00
04882              -4.40    28800.00
04883              -3.80    29600.00
04884               3.40    30400.00
04885              -4.80    30400.00
04886              -2.20    30400.00
04887               4.20    31200.00
04888              -5.40    31200.00
04889               1.00    30400.00
04890               0.20    31200.00
04891              -5.00    31200.00
04892               1.20    31200.00
04893              -1.80    31200.00
04894              -2.20    32800.00
04895               0.40    32800.00
04896              -2.00    32000.00
04897              -2.20    32800.00
04898              -0.60    32800.00
04899              -1.00    32800.00
04900              -2.80    32000.00
04901              -0.40    32800.00
04902              -1.20    32800.00
04903              -2.80    32800.00
04904               0.60    32800.00
04905              -3.00    32800.00
04906              -1.20    32800.00
04907               0.80    32800.00
04908              -3.80    32800.00
04909              -0.20    32000.00
04910              -1.00    32800.00
04911              -3.00    32000.00
04912               0.20    32800.00
04913              -1.60    32800.00
04914              -1.80    32000.00
04915              -1.00    32800.00
04916              -1.20    32000.00
04917              -1.20    32000.00
04918              -0.60    32800.00
04919              -2.00    32000.00
04920              -2.00    31200.00
04921              -0.60    32000.00
04922              -2.60    31200.00
04923              -1.40    31200.00
04924              -0.40    31200.00
04925              -2.00    31200.00
04926              -0.40    30400.00
04927              -0.60    30400.00
04928              -2.20    29600.00
04929              -0.40    30400.00
04930              -1.80    29600.00
04931              -1.40    30400.00
04932              -0.20    28800.00
04933              -2.20    28800.00
04934              -1.20    28800.00
04935              -1.40    28800.00
04936              -1.40    28000.00
04937              -1.40    28000.00
04938              -2.20    27200.00
04939              -0.40    27200.00
04940               0.40    25600.00
04941              -2.00    26400.00
04942              -1.00    25600.00
04943               0.20    25600.00
04944              -2.40    24800.00
04945              -1.20    24800.00
04946               0.40    24800.00
04947              -2.80    24000.00
04948              -1.80    24000.00
04949               0.20    23200.00
04950              -2.80    22400.00
04951              -1.00    22400.00
04952               0.00    21600.00
04953              -2.20    21600.00
04954               0.20    20800.00
04955               0.20    20800.00
04956              -3.00    19200.00
04957              -1.20    19200.00
04958               0.40    19200.00
04959              -2.20    17600.00
04960              -1.40    17600.00
04961               0.40    16800.00
04962              -2.60    16000.00
04963              -2.00    16000.00
04964               0.40    15200.00
04965              -2.40    15200.00
04966              -1.20    15200.00
04967               0.40    14400.00
04968              -2.00    14400.00
04969              -0.80    12800.00
04970              -0.60    12000.00
04971              -1.20    12000.00
04972              -0.20    11200.00
04973              -0.60    11200.00
04974              -1.80     9600.00
04975              -1.00     9600.00
04976              -0.60     8800.00
04977              -1.40     8000.00
04978              -1.20     8000.00
04979              -0.60     7200.00
04980              -1.20     6400.00
04981              -0.60     5600.00
04982              -0.40     5600.00
04983              -0.60     4800.00
04984              -0.60     4000.00
04985              -0.40     3200.00
04986              -0.60     3200.00
04987              -0.60     2400.00
04988              -1.00     1600.00
04989              -1.00     1600.00
04990              -0.20      800.00
04991              -0.20        0.00
04992               0.20     -800.00
04993               3.60    -1600.00
04994              -0.20    -1600.00
04995              -2.00    -2400.00
04996               2.60    -2400.00
04997               0.60    -3200.00
04998              -1.20    -4000.00
04999               2.00    -4800.00
05000               5.60    -4800.00
