Unit:(mV)
                     CH1         CH2
Frequency              ? 299.476 kHz
00001               2.20    -6000.00
00002              -9.20    -6200.00
00003              16.60    -6600.00
00004             -25.00    -6800.00
00005              25.00    -6800.00
00006               5.20    -7200.00
00007             -25.00    -7200.00
00008              25.00    -7600.00
00009              11.00    -7800.00
00010             -25.00    -8200.00
00011              25.00    -8200.00
00012              13.80    -8400.00
00013             -25.00    -8600.00
00014              13.20    -9000.00
00015              11.60    -8800.00
00016             -17.40    -9200.00
00017               6.60    -9200.00
00018               6.20    -9600.00
00019             -10.00    -9800.00
00020               0.60    -9800.00
00021              -2.60    -9800.00
00022               1.00   -10400.00
00023               4.00   -10400.00
00024              -7.60   -10400.00
00025               0.40   -10600.00
00026               3.40   -10800.00
00027              -7.60   -11000.00
00028              -1.20   -11200.00
00029               6.60   -11400.00
00030              -4.20   -11400.00
00031              -6.00   -11600.00
00032               2.80   -11600.00
00033              -1.20   -11800.00
00034              -5.40   -12000.00
00035               2.00   -12000.00
00036               1.00   -12000.00
00037              -5.00   -12200.00
00038              -0.60   -12400.00
00039              -1.00   -12400.00
00040              -3.20   -12400.00
00041              -0.20   -12800.00
00042              -1.60   -12600.00
00043              -2.80   -12800.00
00044              -2.00   -12800.00
00045              -2.60   -12800.00
00046              -1.40   -13000.00
00047              -1.20   -13000.00
00048              -3.60   -13200.00
00049              -2.20   -13200.00
00050              -1.20   -13200.00
00051              -4.20   -13200.00
00052              -2.00   -13200.00
00053              -1.80   -13200.00
00054              -5.40   -13200.00
00055              -3.00   -13200.00
00056              -2.80   -13400.00
00057              -5.80   -13400.00
00058              -3.80   -13200.00
00059              -4.20   -13400.00
00060              -5.20   -13200.00
00061              -6.00   -13200.00
00062              -6.60   -13400.00
00063              -5.40   -13400.00
00064              -6.00   -13200.00
00065              -6.80   -13200.00
00066              -7.00   -13200.00
00067              -8.40   -13400.00
00068              -9.00   -13200.00
00069              -8.40   -13000.00
00070             -10.00   -13000.00
00071             -11.40   -13000.00
00072              -8.60   -13000.00
00073              -6.00   -12800.00
00074              -6.60   -12800.00
00075              -5.20   -12800.00
00076              -3.80   -12800.00
00077              -4.20   -12800.00
00078              -3.60   -12600.00
00079              -3.80   -12400.00
00080              -3.40   -12200.00
00081              -3.40   -12200.00
00082              -3.60   -12000.00
00083              -1.80   -12000.00
00084              -3.40   -11600.00
00085              -3.60   -11800.00
00086              -1.60   -11600.00
00087              -2.60   -11600.00
00088              -2.60   -11400.00
00089              -1.80   -11200.00
00090              -2.00   -11000.00
00091              -2.00   -10800.00
00092              -1.40   -10800.00
00093              -1.80   -10600.00
00094              -1.60   -10600.00
00095              -1.20   -10400.00
00096              -1.00   -10000.00
00097              -1.20   -10000.00
00098              -1.40    -9800.00
00099              -1.80    -9600.00
00100              -1.20    -9400.00
00101              -1.20    -9200.00
00102              -1.20    -9200.00
00103              -1.40    -9000.00
00104              -1.20    -8800.00
00105              -0.60    -8600.00
00106              -1.20    -8400.00
00107              -1.00    -8200.00
00108              -0.40    -8000.00
00109              -1.00    -7600.00
00110              -0.40    -7600.00
00111              -0.40    -7400.00
00112              -2.00    -7200.00
00113              -1.20    -6800.00
00114              -0.40    -6600.00
00115              -0.60    -6400.00
00116              -0.80    -6200.00
00117              -0.60    -6000.00
00118              -0.60    -5600.00
00119              -0.80    -5800.00
00120              -1.20    -5200.00
00121              -0.20    -5200.00
00122              -0.40    -5000.00
00123              -0.60    -4600.00
00124              -0.20    -4400.00
00125              -0.60    -4400.00
00126              -1.20    -4000.00
00127               0.20    -3600.00
00128               0.00    -3600.00
00129              -1.00    -3200.00
00130              -0.20    -3200.00
00131              -0.60    -2800.00
00132              -1.00    -2400.00
00133               0.20    -2200.00
00134              -0.60    -2000.00
00135              -0.60    -1800.00
00136              -0.20    -1600.00
00137              -0.80    -1200.00
00138              -0.20    -1000.00
00139              -0.20     -600.00
00140              -0.40     -400.00
00141              -0.20     -200.00
00142              -0.40        0.00
00143               0.80      200.00
00144               2.60      400.00
00145              -1.20      800.00
00146              -0.60      800.00
00147               1.00     1200.00
00148              -0.40     1400.00
00149              -1.00     1800.00
00150               1.20     1800.00
00151              11.60     2000.00
00152              23.80     2400.00
00153             -25.00     2800.00
00154             -25.00     3200.00
00155              14.60     3600.00
00156             -12.00     3600.00
00157              25.00     3800.00
00158              25.00     3800.00
00159             -25.00     4000.00
00160              25.00     4000.00
00161              25.00     4600.00
00162             -25.00     4600.00
00163              25.00     4800.00
00164              25.00     5200.00
00165             -25.00     5400.00
00166              25.00     5800.00
00167              15.40     6000.00
00168             -23.60     6000.00
00169              18.40     6400.00
00170             -25.00     6800.00
00171              25.00     6800.00
00172              -3.40     7000.00
00173             -25.00     7200.00
00174              25.00     7400.00
00175              -6.20     7800.00
00176             -25.00     8000.00
00177              25.00     8200.00
00178              -7.60     8400.00
00179             -25.00     8600.00
00180              21.20     8600.00
00181               3.80     8800.00
00182              -7.80     9200.00
00183               3.00     9200.00
00184               4.60     9600.00
00185               0.20     9600.00
00186              -3.80     9800.00
00187              -3.40    10000.00
00188              10.00    10200.00
00189               2.20    10400.00
00190              -8.60    10400.00
00191               5.40    10600.00
00192               4.00    10800.00
00193              -8.20    11000.00
00194               1.60    11000.00
00195              11.80    11200.00
00196              -6.40    11400.00
00197              -4.40    11600.00
00198               9.00    11800.00
00199              -1.80    11800.00
00200              -2.20    11800.00
00201               4.60    12200.00
00202               2.60    12200.00
00203              -1.40    12200.00
00204               0.20    12400.00
00205               2.60    12400.00
00206               0.60    12600.00
00207               1.00    12600.00
00208               2.20    12600.00
00209               1.40    12800.00
00210              -1.00    12800.00
00211               1.20    13000.00
00212               3.60    12800.00
00213               1.20    13200.00
00214               1.00    13200.00
00215               1.80    13200.00
00216               2.20    13200.00
00217               2.40    13400.00
00218               1.40    13200.00
00219               3.60    13400.00
00220               2.60    13400.00
00221               1.40    13400.00
00222               4.60    13400.00
00223               2.80    13600.00
00224               2.60    13400.00
00225               5.80    13400.00
00226               4.20    13400.00
00227               3.40    13400.00
00228               5.60    13600.00
00229               5.80    13400.00
00230               4.40    13400.00
00231               6.60    13400.00
00232               8.60    13400.00
00233               5.20    13400.00
00234               6.40    13200.00
00235               9.60    13200.00
00236               9.20    13200.00
00237               9.00    13200.00
00238              10.00    13000.00
00239               9.60    13200.00
00240               5.80    12800.00
00241               5.00    12800.00
00242               4.60    12800.00
00243               3.60    12800.00
00244               4.20    12600.00
00245               2.80    12600.00
00246               2.80    12600.00
00247               3.40    12400.00
00248               2.60    12400.00
00249               3.40    12200.00
00250               2.60    12000.00
00251               1.60    12000.00
00252               2.20    12000.00
00253               2.20    11600.00
00254               1.80    11600.00
00255               1.80    11400.00
00256               1.20    11200.00
00257               1.00    11000.00
00258               1.60    11000.00
00259               1.40    10800.00
00260               0.40    10800.00
00261               0.40    10600.00
00262               1.80    10400.00
00263               1.00    10200.00
00264               1.00    10200.00
00265               1.20    10000.00
00266               0.40     9800.00
00267               0.40     9600.00
00268               0.40     9400.00
00269               0.80     9200.00
00270               0.40     9000.00
00271               0.40     8800.00
00272               0.60     8600.00
00273               0.20     8400.00
00274              -0.60     8200.00
00275               0.20     8000.00
00276               1.40     8000.00
00277               0.40     7600.00
00278              -1.20     7600.00
00279               0.40     7200.00
00280               1.00     7000.00
00281              -0.20     6800.00
00282               0.20     6400.00
00283               0.20     6400.00
00284              -0.60     6200.00
00285              -0.20     6000.00
00286              -0.20     6000.00
00287               0.00     5600.00
00288               0.20     5200.00
00289              -0.60     5000.00
00290              -0.20     4600.00
00291               0.40     4600.00
00292              -0.40     4400.00
00293              -0.20     4000.00
00294               0.40     3800.00
00295              -0.40     3600.00
00296              -0.20     3200.00
00297              -0.60     3000.00
00298              -0.40     2800.00
00299               0.60     2400.00
00300              -0.20     2400.00
00301              -1.20     2000.00
00302              -0.20     1800.00
00303               0.40     1600.00
00304              -0.40     1200.00
00305               0.20     1200.00
00306              -0.40      800.00
00307              -0.60      600.00
00308              -0.20      400.00
00309               0.00        0.00
00310               1.00     -200.00
00311               2.20     -400.00
00312              -1.00     -600.00
00313              -1.20     -800.00
00314               0.60    -1000.00
00315              -0.20    -1200.00
00316              -1.00    -1400.00
00317               1.60    -1800.00
00318               5.00    -2000.00
00319              17.40    -2000.00
00320               3.20    -2400.00
00321             -25.00    -3000.00
00322              -8.60    -3400.00
00323              12.60    -4000.00
00324             -22.00    -4000.00
00325              25.00    -3600.00
00326              25.00    -3800.00
00327             -25.00    -4200.00
00328              25.00    -4200.00
00329              25.00    -4400.00
00330             -25.00    -5000.00
00331              25.00    -5200.00
00332              25.00    -5400.00
00333             -25.00    -5600.00
00334              16.20    -5800.00
00335              -4.40    -6200.00
00336              -3.60    -6200.00
00337              13.00    -6600.00
00338             -25.00    -6800.00
00339              25.00    -7000.00
00340              -5.00    -7200.00
00341             -25.00    -7400.00
00342              25.00    -7600.00
00343               0.40    -8000.00
00344             -25.00    -8000.00
00345              25.00    -8200.00
00346               5.80    -8400.00
00347             -25.00    -8800.00
00348              16.40    -8800.00
00349               8.40    -9000.00
00350             -17.20    -9200.00
00351               8.20    -9200.00
00352               3.60    -9600.00
00353              -9.40    -9800.00
00354               1.20   -10000.00
00355              -2.00   -10000.00
00356               1.40   -10200.00
00357               3.40   -10400.00
00358              -7.40   -10400.00
00359               0.60   -10600.00
00360               3.40   -10800.00
00361              -7.00   -11000.00
00362              -1.40   -11200.00
00363               6.60   -11400.00
00364              -5.40   -11400.00
00365              -6.20   -11600.00
00366               4.60   -11600.00
00367              -2.60   -11800.00
00368              -5.00   -12000.00
00369               2.80   -12000.00
00370              -0.80   -12200.00
00371              -4.20   -12200.00
00372               0.20   -12400.00
00373              -1.80   -12400.00
00374              -2.00   -12400.00
00375              -1.00   -12600.00
00376              -2.20   -12600.00
00377              -1.20   -12800.00
00378              -2.80   -12800.00
00379              -2.40   -13000.00
00380              -0.80   -13000.00
00381              -2.60   -13000.00
00382              -3.00   -13200.00
00383              -2.20   -13200.00
00384              -1.40   -13200.00
00385              -3.40   -13200.00
00386              -3.40   -13200.00
00387              -2.00   -13200.00
00388              -4.00   -13200.00
00389              -3.80   -13200.00
00390              -2.80   -13200.00
00391              -5.00   -13200.00
00392              -5.00   -13200.00
00393              -4.00   -13200.00
00394              -4.80   -13200.00
00395              -6.60   -13600.00
00396              -6.20   -13200.00
00397              -5.40   -13400.00
00398              -7.00   -13200.00
00399              -6.40   -13200.00
00400              -6.80   -13200.00
00401              -9.00   -13200.00
00402              -8.40   -13200.00
00403              -8.60   -13200.00
00404             -10.60   -13000.00
00405             -11.00   -13000.00
00406              -8.20   -13000.00
00407              -6.00   -12800.00
00408              -6.20   -12800.00
00409              -5.20   -12800.00
00410              -4.20   -12600.00
00411              -4.00   -12600.00
00412              -4.40   -12600.00
00413              -3.60   -12400.00
00414              -3.80   -12200.00
00415              -3.60   -12400.00
00416              -2.60   -12000.00
00417              -2.40   -12000.00
00418              -3.80   -12000.00
00419              -2.80   -11600.00
00420              -2.00   -11600.00
00421              -2.60   -11400.00
00422              -2.00   -11400.00
00423              -2.00   -11200.00
00424              -2.00   -11000.00
00425              -2.00   -10800.00
00426              -1.40   -10800.00
00427              -1.40   -10600.00
00428              -2.20   -10400.00
00429              -1.20   -10200.00
00430              -1.00   -10000.00
00431              -1.80   -10000.00
00432              -1.40    -9800.00
00433              -1.00    -9600.00
00434              -1.20    -9400.00
00435              -1.20    -9200.00
00436              -0.80    -9200.00
00437              -0.60    -8800.00
00438              -1.40    -8800.00
00439              -0.80    -8400.00
00440              -0.60    -8400.00
00441              -1.80    -8200.00
00442              -1.20    -8000.00
00443              -0.60    -7600.00
00444              -0.60    -7600.00
00445              -1.20    -7400.00
00446              -0.80    -7200.00
00447              -0.60    -6800.00
00448              -0.60    -6600.00
00449              -0.60    -6400.00
00450              -0.40    -6000.00
00451              -0.60    -6000.00
00452              -0.40    -5600.00
00453              -0.60    -5600.00
00454              -0.60    -5200.00
00455              -1.00    -5000.00
00456              -0.60    -5000.00
00457              -0.40    -4600.00
00458              -0.60    -4400.00
00459              -1.20    -4200.00
00460              -0.40    -4000.00
00461              -0.40    -3600.00
00462              -0.40    -3600.00
00463              -0.20    -3200.00
00464              -0.40    -3000.00
00465              -0.40    -2800.00
00466              -0.40    -2600.00
00467              -0.60    -2000.00
00468              -0.60    -2000.00
00469              -0.60    -1800.00
00470              -1.00    -1600.00
00471              -0.60    -1200.00
00472              -0.60    -1000.00
00473              -1.00     -800.00
00474              -0.40     -400.00
00475              -0.40     -400.00
00476              -0.20        0.00
00477               1.20      200.00
00478               2.00      600.00
00479              -1.20      600.00
00480              -0.20      800.00
00481               1.00     1200.00
00482              -0.20     1200.00
00483              -1.00     1600.00
00484               1.20     1800.00
00485              14.00     2000.00
00486              21.40     2400.00
00487             -25.00     2800.00
00488             -25.00     3200.00
00489              15.40     3600.00
00490             -14.20     3600.00
00491              25.00     3600.00
00492              20.40     3800.00
00493             -25.00     4000.00
00494              25.00     4400.00
00495              25.00     4600.00
00496             -25.00     4800.00
00497              25.00     5200.00
00498              25.00     5400.00
00499             -25.00     5400.00
00500              25.00     5600.00
00501               5.80     6000.00
00502             -18.20     6200.00
00503              14.60     6400.00
00504             -25.00     6600.00
00505              25.00     6800.00
00506             -18.80     7000.00
00507             -25.00     7200.00
00508              25.00     7600.00
00509             -23.40     7800.00
00510             -25.00     8000.00
00511              25.00     8200.00
00512             -17.40     8400.00
00513             -25.00     8600.00
00514              22.80     8800.00
00515               1.00     9000.00
00516              -7.00     9000.00
00517               3.60     9400.00
00518               4.20     9400.00
00519              -0.60     9600.00
00520              -4.60    10000.00
00521              -2.00    10000.00
00522              10.20    10000.00
00523               0.20    10400.00
00524              -7.40    10400.00
00525               6.60    10800.00
00526               2.60    10800.00
00527              -7.80    11000.00
00528               3.20    11200.00
00529              10.60    11200.00
00530              -7.60    11400.00
00531              -2.60    11600.00
00532               9.00    11800.00
00533              -3.40    11800.00
00534              -1.40    11800.00
00535               5.00    12000.00
00536               1.00    12200.00
00537              -2.00    12400.00
00538               1.00    12400.00
00539               2.00    12600.00
00540               0.60    12600.00
00541               1.40    12800.00
00542               2.00    12800.00
00543               1.80    12800.00
00544              -1.00    12800.00
00545               1.40    12800.00
00546               3.80    13000.00
00547               0.20    13000.00
00548               1.40    13200.00
00549               2.60    13200.00
00550               0.60    13200.00
00551               2.20    13400.00
00552               2.80    13200.00
00553               2.00    13400.00
00554               2.60    13400.00
00555               3.60    13400.00
00556               3.00    13400.00
00557               2.60    13600.00
00558               4.40    13400.00
00559               4.20    13400.00
00560               4.40    13400.00
00561               5.40    13400.00
00562               3.40    13600.00
00563               5.40    13400.00
00564               7.00    13600.00
00565               5.40    13400.00
00566               6.80    13400.00
00567               6.60    13400.00
00568               6.80    13400.00
00569               8.60    13200.00
00570               9.20    13200.00
00571               9.20    13200.00
00572              10.20    12800.00
00573               9.40    13200.00
00574               5.40    13000.00
00575               5.00    12800.00
00576               4.80    13000.00
00577               3.80    12800.00
00578               4.40    12600.00
00579               2.80    12600.00
00580               3.00    12600.00
00581               3.00    12400.00
00582               2.00    12400.00
00583               3.60    12000.00
00584               2.60    12000.00
00585               1.40    12000.00
00586               2.80    11800.00
00587               2.20    11800.00
00588               1.00    11600.00
00589               1.80    11400.00
00590               2.00    11200.00
00591               0.40    11200.00
00592               1.40    11000.00
00593               1.80    10800.00
00594              -0.40    10800.00
00595               0.60    10400.00
00596               2.20    10400.00
00597               0.40    10200.00
00598               0.80    10000.00
00599               1.20    10000.00
00600              -0.40     9600.00
00601               0.80     9600.00
00602               1.40     9400.00
00603              -0.20     9200.00
00604               0.40     9000.00
00605               0.80     8800.00
00606              -0.20     8600.00
00607              -0.20     8400.00
00608               0.40     8400.00
00609               0.20     8000.00
00610               0.60     7800.00
00611               0.40     7800.00
00612              -0.60     7400.00
00613               0.20     7200.00
00614               0.20     7000.00
00615               0.20     6800.00
00616               0.60     6400.00
00617              -0.40     6200.00
00618              -0.40     6000.00
00619               0.40     6000.00
00620              -0.20     5600.00
00621              -0.40     5400.00
00622               0.40     5200.00
00623              -0.20     5000.00
00624              -0.20     4800.00
00625               0.40     4400.00
00626              -0.40     4000.00
00627              -0.40     4000.00
00628               0.40     3600.00
00629              -0.20     3400.00
00630              -0.40     3400.00
00631              -0.40     3000.00
00632              -0.20     2800.00
00633               0.20     2600.00
00634               0.20     2400.00
00635              -0.60     2000.00
00636               0.00     2000.00
00637               0.20     1600.00
00638              -0.40     1200.00
00639              -0.40     1200.00
00640              -0.20      800.00
00641              -0.60      400.00
00642              -0.20      200.00
00643               0.20        0.00
00644               0.60     -200.00
00645               1.80     -400.00
00646              -1.00     -600.00
00647              -0.60    -1000.00
00648               1.00    -1000.00
00649               0.20    -1200.00
00650              -1.00    -1600.00
00651               1.40    -1800.00
00652               6.20    -2000.00
00653              18.60    -2000.00
00654              -1.80    -2600.00
00655             -25.00    -3000.00
00656              -4.60    -3400.00
00657              10.40    -3800.00
00658             -22.40    -4000.00
00659              25.00    -3800.00
00660              14.40    -3800.00
00661             -25.00    -4000.00
00662              25.00    -4200.00
00663              25.00    -4400.00
00664             -25.00    -4800.00
00665              25.00    -5000.00
00666              25.00    -5600.00
00667             -25.00    -5800.00
00668              19.40    -5800.00
00669              -9.00    -6000.00
00670               0.60    -6400.00
00671               8.40    -6600.00
00672             -24.60    -6800.00
00673              25.00    -7000.00
00674             -14.80    -7200.00
00675             -25.00    -7400.00
00676              25.00    -7600.00
00677             -10.00    -7800.00
00678             -25.00    -8000.00
00679              25.00    -8200.00
00680              -1.40    -8400.00
00681             -25.00    -8800.00
00682              19.80    -9000.00
00683               4.60    -9000.00
00684             -16.40    -9200.00
00685               9.80    -9600.00
00686               1.40    -9600.00
00687              -9.20    -9600.00
00688               1.80    -9800.00
00689              -2.60   -10000.00
00690               2.00   -10000.00
00691               2.00   -10400.00
00692              -7.00   -10600.00
00693               1.20   -10600.00
00694               2.60   -10800.00
00695              -6.80   -11000.00
00696              -1.00   -11200.00
00697               6.20   -11400.00
00698              -5.00   -11400.00
00699              -5.40   -11600.00
00700               4.20   -11600.00
00701              -2.40   -11800.00
00702              -5.00   -12000.00
00703               2.00   -12000.00
00704              -0.40   -12200.00
00705              -3.80   -12400.00
00706              -0.80   -12200.00
00707              -0.80   -12400.00
00708              -1.20   -12400.00
00709              -2.20   -12600.00
00710              -1.80   -12800.00
00711              -0.40   -12800.00
00712              -3.40   -12800.00
00713              -1.80   -13000.00
00714              -0.20   -13000.00
00715              -2.80   -13000.00
00716              -3.00   -13200.00
00717              -2.00   -13200.00
00718              -2.20   -13200.00
00719              -3.00   -13200.00
00720              -3.20   -13200.00
00721              -2.20   -13200.00
00722              -4.40   -13200.00
00723              -2.80   -13200.00
00724              -2.60   -13200.00
00725              -6.20   -13200.00
00726              -3.80   -13400.00
00727              -3.00   -13200.00
00728              -6.80   -13400.00
00729              -5.00   -13200.00
00730              -4.80   -13200.00
00731              -8.40   -13200.00
00732              -6.60   -13200.00
00733              -6.00   -13200.00
00734              -9.00   -13200.00
00735              -8.00   -13200.00
00736              -7.80   -13200.00
00737             -10.60   -13000.00
00738             -10.40   -13000.00
00739             -10.60   -13000.00
00740              -8.20   -12800.00
00741              -5.00   -13000.00
00742              -6.80   -12800.00
00743              -5.00   -12800.00
00744              -3.60   -12800.00
00745              -5.40   -12600.00
00746              -3.00   -12400.00
00747              -3.00   -12400.00
00748              -5.20   -12200.00
00749              -3.60   -12200.00
00750              -2.60   -12000.00
00751              -3.60   -12000.00
00752              -2.80   -12000.00
00753              -1.40   -11600.00
00754              -2.80   -11600.00
00755              -2.20   -11400.00
00756              -1.20   -11200.00
00757              -2.20   -11200.00
00758              -1.60   -11200.00
00759              -0.60   -11000.00
00760              -1.20   -10800.00
00761              -2.20   -10600.00
00762              -2.00   -10400.00
00763              -1.20   -10400.00
00764              -1.40   -10200.00
00765              -1.80   -10000.00
00766              -1.20    -9800.00
00767              -1.80    -9800.00
00768              -1.80    -9600.00
00769              -0.60    -9200.00
00770              -0.60    -9200.00
00771              -1.40    -9000.00
00772              -1.00    -8800.00
00773               0.00    -8400.00
00774              -1.20    -8200.00
00775              -2.00    -8200.00
00776              -0.40    -8000.00
00777              -0.40    -7800.00
00778              -1.40    -7400.00
00779              -0.60    -7200.00
00780              -0.60    -7200.00
00781              -2.00    -6800.00
00782               0.20    -6600.00
00783               0.20    -6400.00
00784              -1.80    -6400.00
00785              -0.40    -6000.00
00786               0.40    -5800.00
00787              -2.00    -5600.00
00788              -1.00    -5200.00
00789               1.00    -5000.00
00790              -1.20    -4800.00
00791              -1.20    -4600.00
00792               0.40    -4200.00
00793              -1.20    -4000.00
00794              -1.20    -4000.00
00795               0.00    -3600.00
00796              -0.40    -3400.00
00797              -0.60    -3200.00
00798              -0.60    -2800.00
00799              -1.00    -2600.00
00800              -0.40    -2400.00
00801              -0.60    -2000.00
00802              -0.60    -2000.00
00803               0.20    -1800.00
00804              -1.20    -1600.00
00805              -0.60    -1200.00
00806               0.40    -1000.00
00807              -2.00     -800.00
00808              -0.60     -400.00
00809               0.60     -200.00
00810              -1.20        0.00
00811               1.40      400.00
00812               2.20      600.00
00813              -2.60      600.00
00814              -0.60     1000.00
00815               1.40     1200.00
00816              -0.80     1400.00
00817              -0.40     1800.00
00818               2.00     1800.00
00819              15.80     2000.00
00820              18.20     2400.00
00821             -25.00     2800.00
00822             -24.20     3200.00
00823              15.00     3600.00
00824             -13.40     3600.00
00825              25.00     3800.00
00826               5.60     3800.00
00827             -25.00     3800.00
00828              25.00     4200.00
00829              25.00     4600.00
00830             -25.00     4800.00
00831              25.00     5000.00
00832              25.00     5400.00
00833             -25.00     5600.00
00834              25.00     5800.00
00835              -4.20     6000.00
00836              -9.60     6200.00
00837               7.60     6600.00
00838             -24.20     6800.00
00839              25.00     6800.00
00840             -25.00     7200.00
00841             -25.00     7200.00
00842              25.00     7600.00
00843             -25.00     7800.00
00844             -25.00     8000.00
00845              25.00     8400.00
00846             -25.00     8600.00
00847             -20.40     8600.00
00848              23.00     8800.00
00849              -1.00     9000.00
00850              -6.60     9200.00
00851               4.20     9400.00
00852               4.40     9400.00
00853              -1.20     9800.00
00854              -5.40    10000.00
00855              -0.40    10000.00
00856              10.20    10200.00
00857              -2.20    10400.00
00858              -6.80    10400.00
00859               7.80    10600.00
00860               1.00    11000.00
00861              -8.60    11000.00
00862               5.40    11200.00
00863               9.80    11400.00
00864              -9.40    11600.00
00865               0.00    11600.00
00866               8.40    11800.00
00867              -4.60    11800.00
00868              -0.20    12000.00
00869               4.60    12000.00
00870               0.00    12200.00
00871              -1.40    12400.00
00872               1.20    12400.00
00873               1.60    12400.00
00874               0.60    12600.00
00875               1.00    12800.00
00876               2.20    12800.00
00877               2.20    12800.00
00878              -2.00    12800.00
00879               1.80    12800.00
00880               4.40    13200.00
00881              -0.40    13200.00
00882               1.40    13200.00
00883               2.80    13200.00
00884               0.60    13200.00
00885               1.80    13200.00
00886               3.00    13200.00
00887               2.60    13400.00
00888               1.60    13400.00
00889               3.60    13400.00
00890               4.20    13400.00
00891               1.80    13600.00
00892               4.20    13400.00
00893               5.40    13400.00
00894               4.40    13600.00
00895               4.20    13400.00
00896               4.60    13400.00
00897               6.40    13400.00
00898               5.60    13400.00
00899               6.60    13400.00
00900               7.80    13200.00
00901               5.80    13400.00
00902               7.40    13200.00
00903               9.20    13200.00
00904               8.40    13200.00
00905               9.40    13200.00
00906              10.80    13200.00
00907               9.00    13000.00
00908               5.20    12800.00
00909               4.60    12800.00
00910               5.00    12800.00
00911               4.00    12600.00
00912               4.20    12600.00
00913               3.60    12600.00
00914               3.40    12600.00
00915               2.60    12400.00
00916               2.20    12400.00
00917               3.40    12200.00
00918               2.80    12000.00
00919               1.60    12000.00
00920               2.00    11800.00
00921               2.00    11600.00
00922               1.20    11600.00
00923               1.20    11400.00
00924               2.20    11200.00
00925               1.20    11000.00
00926               1.20    10800.00
00927               2.00    10800.00
00928               0.20    10800.00
00929               0.60    10600.00
00930               2.00    10200.00
00931               0.60    10200.00
00932               0.20    10000.00
00933               0.40     9800.00
00934               0.40     9600.00
00935               1.00     9400.00
00936               0.40     9400.00
00937              -0.20     9200.00
00938               0.40     9000.00
00939               0.40     8800.00
00940               0.60     8600.00
00941               0.20     8400.00
00942               0.40     8400.00
00943               0.40     8000.00
00944               0.60     7800.00
00945               0.20     7600.00
00946              -0.20     7400.00
00947               0.20     7200.00
00948              -0.40     6800.00
00949               0.20     6800.00
00950              -0.20     6400.00
00951              -0.60     6400.00
00952               0.20     6200.00
00953               0.40     6000.00
00954              -0.40     5600.00
00955               0.40     5600.00
00956               0.20     5200.00
00957               0.40     4800.00
00958               0.40     4600.00
00959               0.20     4400.00
00960               0.20     4200.00
00961              -0.20     4000.00
00962              -0.60     3600.00
00963               0.20     3400.00
00964              -0.20     3200.00
00965              -0.60     3000.00
00966               0.20     2800.00
00967              -0.20     2600.00
00968               0.20     2400.00
00969              -0.20     2000.00
00970              -0.60     1600.00
00971               0.60     1600.00
00972               0.20     1200.00
00973              -0.60     1200.00
00974               0.20      800.00
00975              -0.40      400.00
00976              -1.00      400.00
00977               0.60        0.00
00978               2.00     -200.00
00979               0.80     -400.00
00980              -1.40     -800.00
00981              -0.20     -800.00
00982               0.60    -1000.00
00983              -0.60    -1400.00
00984              -0.40    -1600.00
00985               2.60    -1600.00
00986               6.00    -2000.00
00987              19.20    -2000.00
00988              -5.60    -2600.00
00989             -25.00    -3000.00
00990              -0.60    -3600.00
00991               7.80    -3800.00
00992             -22.00    -4000.00
00993              25.00    -3800.00
00994               1.20    -3800.00
00995             -25.00    -4200.00
00996              25.00    -4400.00
00997              13.80    -4800.00
00998             -25.00    -5000.00
00999              25.00    -5200.00
01000              18.00    -5600.00
01001             -25.00    -5800.00
01002              22.20    -5800.00
01003             -14.60    -6000.00
01004               5.20    -6400.00
01005               3.40    -6600.00
01006             -20.20    -6600.00
01007              25.00    -7000.00
01008             -25.00    -7200.00
01009             -25.00    -7400.00
01010              25.00    -7600.00
01011             -22.00    -8000.00
01012             -25.00    -8200.00
01013              25.00    -8400.00
01014             -10.20    -8400.00
01015             -25.00    -8800.00
01016              22.80    -9000.00
01017               0.20    -9000.00
01018             -14.40    -9200.00
01019              12.20    -9400.00
01020              -1.20    -9600.00
01021              -7.80    -9800.00
01022               2.20    -9800.00
01023              -2.80   -10000.00
01024               2.80   -10200.00
01025               1.00   -10400.00
01026              -7.40   -10600.00
01027               2.60   -10600.00
01028               0.80   -10800.00
01029              -7.60   -11000.00
01030               1.80   -11200.00
01031               5.00   -11200.00
01032              -6.40   -11600.00
01033              -2.80   -11600.00
01034               3.40   -11600.00
01035              -3.40   -12000.00
01036              -2.20   -12000.00
01037               1.80   -12000.00
01038              -1.00   -12200.00
01039              -3.40   -12200.00
01040              -1.40   -12400.00
01041              -1.20   -12400.00
01042              -2.20   -12400.00
01043              -0.80   -12600.00
01044              -0.80   -12800.00
01045              -2.80   -12800.00
01046              -2.60   -12800.00
01047              -1.40   -13000.00
01048              -1.00   -13000.00
01049              -1.80   -13200.00
01050              -3.20   -13000.00
01051              -2.20   -13200.00
01052              -1.20   -13200.00
01053              -5.00   -13200.00
01054              -2.80   -13200.00
01055              -1.80   -13200.00
01056              -5.40   -13200.00
01057              -2.80   -13200.00
01058              -3.80   -13200.00
01059              -5.80   -13200.00
01060              -3.00   -13200.00
01061              -5.40   -13200.00
01062              -5.20   -13400.00
01063              -5.20   -13200.00
01064              -7.80   -13200.00
01065              -5.40   -13400.00
01066              -6.00   -13200.00
01067              -8.40   -13200.00
01068              -7.00   -13200.00
01069              -8.40   -13200.00
01070              -9.80   -13200.00
01071              -9.40   -13200.00
01072             -10.20   -13000.00
01073             -11.00   -13000.00
01074              -7.40   -13000.00
01075              -6.00   -13000.00
01076              -6.00   -12800.00
01077              -4.40   -12600.00
01078              -4.60   -12600.00
01079              -4.20   -12600.00
01080              -3.40   -12400.00
01081              -4.00   -12400.00
01082              -3.80   -12200.00
01083              -3.00   -12200.00
01084              -2.80   -12000.00
01085              -3.00   -12000.00
01086              -2.60   -11600.00
01087              -2.20   -11800.00
01088              -2.80   -11600.00
01089              -2.20   -11400.00
01090              -1.80   -11200.00
01091              -2.20   -11200.00
01092              -1.80   -11000.00
01093              -1.20   -10800.00
01094              -1.20   -10800.00
01095              -2.20   -10600.00
01096              -1.80   -10400.00
01097              -0.60   -10200.00
01098              -1.20   -10000.00
01099              -1.20    -9800.00
01100              -1.20    -9800.00
01101              -1.60    -9600.00
01102              -1.00    -9400.00
01103              -1.00    -9200.00
01104              -1.20    -9200.00
01105              -0.60    -8800.00
01106              -1.20    -8800.00
01107              -0.60    -8400.00
01108              -1.20    -8400.00
01109              -1.20    -8200.00
01110              -0.40    -8000.00
01111              -0.60    -7600.00
01112              -0.60    -7400.00
01113              -0.60    -7200.00
01114              -1.40    -7000.00
01115              -0.40    -6800.00
01116              -0.40    -6600.00
01117              -0.80    -6400.00
01118              -0.60    -6200.00
01119              -1.00    -6000.00
01120              -1.20    -5600.00
01121              -0.60    -5600.00
01122              -1.00    -5400.00
01123              -1.00    -5000.00
01124              -0.40    -5000.00
01125              -0.60    -4400.00
01126              -0.40    -4400.00
01127              -0.60    -4200.00
01128              -0.60    -4000.00
01129              -0.60    -3800.00
01130              -0.60    -3400.00
01131              -0.60    -3200.00
01132              -0.40    -2800.00
01133              -1.20    -2600.00
01134              -1.00    -2400.00
01135               0.20    -2000.00
01136              -1.20    -2000.00
01137              -1.00    -1600.00
01138               0.20    -1600.00
01139              -0.60    -1000.00
01140              -0.20     -800.00
01141              -0.40     -800.00
01142              -1.00     -400.00
01143               0.60     -200.00
01144               0.20        0.00
01145               0.00      400.00
01146               2.20      400.00
01147              -1.40      600.00
01148              -2.20     1000.00
01149               2.20     1200.00
01150              -0.20     1400.00
01151              -2.40     1600.00
01152               3.20     2000.00
01153              19.40     2000.00
01154              13.00     2400.00
01155             -25.00     2800.00
01156             -16.60     3200.00
01157              13.80     3600.00
01158             -14.20     3600.00
01159              25.00     3800.00
01160              -9.20     3800.00
01161             -25.00     4000.00
01162              25.00     4200.00
01163              10.60     4600.00
01164             -25.00     4800.00
01165              25.00     5200.00
01166              25.00     5400.00
01167             -25.00     5600.00
01168              25.00     6000.00
01169             -12.40     6000.00
01170              -3.80     6200.00
01171               2.60     6400.00
01172             -17.80     6600.00
01173              25.00     7000.00
01174             -25.00     7200.00
01175             -25.00     7400.00
01176              25.00     7600.00
01177             -25.00     7800.00
01178             -14.00     8200.00
01179              25.00     8400.00
01180             -25.00     8400.00
01181             -13.80     8800.00
01182              22.60     8800.00
01183              -4.20     9000.00
01184              -5.00     9200.00
01185               5.20     9400.00
01186               2.40     9400.00
01187              -1.00     9600.00
01188              -4.60     9600.00
01189              -0.20    10000.00
01190              10.20    10200.00
01191              -3.60    10400.00
01192              -6.20    10600.00
01193               8.40    10800.00
01194               0.00    10800.00
01195              -9.20    11200.00
01196               6.80    11200.00
01197               8.40    11400.00
01198             -10.60    11600.00
01199               1.40    11600.00
01200               7.40    11600.00
01201              -5.00    11800.00
01202               0.60    12000.00
01203               4.40    12000.00
01204               0.40    12200.00
01205              -0.80    12200.00
01206               1.20    12400.00
01207               2.00    12600.00
01208               0.20    12600.00
01209               1.20    12600.00
01210               3.00    12800.00
01211               0.60    12800.00
01212              -1.20    12800.00
01213               2.60    12800.00
01214               2.40    13000.00
01215               0.40    13200.00
01216               2.80    13200.00
01217               1.00    13200.00
01218               1.20    13200.00
01219               3.80    13200.00
01220               2.80    13400.00
01221               1.80    13400.00
01222               2.00    13400.00
01223               4.20    13400.00
01224               3.60    13400.00
01225               1.40    13400.00
01226               4.60    13400.00
01227               5.20    13400.00
01228               4.20    13600.00
01229               4.40    13400.00
01230               5.00    13400.00
01231               6.00    13400.00
01232               6.00    13400.00
01233               7.20    13400.00
01234               7.60    13400.00
01235               5.40    13400.00
01236               8.40    13400.00
01237               9.40    13200.00
01238               8.20    13200.00
01239               9.40    13200.00
01240              10.80    13000.00
01241               7.40    13000.00
01242               4.60    12800.00
01243               5.80    12800.00
01244               4.40    12800.00
01245               3.60    12800.00
01246               4.60    12600.00
01247               3.20    12600.00
01248               3.00    12600.00
01249               3.20    12400.00
01250               2.80    12200.00
01251               3.60    12200.00
01252               1.80    12000.00
01253               0.80    11800.00
01254               2.60    11800.00
01255               1.80    11800.00
01256               0.60    11600.00
01257               1.60    11200.00
01258               1.40    11200.00
01259               0.60    11200.00
01260               1.60    11000.00
01261               1.20    10800.00
01262               0.40    10800.00
01263               1.60    10400.00
01264               1.20    10400.00
01265               0.80    10200.00
01266               0.80    10000.00
01267               0.20    10000.00
01268               0.80     9600.00
01269               1.00     9400.00
01270              -0.20     9200.00
01271               0.40     9200.00
01272               0.40     9000.00
01273               0.40     8800.00
01274               0.40     8600.00
01275              -0.40     8400.00
01276               0.20     8200.00
01277               1.00     8200.00
01278               0.40     7800.00
01279               0.40     7600.00
01280               0.20     7400.00
01281               0.20     7200.00
01282               0.40     7000.00
01283               0.40     6800.00
01284               0.20     6400.00
01285              -0.20     6400.00
01286               0.00     6000.00
01287               0.20     5800.00
01288              -0.20     5600.00
01289               0.20     5400.00
01290               0.40     5200.00
01291               0.20     4800.00
01292               0.40     4800.00
01293               0.20     4600.00
01294              -0.20     4200.00
01295              -0.20     4000.00
01296               0.40     3600.00
01297               0.40     3400.00
01298              -0.20     3200.00
01299              -0.60     3000.00
01300               0.40     2800.00
01301               0.40     2600.00
01302              -0.20     2200.00
01303              -0.20     2200.00
01304               0.20     1800.00
01305              -0.20     1600.00
01306              -0.40     1200.00
01307               0.00      800.00
01308              -0.40      600.00
01309              -0.20      400.00
01310               0.40      200.00
01311               0.40        0.00
01312               1.20     -200.00
01313               1.20     -400.00
01314              -1.20     -800.00
01315               0.20    -1000.00
01316               1.00    -1200.00
01317              -0.80    -1400.00
01318              -0.60    -1600.00
01319               1.60    -1800.00
01320               6.80    -2000.00
01321              19.80    -2200.00
01322             -10.80    -2600.00
01323             -25.00    -3200.00
01324               3.40    -3600.00
01325               3.80    -4000.00
01326             -18.00    -4000.00
01327              25.00    -3600.00
01328             -13.00    -4000.00
01329             -25.00    -4200.00
01330              25.00    -4400.00
01331              -3.80    -4600.00
01332             -25.00    -5000.00
01333              25.00    -5200.00
01334               4.20    -5600.00
01335             -25.00    -5600.00
01336              22.00    -5800.00
01337             -18.60    -6000.00
01338              11.60    -6400.00
01339              -2.60    -6600.00
01340             -14.60    -6800.00
01341              25.00    -7000.00
01342             -25.00    -7200.00
01343             -21.40    -7400.00
01344              25.00    -7600.00
01345             -25.00    -8000.00
01346             -20.20    -8200.00
01347              25.00    -8200.00
01348             -17.20    -8400.00
01349             -23.60    -8800.00
01350              22.80    -9000.00
01351              -3.00    -9200.00
01352             -11.60    -9200.00
01353              10.80    -9400.00
01354              -2.60    -9600.00
01355              -5.20    -9800.00
01356               0.40    -9800.00
01357              -2.20   -10000.00
01358               5.20   -10200.00
01359              -1.00   -10400.00
01360              -6.80   -10600.00
01361               3.80   -10800.00
01362              -0.60   -10800.00
01363              -7.60   -11200.00
01364               2.60   -11200.00
01365               5.00   -11400.00
01366              -7.60   -11400.00
01367              -2.20   -11600.00
01368               4.20   -11600.00
01369              -4.60   -12000.00
01370              -2.80   -12000.00
01371               3.00   -12000.00
01372              -2.20   -12200.00
01373              -2.80   -12200.00
01374              -0.40   -12400.00
01375              -1.80   -12400.00
01376              -1.40   -12400.00
01377              -1.40   -12800.00
01378              -1.20   -12800.00
01379              -2.00   -12800.00
01380              -3.40   -13000.00
01381              -0.60   -13000.00
01382              -1.00   -13000.00
01383              -3.80   -13200.00
01384              -2.00   -13200.00
01385              -2.20   -13200.00
01386              -3.00   -13200.00
01387              -2.80   -13200.00
01388              -2.40   -13200.00
01389              -3.40   -13400.00
01390              -4.00   -13400.00
01391              -3.40   -13200.00
01392              -4.20   -13200.00
01393              -4.40   -13200.00
01394              -4.60   -13400.00
01395              -5.20   -13200.00
01396              -5.20   -13200.00
01397              -6.80   -13200.00
01398              -6.60   -13200.00
01399              -5.40   -13200.00
01400              -7.40   -13200.00
01401              -7.00   -13200.00
01402              -7.40   -13200.00
01403              -9.20   -13200.00
01404              -9.00   -13000.00
01405              -9.20   -13200.00
01406             -10.40   -13000.00
01407             -10.60   -13000.00
01408              -7.60   -12800.00
01409              -5.40   -12800.00
01410              -5.20   -12800.00
01411              -5.60   -12800.00
01412              -4.40   -12600.00
01413              -3.40   -12600.00
01414              -4.60   -12400.00
01415              -3.80   -12400.00
01416              -2.80   -12400.00
01417              -3.60   -12200.00
01418              -2.20   -12000.00
01419              -2.00   -12000.00
01420              -2.80   -11600.00
01421              -2.80   -11800.00
01422              -1.40   -11600.00
01423              -2.20   -11400.00
01424              -2.60   -11200.00
01425              -2.00   -11200.00
01426              -1.40   -11000.00
01427              -2.00   -10800.00
01428              -1.40   -10800.00
01429              -1.60   -10600.00
01430              -2.00   -10400.00
01431              -1.20   -10200.00
01432              -0.60   -10000.00
01433              -1.20    -9800.00
01434              -1.20    -9800.00
01435              -1.00    -9600.00
01436              -1.00    -9400.00
01437              -1.20    -9200.00
01438              -0.60    -9000.00
01439              -0.80    -8800.00
01440              -1.20    -8800.00
01441              -1.20    -8400.00
01442              -1.00    -8200.00
01443              -1.20    -8000.00
01444              -0.80    -8000.00
01445              -0.60    -7600.00
01446              -0.20    -7400.00
01447              -1.00    -7200.00
01448              -1.20    -7200.00
01449              -0.40    -6800.00
01450              -1.00    -6600.00
01451              -0.60    -6400.00
01452              -0.60    -6200.00
01453              -1.40    -6000.00
01454              -1.00    -5600.00
01455              -0.60    -5600.00
01456              -1.20    -5200.00
01457              -0.60    -5000.00
01458              -1.20    -4800.00
01459              -0.40    -4600.00
01460              -0.60    -4400.00
01461              -1.40    -4000.00
01462              -0.60    -4000.00
01463              -0.20    -3600.00
01464              -0.60    -3200.00
01465              -0.20    -3200.00
01466              -1.00    -2800.00
01467              -1.20    -2600.00
01468               0.20    -2400.00
01469              -0.40    -2000.00
01470              -1.00    -2000.00
01471              -0.40    -1600.00
01472              -0.60    -1600.00
01473              -0.60    -1200.00
01474              -0.20    -1000.00
01475              -0.60     -600.00
01476               0.00     -400.00
01477               0.20     -200.00
01478              -0.60      200.00
01479               1.80      400.00
01480               1.80      400.00
01481              -2.00      600.00
01482               0.20      800.00
01483               1.20     1200.00
01484              -0.80     1600.00
01485              -0.60     1600.00
01486               3.20     2000.00
01487              21.20     2000.00
01488               8.80     2400.00
01489             -25.00     3000.00
01490             -12.00     3200.00
01491              11.80     3600.00
01492             -10.20     3600.00
01493              25.00     3800.00
01494             -25.00     3800.00
01495             -25.00     4000.00
01496              25.00     4200.00
01497             -13.40     4600.00
01498             -25.00     4800.00
01499              25.00     5200.00
01500               6.60     5400.00
01501             -25.00     5600.00
01502              25.00     5800.00
01503             -20.40     6000.00
01504               2.80     6200.00
01505              -4.60     6400.00
01506              -9.80     6800.00
01507              25.00     6800.00
01508             -25.00     7200.00
01509             -10.20     7200.00
01510              25.00     7600.00
01511             -25.00     7800.00
01512               0.60     8200.00
01513              25.00     8200.00
01514             -25.00     8400.00
01515              -6.80     8600.00
01516              21.20     8800.00
01517              -6.00     9000.00
01518              -3.80     9200.00
01519               5.40     9400.00
01520               1.80     9600.00
01521              -2.00     9600.00
01522              -5.80     9800.00
01523               2.00    10000.00
01524              10.20    10200.00
01525              -5.40    10400.00
01526              -4.20    10600.00
01527               8.80    10800.00
01528              -2.20    10800.00
01529              -7.80    11000.00
01530               9.00    11000.00
01531               6.60    11200.00
01532             -11.00    11600.00
01533               2.80    11600.00
01534               6.00    11800.00
01535              -5.20    11800.00
01536               1.20    12000.00
01537               4.60    12200.00
01538              -0.20    12200.00
01539              -1.80    12200.00
01540               2.60    12400.00
01541               1.80    12600.00
01542               0.20    12600.00
01543               2.00    12600.00
01544               2.20    12800.00
01545              -0.20    12800.00
01546              -1.40    12800.00
01547               3.40    13000.00
01548               2.80    13200.00
01549              -0.20    13200.00
01550               2.20    13200.00
01551               2.20    13200.00
01552               1.20    13400.00
01553               2.60    13400.00
01554               3.40    13200.00
01555               3.00    13400.00
01556               1.80    13400.00
01557               4.00    13400.00
01558               3.60    13200.00
01559               1.80    13400.00
01560               4.80    13600.00
01561               5.20    13400.00
01562               3.80    13600.00
01563               4.60    13400.00
01564               5.00    13400.00
01565               6.00    13400.00
01566               5.80    13400.00
01567               7.00    13400.00
01568               7.00    13200.00
01569               5.80    13200.00
01570               8.20    13400.00
01571               9.20    13200.00
01572               8.60    13200.00
01573              10.00    13200.00
01574              10.20    13200.00
01575               7.80    13000.00
01576               5.20    12800.00
01577               5.00    12800.00
01578               4.20    12600.00
01579               4.20    12600.00
01580               4.20    12600.00
01581               2.80    12600.00
01582               3.00    12400.00
01583               2.60    12400.00
01584               2.60    12200.00
01585               3.40    12000.00
01586               2.00    12000.00
01587               1.40    11800.00
01588               2.00    11800.00
01589               1.80    11600.00
01590               1.40    11600.00
01591               1.20    11400.00
01592               1.60    11200.00
01593               1.40    11000.00
01594               1.20    11000.00
01595               1.00    10800.00
01596               0.40    10600.00
01597               1.00    10400.00
01598               1.40    10400.00
01599               0.40    10200.00
01600               0.60    10000.00
01601               0.80    10000.00
01602               0.20     9600.00
01603               0.20     9400.00
01604               1.80     9400.00
01605               0.20     9200.00
01606              -0.60     8800.00
01607               2.20     8800.00
01608              -0.20     8400.00
01609              -1.40     8600.00
01610               2.00     8200.00
01611               0.20     8000.00
01612              -1.20     7800.00
01613               2.00     7600.00
01614              -0.40     7200.00
01615              -1.20     7200.00
01616               1.40     7000.00
01617               0.60     6800.00
01618              -0.60     6400.00
01619               1.20     6200.00
01620               0.60     6000.00
01621               0.20     6000.00
01622              -0.20     5600.00
01623               0.60     5400.00
01624               0.00     5200.00
01625              -0.40     4800.00
01626               1.00     4600.00
01627              -0.20     4400.00
01628              -1.40     4400.00
01629               0.80     4000.00
01630               0.40     3600.00
01631              -0.60     3400.00
01632               1.00     3200.00
01633               0.40     2800.00
01634              -0.60     2800.00
01635               1.00     2400.00
01636               0.00     2200.00
01637              -1.00     2000.00
01638               0.60     1800.00
01639              -0.20     1600.00
01640              -0.80     1200.00
01641               0.20      800.00
01642              -0.60      600.00
01643              -0.40      400.00
01644               0.40        0.00
01645               0.20        0.00
01646               1.00     -200.00
01647               1.40     -400.00
01648              -1.20     -800.00
01649              -0.60     -800.00
01650               1.40    -1200.00
01651              -0.60    -1400.00
01652              -1.20    -1600.00
01653               2.00    -1800.00
01654               8.20    -2000.00
01655              19.60    -2200.00
01656             -15.40    -2800.00
01657             -25.00    -3200.00
01658               5.80    -3600.00
01659               0.40    -4000.00
01660             -14.00    -4000.00
01661              25.00    -3800.00
01662             -25.00    -4000.00
01663             -25.00    -4200.00
01664              25.00    -4400.00
01665             -21.40    -4800.00
01666             -25.00    -5000.00
01667              25.00    -5200.00
01668              -8.60    -5600.00
01669             -25.00    -5600.00
01670              21.80    -5800.00
01671             -20.20    -6200.00
01672              15.40    -6400.00
01673              -9.00    -6600.00
01674              -7.40    -6800.00
01675              25.00    -7200.00
01676             -25.00    -7200.00
01677             -11.00    -7400.00
01678              25.00    -7800.00
01679             -25.00    -8000.00
01680             -11.80    -8200.00
01681              25.00    -8200.00
01682             -22.80    -8600.00
01683             -19.00    -8800.00
01684              24.40    -9000.00
01685              -6.80    -9200.00
01686              -9.80    -9200.00
01687              12.60    -9400.00
01688              -5.00    -9600.00
01689              -6.00    -9800.00
01690               1.80    -9800.00
01691              -1.80   -10000.00
01692               3.40   -10200.00
01693              -1.00   -10400.00
01694              -5.00   -10600.00
01695               2.00   -10600.00
01696              -1.20   -10800.00
01697              -5.20   -11000.00
01698               3.20   -11200.00
01699               3.40   -11400.00
01700              -6.60   -11400.00
01701              -1.80   -11600.00
01702               1.80   -11800.00
01703              -4.60   -12000.00
01704              -0.80   -12000.00
01705               2.60   -12000.00
01706              -2.80   -12200.00
01707              -2.80   -12200.00
01708              -1.00   -12400.00
01709              -1.80   -12400.00
01710              -1.40   -12400.00
01711              -0.60   -12600.00
01712              -1.20   -12800.00
01713              -3.60   -12800.00
01714              -3.60   -12800.00
01715               0.60   -13000.00
01716              -1.40   -13000.00
01717              -3.40   -13000.00
01718              -0.80   -13000.00
01719              -4.20   -13200.00
01720              -4.40   -13200.00
01721              -1.80   -13200.00
01722              -3.20   -13200.00
01723              -3.80   -13200.00
01724              -2.60   -13200.00
01725              -4.20   -13400.00
01726              -4.00   -13200.00
01727              -2.80   -13200.00
01728              -5.00   -13400.00
01729              -4.60   -13200.00
01730              -5.00   -13200.00
01731              -8.60   -13400.00
01732              -6.60   -13400.00
01733              -4.80   -13200.00
01734              -7.60   -13200.00
01735              -7.00   -13200.00
01736              -7.60   -13200.00
01737              -9.40   -13200.00
01738              -8.60   -13200.00
01739              -9.00   -13000.00
01740             -10.00   -13200.00
01741              -9.80   -13000.00
01742              -7.40   -13000.00
01743              -6.00   -13000.00
01744              -5.40   -12800.00
01745              -5.20   -12800.00
01746              -5.20   -12600.00
01747              -2.80   -12400.00
01748              -3.60   -12400.00
01749              -4.40   -12400.00
01750              -3.00   -12400.00
01751              -3.00   -12200.00
01752              -2.60   -12000.00
01753              -2.80   -11800.00
01754              -2.60   -12000.00
01755              -2.00   -11600.00
01756              -1.80   -11400.00
01757              -2.20   -11400.00
01758              -2.40   -11400.00
01759              -1.40   -11000.00
01760              -2.00   -10800.00
01761              -2.20   -11000.00
01762              -0.80   -10600.00
01763              -1.40   -10600.00
01764              -2.20   -10400.00
01765              -1.20   -10400.00
01766              -0.40   -10000.00
01767              -1.20    -9800.00
01768              -1.20    -9600.00
01769              -0.40    -9600.00
01770              -1.20    -9400.00
01771              -2.20    -9200.00
01772              -1.20    -9000.00
01773              -0.60    -8800.00
01774              -1.00    -8600.00
01775              -0.60    -8400.00
01776              -0.60    -8200.00
01777              -2.20    -8200.00
01778              -1.40    -8000.00
01779              -0.40    -7600.00
01780              -0.60    -7400.00
01781              -1.00    -7200.00
01782              -0.60    -7000.00
01783              -1.60    -6800.00
01784              -0.60    -6600.00
01785               0.20    -6400.00
01786              -1.20    -6200.00
01787              -1.00    -6000.00
01788              -0.40    -5800.00
01789              -0.60    -5600.00
01790              -1.00    -5200.00
01791              -0.60    -5000.00
01792              -0.40    -4600.00
01793              -0.40    -4600.00
01794              -1.40    -4400.00
01795              -0.60    -4000.00
01796              -0.20    -4000.00
01797              -1.00    -3600.00
01798              -0.60    -3400.00
01799              -0.40    -3200.00
01800              -1.40    -2800.00
01801              -0.40    -2600.00
01802               0.40    -2400.00
01803              -0.40    -2000.00
01804              -0.60    -1800.00
01805              -0.40    -1800.00
01806              -0.60    -1400.00
01807              -0.60    -1000.00
01808              -0.40    -1000.00
01809              -0.40     -600.00
01810              -0.40     -400.00
01811              -0.40     -200.00
01812               0.00        0.00
01813               1.40      400.00
01814               0.60      600.00
01815              -1.20      800.00
01816               0.40      800.00
01817               1.00     1200.00
01818              -0.60     1600.00
01819               0.20     1600.00
01820               3.60     2000.00
01821              23.20     2000.00
01822               3.00     2600.00
01823             -25.00     2800.00
01824              -6.60     3400.00
01825               8.40     3600.00
01826              -5.80     3600.00
01827              25.00     3600.00
01828             -25.00     4000.00
01829             -25.00     4000.00
01830              25.00     4400.00
01831             -25.00     4600.00
01832             -25.00     4800.00
01833              25.00     5200.00
01834             -15.40     5400.00
01835             -25.00     5600.00
01836              25.00     5800.00
01837             -25.00     6000.00
01838               9.00     6200.00
01839             -11.80     6600.00
01840              -1.20     6800.00
01841              25.00     7000.00
01842             -25.00     7200.00
01843               6.20     7600.00
01844              25.00     7600.00
01845             -25.00     8000.00
01846              13.80     8200.00
01847              25.00     8400.00
01848             -25.00     8400.00
01849              -1.20     8800.00
01850              19.20     8800.00
01851              -6.20     9000.00
01852              -3.80     9200.00
01853               5.00     9200.00
01854               2.80     9600.00
01855              -3.60     9600.00
01856              -5.80    10000.00
01857               4.40    10200.00
01858               8.40    10200.00
01859              -6.60    10400.00
01860              -1.80    10600.00
01861               7.80    10800.00
01862              -2.80    11000.00
01863              -6.20    11000.00
01864               9.00    11200.00
01865               5.00    11200.00
01866             -10.00    11400.00
01867               3.60    11600.00
01868               4.60    11800.00
01869              -3.80    11800.00
01870               1.00    12000.00
01871               3.40    12200.00
01872               1.60    12400.00
01873              -1.80    12400.00
01874               0.40    12400.00
01875               3.40    12600.00
01876               0.40    12600.00
01877               0.40    12800.00
01878               4.20    12600.00
01879               0.20    12800.00
01880              -2.20    12800.00
01881               5.00    13000.00
01882               2.20    13000.00
01883              -0.60    13200.00
01884               3.80    13200.00
01885               1.20    13200.00
01886               0.80    13200.00
01887               3.60    13200.00
01888               2.60    13400.00
01889               2.00    13400.00
01890               3.00    13400.00
01891               4.00    13400.00
01892               2.60    13200.00
01893               2.60    13400.00
01894               5.40    13400.00
01895               4.40    13400.00
01896               4.40    13400.00
01897               5.40    13400.00
01898               4.80    13400.00
01899               5.40    13400.00
01900               6.60    13400.00
01901               7.60    13200.00
01902               5.80    13400.00
01903               5.80    13400.00
01904               9.00    13400.00
01905               7.60    13200.00
01906               8.20    13200.00
01907              10.80    13200.00
01908               9.80    13200.00
01909               7.00    13200.00
01910               5.80    13000.00
01911               5.00    12800.00
01912               4.20    12800.00
01913               4.60    12800.00
01914               4.20    12600.00
01915               2.60    12600.00
01916               2.60    12400.00
01917               2.60    12400.00
01918               2.60    12400.00
01919               3.00    12000.00
01920               2.00    12000.00
01921               1.00    12000.00
01922               1.60    11800.00
01923               3.40    11600.00
01924               0.60    11600.00
01925               1.00    11400.00
01926               3.40    11200.00
01927               0.20    11000.00
01928               0.40    10800.00
01929               2.60    10800.00
01930              -0.40    10600.00
01931               0.60    10600.00
01932               2.60    10200.00
01933              -0.60    10200.00
01934              -0.20    10000.00
01935               1.20     9800.00
01936               1.00     9600.00
01937               0.40     9600.00
01938               0.80     9400.00
01939               0.40     9200.00
01940               0.40     8800.00
01941               0.40     8800.00
01942               0.80     8600.00
01943               0.60     8400.00
01944               0.20     8000.00
01945               0.40     8000.00
01946               0.40     7800.00
01947              -0.60     7600.00
01948               0.40     7400.00
01949               0.40     7000.00
01950               0.00     6800.00
01951               1.40     6600.00
01952              -0.20     6400.00
01953              -0.60     6200.00
01954               1.00     6000.00
01955               0.20     6000.00
01956              -0.20     5600.00
01957               1.00     5400.00
01958               0.00     5200.00
01959               0.00     4800.00
01960               0.40     4600.00
01961              -0.60     4400.00
01962              -0.60     4200.00
01963               0.40     4000.00
01964               0.00     3600.00
01965               0.00     3400.00
01966               0.00     3200.00
01967              -0.60     2800.00
01968              -0.20     2600.00
01969               0.80     2400.00
01970               0.20     2000.00
01971              -0.40     2000.00
01972               0.40     1600.00
01973               0.00     1600.00
01974              -1.00     1200.00
01975              -0.60     1000.00
01976               0.40      600.00
01977              -0.60      400.00
01978              -0.40      200.00
01979               0.60        0.00
01980               1.40     -200.00
01981               0.40     -400.00
01982              -1.00     -800.00
01983               0.20    -1000.00
01984               0.40    -1200.00
01985              -1.20    -1400.00
01986              -0.40    -1600.00
01987               2.60    -1800.00
01988               9.80    -2000.00
01989              18.80    -2400.00
01990             -19.80    -2800.00
01991             -25.00    -3400.00
01992               9.80    -3600.00
01993              -4.40    -4000.00
01994              -9.00    -3800.00
01995              25.00    -3800.00
01996             -25.00    -4000.00
01997             -25.00    -4200.00
01998              25.00    -4400.00
01999             -25.00    -4800.00
02000             -25.00    -5200.00
02001              25.00    -5200.00
02002             -20.60    -5400.00
02003             -20.40    -5800.00
02004              21.40    -5800.00
02005             -21.40    -6000.00
02006              17.00    -6400.00
02007             -13.60    -6600.00
02008              -0.20    -6800.00
02009              25.00    -6800.00
02010             -25.00    -7200.00
02011               0.20    -7400.00
02012              25.00    -7800.00
02013             -25.00    -8000.00
02014              -2.20    -8200.00
02015              25.00    -8400.00
02016             -25.00    -8400.00
02017             -12.20    -8800.00
02018              24.40    -9000.00
02019             -10.60    -9200.00
02020              -7.00    -9400.00
02021              12.60    -9400.00
02022              -6.60    -9600.00
02023              -3.80    -9800.00
02024               0.80    -9800.00
02025              -2.20   -10000.00
02026               4.60   -10400.00
02027              -3.00   -10400.00
02028              -5.40   -10800.00
02029               4.40   -10600.00
02030              -2.20   -10800.00
02031              -6.80   -11000.00
02032               4.60   -11200.00
02033               1.80   -11400.00
02034              -7.20   -11400.00
02035               0.40   -11600.00
02036               2.00   -11600.00
02037              -5.80   -12000.00
02038              -1.20   -12000.00
02039               1.80   -12200.00
02040              -3.20   -12200.00
02041              -2.40   -12200.00
02042              -1.20   -12400.00
02043              -1.80   -12400.00
02044              -1.20   -12400.00
02045              -2.80   -12600.00
02046              -0.20   -12800.00
02047              -1.80   -12800.00
02048              -4.20   -13000.00
02049               0.20   -13000.00
02050              -2.20   -13200.00
02051              -3.40   -13200.00
02052              -1.80   -13200.00
02053              -3.80   -13200.00
02054              -2.00   -13200.00
02055              -3.60   -13200.00
02056              -3.80   -13200.00
02057              -2.20   -13200.00
02058              -5.00   -13200.00
02059              -3.00   -13400.00
02060              -2.80   -13400.00
02061              -6.60   -13200.00
02062              -3.40   -13200.00
02063              -3.60   -13400.00
02064              -7.60   -13200.00
02065              -5.40   -13400.00
02066              -6.00   -13200.00
02067              -7.40   -13200.00
02068              -5.40   -13200.00
02069              -7.60   -13400.00
02070              -8.60   -13200.00
02071              -7.60   -13200.00
02072             -10.00   -13000.00
02073              -8.60   -13000.00
02074              -9.40   -13000.00
02075             -11.80   -12800.00
02076              -5.60   -12800.00
02077              -5.40   -13000.00
02078              -7.40   -12800.00
02079              -3.60   -12800.00
02080              -3.80   -12600.00
02081              -4.40   -12400.00
02082              -3.00   -12400.00
02083              -3.80   -12400.00
02084              -3.80   -12000.00
02085              -2.80   -12200.00
02086              -2.00   -12000.00
02087              -2.80   -12000.00
02088              -2.60   -11800.00
02089              -2.20   -11600.00
02090              -2.20   -11600.00
02091              -2.00   -11400.00
02092              -2.00   -11200.00
02093              -2.00   -11200.00
02094              -1.40   -10800.00
02095              -1.80   -10800.00
02096              -1.40   -10800.00
02097              -1.60   -10600.00
02098              -1.40   -10400.00
02099              -1.20   -10200.00
02100              -1.00   -10000.00
02101              -1.20    -9800.00
02102              -2.00    -9600.00
02103              -1.40    -9600.00
02104              -1.00    -9600.00
02105              -1.60    -9200.00
02106              -0.60    -9000.00
02107              -1.20    -8800.00
02108              -1.40    -8800.00
02109              -0.20    -8400.00
02110              -1.40    -8200.00
02111              -1.40    -8000.00
02112              -0.40    -8000.00
02113              -0.60    -7600.00
02114              -0.60    -7400.00
02115              -0.60    -7200.00
02116              -1.80    -7000.00
02117              -1.00    -6800.00
02118              -0.40    -6600.00
02119              -1.20    -6400.00
02120              -1.00    -6200.00
02121              -0.60    -6000.00
02122              -1.20    -5600.00
02123              -0.60    -5600.00
02124              -0.60    -5200.00
02125              -0.40    -4800.00
02126              -0.20    -4800.00
02127              -0.40    -4600.00
02128              -1.00    -4200.00
02129              -0.60    -4200.00
02130              -0.60    -4000.00
02131              -0.80    -3600.00
02132              -0.40    -3400.00
02133              -0.80    -3200.00
02134              -1.00    -2800.00
02135              -0.40    -2600.00
02136              -0.60    -2400.00
02137              -0.20    -2000.00
02138              -0.20    -1800.00
02139              -0.40    -1600.00
02140               0.00    -1200.00
02141              -0.40    -1000.00
02142              -0.20     -800.00
02143               0.20     -600.00
02144              -0.80     -400.00
02145              -0.20        0.00
02146               0.20        0.00
02147               1.40      400.00
02148               0.60      600.00
02149              -1.40      800.00
02150              -0.20     1000.00
02151               1.00     1200.00
02152              -0.40     1400.00
02153               0.00     1600.00
02154               5.00     2000.00
02155              25.00     2200.00
02156              -3.00     2400.00
02157             -25.00     3000.00
02158              -0.60     3400.00
02159               5.40     3600.00
02160              -0.20     3600.00
02161              25.00     3800.00
02162             -25.00     4000.00
02163             -25.00     4000.00
02164              25.00     4400.00
02165             -25.00     4800.00
02166             -25.00     4800.00
02167              25.00     5400.00
02168             -25.00     5400.00
02169             -25.00     5600.00
02170              25.00     6000.00
02171             -25.00     6000.00
02172              13.20     6400.00
02173             -17.80     6400.00
02174               9.40     6800.00
02175              25.00     7000.00
02176             -25.00     7200.00
02177              22.20     7200.00
02178              25.00     7600.00
02179             -25.00     7800.00
02180              25.00     8200.00
02181              25.00     8200.00
02182             -25.00     8600.00
02183               4.40     8600.00
02184              17.00     8800.00
02185              -7.60     9000.00
02186              -2.00     9400.00
02187               5.80     9400.00
02188               2.00     9600.00
02189              -3.60     9600.00
02190              -5.80    10000.00
02191               5.80    10000.00
02192               9.00    10400.00
02193              -8.20    10400.00
02194              -1.20    10600.00
02195               7.60    10800.00
02196              -4.20    10800.00
02197              -4.80    11000.00
02198               9.80    11000.00
02199               1.80    11600.00
02200              -9.20    11600.00
02201               6.00    11600.00
02202               3.20    11800.00
02203              -4.40    12000.00
02204               3.00    12000.00
02205               3.80    12000.00
02206              -1.00    12200.00
02207              -1.00    12400.00
02208               2.60    12400.00
02209               1.80    12600.00
02210              -0.20    12600.00
02211               1.20    12600.00
02212               2.60    12800.00
02213               0.40    12800.00
02214              -1.00    12800.00
02215               4.20    13000.00
02216               2.80    13200.00
02217              -0.40    13000.00
02218               2.60    13200.00
02219               2.20    13400.00
02220               2.00    13200.00
02221               2.80    13200.00
02222               2.60    13400.00
02223               2.00    13400.00
02224               1.80    13400.00
02225               3.60    13400.00
02226               3.20    13400.00
02227               2.40    13400.00
02228               5.00    13400.00
02229               4.60    13400.00
02230               4.20    13400.00
02231               4.40    13400.00
02232               5.20    13400.00
02233               6.60    13400.00
02234               6.00    13200.00
02235               7.00    13400.00
02236               6.20    13400.00
02237               6.00    13400.00
02238               8.20    13400.00
02239               8.80    13200.00
02240               8.60    13200.00
02241               9.20    13000.00
02242              10.20    13200.00
02243               7.40    13200.00
02244               4.80    12800.00
02245               5.20    12800.00
02246               4.20    12800.00
02247               4.40    12600.00
02248               4.20    12600.00
02249               2.60    12600.00
02250               3.40    12400.00
02251               2.60    12400.00
02252               2.00    12200.00
02253               3.00    12000.00
02254               1.80    12000.00
02255               1.40    11800.00
02256               2.20    12000.00
02257               2.00    11600.00
02258               1.00    11400.00
02259               1.80    11200.00
02260               2.00    11200.00
02261               0.80    11000.00
02262               1.80    10800.00
02263               1.20    10800.00
02264               0.20    10600.00
02265               1.40    10400.00
02266               1.20    10200.00
02267               0.60    10200.00
02268               0.40    10000.00
02269               0.20     9800.00
02270               1.00     9600.00
02271               1.20     9400.00
02272               0.40     9400.00
02273               0.60     9200.00
02274               0.40     8800.00
02275               0.40     8800.00
02276               0.60     8600.00
02277               0.20     8400.00
02278               0.40     8000.00
02279               0.40     8000.00
02280               1.00     7600.00
02281               0.40     7600.00
02282               0.00     7200.00
02283               0.40     7200.00
02284               0.20     6800.00
02285               0.40     6600.00
02286               0.20     6400.00
02287              -0.20     6200.00
02288               0.20     6000.00
02289               0.40     5800.00
02290              -0.20     5600.00
02291               0.20     5400.00
02292               0.20     5200.00
02293               0.20     4800.00
02294               0.20     4400.00
02295              -0.20     4400.00
02296              -0.40     4000.00
02297               0.20     3800.00
02298               0.40     3600.00
02299              -0.20     3400.00
02300               0.20     3200.00
02301              -0.20     2800.00
02302              -0.60     2800.00
02303               0.40     2400.00
02304               0.00     2200.00
02305              -1.20     2000.00
02306               0.40     1600.00
02307               0.40     1400.00
02308              -1.20     1200.00
02309               0.20      800.00
02310               0.20      600.00
02311              -0.80      400.00
02312               0.20        0.00
02313               1.00     -200.00
02314               1.20     -400.00
02315               0.00     -400.00
02316              -1.40     -800.00
02317               0.40    -1000.00
02318               0.40    -1200.00
02319              -1.80    -1200.00
02320               0.20    -1800.00
02321               2.80    -1800.00
02322              10.80    -2000.00
02323              17.80    -2200.00
02324             -23.60    -2800.00
02325             -25.00    -3200.00
02326              12.20    -3600.00
02327              -9.00    -3800.00
02328              -2.00    -4000.00
02329              25.00    -3800.00
02330             -25.00    -4000.00
02331             -18.20    -4200.00
02332              25.00    -4400.00
02333             -25.00    -4800.00
02334             -25.00    -5000.00
02335              25.00    -5400.00
02336             -25.00    -5600.00
02337             -11.00    -5800.00
02338              18.60    -5800.00
02339             -21.20    -6200.00
02340              20.20    -6400.00
02341             -19.40    -6400.00
02342               7.80    -6800.00
02343              25.00    -7200.00
02344             -25.00    -7400.00
02345              11.00    -7400.00
02346              25.00    -7800.00
02347             -25.00    -8000.00
02348               6.80    -8200.00
02349              25.00    -8400.00
02350             -25.00    -8400.00
02351              -6.00    -8800.00
02352              22.80    -9000.00
02353             -12.80    -9200.00
02354              -3.40    -9400.00
02355              11.60    -9600.00
02356              -8.20    -9600.00
02357              -2.20    -9800.00
02358               0.20   -10000.00
02359              -1.80   -10200.00
02360               5.40   -10400.00
02361              -4.60   -10400.00
02362              -4.40   -10600.00
02363               4.60   -10800.00
02364              -3.60   -11000.00
02365              -5.80   -11000.00
02366               5.80   -11200.00
02367               0.20   -11400.00
02368              -7.40   -11400.00
02369               1.00   -11600.00
02370               1.20   -11600.00
02371              -5.20   -12000.00
02372              -0.40   -12000.00
02373               1.40   -12000.00
02374              -3.20   -12200.00
02375              -2.20   -12200.00
02376              -1.00   -12400.00
02377              -1.80   -12400.00
02378              -1.40   -12600.00
02379              -2.20   -12600.00
02380              -1.20   -12800.00
02381              -2.20   -12800.00
02382              -3.40   -12800.00
02383              -0.80   -13000.00
02384              -1.40   -13000.00
02385              -3.40   -13200.00
02386              -2.80   -13200.00
02387              -2.20   -13200.00
02388              -2.60   -13200.00
02389              -3.40   -13200.00
02390              -2.60   -13200.00
02391              -3.20   -13200.00
02392              -3.80   -13400.00
02393              -3.00   -13600.00
02394              -4.40   -13200.00
02395              -4.60   -13400.00
02396              -4.60   -13400.00
02397              -5.00   -13400.00
02398              -5.20   -13400.00
02399              -7.00   -13200.00
02400              -6.20   -13200.00
02401              -5.40   -13200.00
02402              -7.40   -13200.00
02403              -7.20   -13200.00
02404              -7.40   -13200.00
02405              -8.60   -13200.00
02406              -8.60   -13200.00
02407              -9.20   -13200.00
02408             -11.00   -13000.00
02409             -10.00   -13000.00
02410              -6.80   -13000.00
02411              -6.20   -12800.00
02412              -5.80   -12800.00
02413              -4.60   -12800.00
02414              -4.20   -12600.00
02415              -3.20   -12600.00
02416              -3.80   -12400.00
02417              -3.60   -12400.00
02418              -3.00   -12200.00
02419              -3.40   -12000.00
02420              -2.00   -12200.00
02421              -2.60   -12000.00
02422              -3.00   -12000.00
02423              -2.20   -11600.00
02424              -2.60   -11600.00
02425              -2.80   -11400.00
02426              -2.00   -11200.00
02427              -1.80   -11200.00
02428              -2.00   -11000.00
02429              -1.40   -10800.00
02430              -1.40   -10600.00
02431              -2.00   -10400.00
02432              -1.40   -10400.00
02433              -0.60   -10000.00
02434              -0.60   -10000.00
02435              -1.60    -9800.00
02436              -2.00    -9600.00
02437              -1.20    -9600.00
02438              -1.20    -9200.00
02439              -1.20    -9200.00
02440              -1.00    -9000.00
02441              -1.40    -8800.00
02442              -1.00    -8800.00
02443              -0.80    -8400.00
02444              -1.40    -8200.00
02445              -1.00    -8200.00
02446              -0.60    -8000.00
02447              -0.60    -7600.00
02448              -0.40    -7400.00
02449              -1.40    -7200.00
02450              -1.00    -7200.00
02451              -0.40    -6800.00
02452              -1.00    -6600.00
02453              -1.00    -6400.00
02454              -0.60    -6200.00
02455              -1.20    -6000.00
02456              -0.60    -5800.00
02457              -0.60    -5600.00
02458              -0.60    -5200.00
02459              -0.60    -5000.00
02460              -0.60    -4600.00
02461              -0.60    -4400.00
02462              -0.20    -4200.00
02463              -1.00    -4000.00
02464              -0.40    -3800.00
02465              -0.20    -3600.00
02466              -0.60    -3400.00
02467              -0.40    -3000.00
02468              -0.40    -2800.00
02469              -1.00    -2600.00
02470              -0.60    -2400.00
02471              -0.40    -2000.00
02472              -0.60    -2000.00
02473              -0.40    -1800.00
02474              -0.60    -1400.00
02475               0.00    -1000.00
02476               0.20    -1000.00
02477              -1.20     -600.00
02478              -0.20     -400.00
02479               0.40     -200.00
02480              -0.20        0.00
02481               2.00      400.00
02482               0.60      600.00
02483              -2.00      800.00
02484               0.80     1200.00
02485               1.20     1400.00
02486              -1.00     1600.00
02487               0.40     1600.00
02488               5.40     2000.00
02489              25.00     2200.00
02490              -8.60     2400.00
02491             -25.00     3200.00
02492               3.60     3400.00
02493               1.20     3600.00
02494               6.60     3600.00
02495              25.00     3600.00
02496             -25.00     4000.00
02497              -8.40     4000.00
02498              25.00     4400.00
02499             -25.00     4600.00
02500             -25.00     5000.00
02501              25.00     5200.00
02502             -25.00     5400.00
02503             -21.00     5600.00
02504              25.00     6000.00
02505             -25.00     6000.00
02506              17.40     6400.00
02507             -23.80     6600.00
02508              19.60     6800.00
02509              25.00     7000.00
02510             -25.00     7200.00
02511              25.00     7400.00
02512              25.00     7600.00
02513             -25.00     8000.00
02514              25.00     8200.00
02515              25.00     8400.00
02516             -25.00     8600.00
02517              10.20     8800.00
02518              14.60     8800.00
02519              -9.00     9000.00
02520              -0.60     9200.00
02521               5.80     9400.00
02522               1.00     9600.00
02523              -3.00     9600.00
02524              -5.40    10000.00
02525               6.80    10000.00
02526               7.60    10400.00
02527              -8.60    10400.00
02528               1.00    10400.00
02529               7.80    10800.00
02530              -6.00    10800.00
02531              -4.40    11000.00
02532              12.00    11200.00
02533              -0.20    11200.00
02534              -9.20    11400.00
02535               7.40    11600.00
02536               1.80    11800.00
02537              -4.40    11800.00
02538               3.80    12000.00
02539               3.60    12000.00
02540              -0.60    12400.00
02541              -0.60    12400.00
02542               2.60    12400.00
02543               1.20    12600.00
02544               0.40    12600.00
02545               2.00    12600.00
02546               2.60    12800.00
02547              -0.60    12800.00
02548              -0.40    13200.00
02549               4.60    13000.00
02550               1.20    13200.00
02551               0.40    13000.00
02552               3.80    13200.00
02553               0.60    13200.00
02554               1.60    13200.00
02555               3.60    13200.00
02556               2.20    13400.00
02557               2.40    13200.00
02558               2.60    13400.00
02559               3.60    13400.00
02560               2.60    13400.00
02561               2.60    13600.00
02562               5.20    13400.00
02563               4.20    13400.00
02564               4.20    13400.00
02565               4.40    13400.00
02566               5.20    13400.00
02567               6.00    13400.00
02568               5.80    13400.00
02569               7.60    13400.00
02570               5.80    13400.00
02571               6.00    13200.00
02572               9.00    13200.00
02573               8.40    13200.00
02574               8.40    13200.00
02575              10.20    13200.00
02576               9.80    13200.00
02577               6.60    13000.00
02578               5.00    12800.00
02579               4.60    12800.00
02580               4.20    12600.00
02581               4.40    12800.00
02582               3.40    12600.00
02583               3.00    12600.00
02584               3.80    12400.00
02585               1.40    12400.00
02586               3.00    12400.00
02587               4.20    12200.00
02588               0.20    12000.00
02589               2.00    12000.00
02590               3.60    11800.00
02591               0.20    11800.00
02592               1.20    11400.00
02593               2.60    11400.00
02594               0.20    11200.00
02595               1.20    11000.00
02596               2.60    10800.00
02597               0.20    10800.00
02598               0.20    10600.00
02599               1.80    10400.00
02600               0.60    10200.00
02601               1.40    10200.00
02602               0.60     9800.00
02603               0.00     9800.00
02604               2.00     9400.00
02605               0.20     9400.00
02606              -0.40     9200.00
02607               2.00     9200.00
02608               0.20     9000.00
02609               0.20     8800.00
02610               0.40     8600.00
02611               0.20     8400.00
02612              -0.20     8000.00
02613               0.20     7800.00
02614               1.40     7600.00
02615               0.40     7600.00
02616              -0.60     7200.00
02617               0.80     7000.00
02618               0.60     6800.00
02619               1.00     6600.00
02620               0.20     6400.00
02621              -0.60     6400.00
02622               0.60     6000.00
02623              -0.20     5800.00
02624              -1.20     5400.00
02625               1.40     5200.00
02626               0.80     5000.00
02627              -1.80     4600.00
02628               0.20     4600.00
02629               0.20     4400.00
02630              -0.40     4000.00
02631               0.00     3800.00
02632               0.80     3600.00
02633               0.60     3400.00
02634              -1.20     3000.00
02635              -1.20     2800.00
02636               1.20     2800.00
02637               0.20     2400.00
02638              -1.20     2200.00
02639               0.40     2000.00
02640              -0.80     1800.00
02641              -1.80     1400.00
02642               0.80     1200.00
02643               0.40     1000.00
02644              -1.00      800.00
02645               0.40      400.00
02646              -0.20      200.00
02647               0.40        0.00
02648               2.60     -400.00
02649              -0.60     -400.00
02650              -1.20     -800.00
02651               1.20    -1000.00
02652              -1.00    -1200.00
02653              -1.40    -1600.00
02654               1.80    -1600.00
02655               2.60    -1800.00
02656              12.60    -2000.00
02657              16.20    -2400.00
02658             -25.00    -2800.00
02659             -22.00    -3400.00
02660              14.80    -3600.00
02661             -13.20    -4000.00
02662               5.80    -3800.00
02663              25.00    -4000.00
02664             -25.00    -4000.00
02665              -2.80    -4200.00
02666              25.00    -4400.00
02667             -25.00    -4800.00
02668             -14.00    -5000.00
02669              25.00    -5200.00
02670             -25.00    -5600.00
02671              -4.40    -5800.00
02672              14.80    -6000.00
02673             -18.20    -6200.00
02674              20.00    -6400.00
02675             -23.80    -6600.00
02676              15.60    -6800.00
02677              25.00    -7200.00
02678             -25.00    -7200.00
02679              22.20    -7600.00
02680              25.00    -8000.00
02681             -25.00    -8000.00
02682              16.00    -8200.00
02683              25.00    -8200.00
02684             -25.00    -8600.00
02685               0.40    -8800.00
02686              19.80    -9000.00
02687             -16.60    -9000.00
02688              -0.20    -9200.00
02689              11.40    -9400.00
02690             -10.00    -9600.00
02691              -1.80   -10000.00
02692               0.20    -9800.00
02693              -1.60   -10200.00
02694               4.40   -10400.00
02695              -4.80   -10400.00
02696              -2.80   -10800.00
02697               4.40   -10800.00
02698              -4.60   -10800.00
02699              -5.20   -11000.00
02700               6.20   -11400.00
02701              -1.00   -11400.00
02702              -7.40   -11600.00
02703               2.00   -11600.00
02704               0.40   -12000.00
02705              -6.60   -12000.00
02706               0.60   -12000.00
02707               2.60   -12000.00
02708              -4.80   -12200.00
02709              -1.40   -12400.00
02710              -0.40   -12400.00
02711              -2.40   -12400.00
02712              -1.00   -12600.00
02713              -1.20   -12400.00
02714              -1.20   -12800.00
02715              -2.80   -12800.00
02716              -3.00   -13000.00
02717              -0.60   -13000.00
02718              -2.60   -13200.00
02719              -2.80   -13000.00
02720              -2.00   -13200.00
02721              -3.00   -13200.00
02722              -2.20   -13200.00
02723              -3.00   -13200.00
02724              -2.80   -13200.00
02725              -2.80   -13200.00
02726              -3.40   -13400.00
02727              -3.60   -13200.00
02728              -4.40   -13200.00
02729              -4.40   -13400.00
02730              -4.60   -13400.00
02731              -4.40   -13200.00
02732              -5.80   -13400.00
02733              -7.20   -13200.00
02734              -5.40   -13400.00
02735              -6.00   -13200.00
02736              -7.80   -13200.00
02737              -6.00   -13200.00
02738              -8.40   -13200.00
02739              -9.20   -13000.00
02740              -7.60   -13200.00
02741             -10.00   -13000.00
02742             -11.20   -13000.00
02743              -8.60   -13000.00
02744              -6.80   -12800.00
02745              -6.80   -12800.00
02746              -5.20   -12800.00
02747              -4.40   -12600.00
02748              -4.40   -12600.00
02749              -3.80   -12400.00
02750              -3.60   -12400.00
02751              -3.80   -12200.00
02752              -3.80   -12200.00
02753              -3.00   -12000.00
02754              -2.00   -12000.00
02755              -3.20   -12000.00
02756              -2.80   -11600.00
02757              -2.20   -11600.00
02758              -2.80   -11400.00
02759              -1.80   -11400.00
02760              -2.20   -11200.00
02761              -2.20   -11000.00
02762              -1.80   -10800.00
02763              -2.00   -10800.00
02764              -1.60   -10600.00
02765              -2.20   -10600.00
02766              -1.80   -10400.00
02767              -0.60   -10200.00
02768              -1.20   -10000.00
02769              -2.00    -9800.00
02770              -1.40    -9800.00
02771              -1.20    -9600.00
02772              -1.20    -9200.00
02773              -0.60    -9200.00
02774              -0.80    -9000.00
02775              -1.40    -8800.00
02776              -1.20    -8600.00
02777              -1.20    -8400.00
02778              -1.40    -8200.00
02779              -1.20    -8000.00
02780              -1.00    -7800.00
02781              -0.60    -7600.00
02782              -0.60    -7400.00
02783              -1.20    -7200.00
02784              -1.20    -6800.00
02785              -0.60    -6800.00
02786              -0.40    -6600.00
02787              -0.60    -6400.00
02788              -0.60    -6200.00
02789              -0.60    -5800.00
02790              -0.40    -5600.00
02791              -0.80    -5400.00
02792              -0.60    -5200.00
02793              -0.60    -4800.00
02794              -1.00    -4600.00
02795              -0.60    -4400.00
02796              -0.60    -4200.00
02797              -1.00    -4000.00
02798              -0.60    -3600.00
02799              -0.20    -3600.00
02800              -0.40    -3400.00
02801              -0.40    -3000.00
02802              -0.40    -2800.00
02803              -0.40    -2600.00
02804              -0.40    -2400.00
02805              -0.20    -2000.00
02806              -0.60    -1800.00
02807              -0.60    -1600.00
02808              -0.60    -1200.00
02809              -0.60    -1000.00
02810              -0.40     -800.00
02811              -0.60     -600.00
02812              -0.20     -200.00
02813               0.20     -200.00
02814               0.00      200.00
02815               2.20      400.00
02816               0.00      600.00
02817              -1.20      800.00
02818               1.00     1000.00
02819               0.20     1200.00
02820              -1.00     1400.00
02821               1.20     1800.00
02822               6.80     2000.00
02823              25.00     2400.00
02824             -14.80     2400.00
02825             -25.00     3200.00
02826               7.60     3600.00
02827              -3.40     3600.00
02828              14.60     3600.00
02829              25.00     3800.00
02830             -25.00     4000.00
02831              11.60     4000.00
02832              25.00     4400.00
02833             -25.00     4600.00
02834              -9.20     5200.00
02835              25.00     5200.00
02836             -25.00     5400.00
02837              -4.20     5600.00
02838              25.00     6000.00
02839             -25.00     6000.00
02840              20.40     6400.00
02841             -25.00     6600.00
02842              25.00     6800.00
02843              25.00     7000.00
02844             -25.00     7200.00
02845              25.00     7400.00
02846              25.00     7600.00
02847             -25.00     7800.00
02848              25.00     8200.00
02849              18.80     8400.00
02850             -25.00     8400.00
02851              14.80     8800.00
02852              11.00     8800.00
02853              -8.80     9000.00
02854               0.40     9200.00
02855               5.20     9400.00
02856               1.00     9600.00
02857              -3.80     9800.00
02858              -5.20    10000.00
02859               8.20    10200.00
02860               6.20    10200.00
02861              -9.20    10400.00
02862               2.60    10600.00
02863               6.80    10800.00
02864              -6.60    10800.00
02865              -2.80    11000.00
02866              12.40    11200.00
02867              -1.80    11200.00
02868              -8.40    11600.00
02869               8.00    11800.00
02870               0.80    11800.00
02871              -4.20    11800.00
02872               4.00    12000.00
02873               3.00    12200.00
02874              -1.20    12400.00
02875              -0.40    12400.00
02876               2.60    12400.00
02877               0.80    12600.00
02878               0.80    12600.00
02879               2.20    12600.00
02880               2.60    12800.00
02881              -0.60    13000.00
02882              -0.20    12800.00
02883               4.20    13000.00
02884               1.80    13200.00
02885               0.20    13200.00
02886               2.20    13200.00
02887               1.20    13400.00
02888               1.80    13200.00
02889               2.20    13400.00
02890               2.60    13200.00
02891               2.20    13400.00
02892               2.20    13400.00
02893               4.20    13400.00
02894               2.00    13400.00
02895               2.80    13400.00
02896               5.80    13400.00
02897               3.60    13400.00
02898               5.00    13600.00
02899               5.00    13400.00
02900               3.80    13400.00
02901               6.60    13400.00
02902               6.20    13400.00
02903               6.00    13400.00
02904               6.00    13400.00
02905               6.60    13400.00
02906               8.20    13200.00
02907               8.80    13200.00
02908               9.40    13200.00
02909               9.80    13200.00
02910              10.00    13200.00
02911               7.00    12800.00
02912               4.20    13000.00
02913               4.60    12800.00
02914               5.80    12800.00
02915               3.20    12600.00
02916               2.60    12600.00
02917               5.00    12600.00
02918               1.60    12400.00
02919               1.20    12400.00
02920               5.40    12400.00
02921               1.40    12000.00
02922               1.20    12000.00
02923               4.20    11800.00
02924               0.60    11800.00
02925               1.80    11600.00
02926               3.40    11400.00
02927               0.20    11200.00
02928               1.40    11200.00
02929               2.60    11000.00
02930              -0.60    10800.00
02931               1.20    10800.00
02932               1.80    10600.00
02933               0.00    10400.00
02934               1.40    10200.00
02935               1.20    10200.00
02936              -0.20    10000.00
02937               1.00    10000.00
02938               1.80     9600.00
02939               1.00     9400.00
02940              -0.20     9200.00
02941               0.20     9000.00
02942               1.20     8800.00
02943               0.60     8600.00
02944              -0.60     8600.00
02945               0.80     8400.00
02946               0.20     8200.00
02947              -1.00     7800.00
02948               1.40     7800.00
02949               0.20     7600.00
02950              -1.00     7200.00
02951               0.40     7200.00
02952               0.60     6800.00
02953              -0.20     6600.00
02954               0.20     6400.00
02955               1.00     6200.00
02956               0.20     6000.00
02957              -1.60     5800.00
02958               0.40     5600.00
02959               1.00     5400.00
02960              -1.20     5200.00
02961               0.40     4800.00
02962               1.20     4600.00
02963              -2.00     4200.00
02964              -0.60     4000.00
02965               1.00     3800.00
02966              -0.40     3600.00
02967               0.20     3200.00
02968              -0.40     3000.00
02969              -1.20     2800.00
02970               0.20     2600.00
02971               0.40     2400.00
02972              -0.20     2200.00
02973               0.20     2000.00
02974              -0.20     1600.00
02975              -0.60     1400.00
02976              -0.20     1200.00
02977              -0.20      800.00
02978              -0.40      600.00
02979               0.20      400.00
02980              -0.20      200.00
02981               0.20     -200.00
02982               1.80     -400.00
02983              -0.40     -600.00
02984              -1.00     -800.00
02985               1.00    -1000.00
02986               0.40    -1000.00
02987              -1.20    -1600.00
02988               1.20    -1600.00
02989               3.40    -1800.00
02990              14.60    -2000.00
02991              13.00    -2400.00
02992             -25.00    -2800.00
02993             -18.40    -3400.00
02994              14.20    -3800.00
02995             -16.60    -4000.00
02996              13.80    -3800.00
02997              25.00    -3800.00
02998             -25.00    -4000.00
02999              12.40    -4200.00
03000              25.00    -4400.00
03001             -25.00    -4800.00
03002               2.40    -5000.00
03003              25.00    -5400.00
03004             -25.00    -5600.00
03005               2.80    -5800.00
03006               9.80    -6000.00
03007             -15.80    -6000.00
03008              19.60    -6400.00
03009             -25.00    -6600.00
03010              22.00    -6800.00
03011              18.80    -7200.00
03012             -25.00    -7400.00
03013              25.00    -7600.00
03014              25.00    -7600.00
03015             -25.00    -8200.00
03016              23.20    -8200.00
03017              24.40    -8400.00
03018             -25.00    -8600.00
03019               5.80    -8800.00
03020              17.00    -9000.00
03021             -16.60    -9200.00
03022               2.20    -9400.00
03023               8.40    -9400.00
03024             -10.40    -9600.00
03025              -0.20    -9800.00
03026              -1.20   -10000.00
03027              -1.20   -10000.00
03028               4.40   -10400.00
03029              -6.00   -10400.00
03030              -2.20   -10600.00
03031               4.40   -10800.00
03032              -5.20   -10800.00
03033              -4.20   -11000.00
03034               6.20   -11200.00
03035              -2.20   -11200.00
03036              -7.00   -11600.00
03037               2.60   -11600.00
03038              -0.40   -11800.00
03039              -5.40   -11800.00
03040               1.00   -12000.00
03041               0.60   -12000.00
03042              -3.80   -12200.00
03043              -1.20   -12400.00
03044              -1.20   -12400.00
03045              -1.80   -12600.00
03046              -1.20   -12400.00
03047              -2.00   -12600.00
03048              -1.00   -12800.00
03049              -3.00   -12800.00
03050              -2.20   -12800.00
03051              -0.40   -12800.00
03052              -2.60   -13000.00
03053              -2.60   -13200.00
03054              -2.20   -13200.00
03055              -3.00   -13200.00
03056              -1.80   -13200.00
03057              -3.80   -13200.00
03058              -3.60   -13200.00
03059              -1.80   -13200.00
03060              -5.00   -13200.00
03061              -3.80   -13200.00
03062              -2.80   -13200.00
03063              -5.40   -13200.00
03064              -3.80   -13200.00
03065              -4.60   -13400.00
03066              -6.60   -13200.00
03067              -5.00   -13200.00
03068              -6.60   -13200.00
03069              -6.40   -13200.00
03070              -5.80   -13200.00
03071              -8.60   -13200.00
03072              -8.00   -13200.00
03073              -8.20   -13200.00
03074             -10.20   -13200.00
03075              -8.60   -13000.00
03076             -11.00   -13200.00
03077             -10.80   -13000.00
03078              -5.00   -13000.00
03079              -6.60   -12800.00
03080              -5.80   -12800.00
03081              -3.40   -12800.00
03082              -5.00   -12600.00
03083              -3.00   -12400.00
03084              -3.40   -12400.00
03085              -5.20   -12200.00
03086              -2.60   -12200.00
03087              -3.80   -12200.00
03088              -3.40   -12000.00
03089              -2.00   -11800.00
03090              -3.80   -11800.00
03091              -3.40   -11600.00
03092              -0.60   -11600.00
03093              -2.60   -11200.00
03094              -3.00   -11200.00
03095              -0.40   -11000.00
03096              -2.20   -10800.00
03097              -1.40   -10800.00
03098              -1.20   -10600.00
03099              -2.80   -10400.00
03100              -1.00   -10400.00
03101              -1.00   -10200.00
03102              -2.60   -10000.00
03103              -1.00    -9800.00
03104              -1.60    -9800.00
03105              -1.80    -9400.00
03106              -0.60    -9200.00
03107              -1.20    -9200.00
03108              -1.20    -9000.00
03109              -0.60    -8800.00
03110              -0.60    -8400.00
03111              -1.00    -8400.00
03112              -1.40    -8200.00
03113              -1.00    -8000.00
03114              -0.60    -7800.00
03115              -0.60    -7600.00
03116              -1.00    -7400.00
03117              -1.40    -7200.00
03118              -0.60    -7000.00
03119              -1.00    -6800.00
03120              -0.60    -6600.00
03121               0.00    -6200.00
03122              -1.00    -6200.00
03123              -1.20    -5800.00
03124               0.20    -5600.00
03125              -0.20    -5200.00
03126              -0.60    -5200.00
03127               0.00    -4800.00
03128              -0.80    -4600.00
03129              -1.00    -4400.00
03130              -0.40    -4200.00
03131              -1.00    -4000.00
03132              -0.60    -3800.00
03133              -0.20    -3600.00
03134              -0.40    -3400.00
03135              -1.00    -3000.00
03136              -0.60    -2600.00
03137              -0.40    -2600.00
03138               0.20    -2400.00
03139              -0.20    -2000.00
03140              -0.60    -1800.00
03141              -0.60    -1600.00
03142              -0.20    -1200.00
03143              -0.60    -1000.00
03144              -0.60     -800.00
03145              -0.40     -600.00
03146              -0.40     -200.00
03147              -0.40        0.00
03148               0.40      200.00
03149               1.80      400.00
03150              -0.20      600.00
03151              -0.60      800.00
03152               0.40     1200.00
03153               0.40     1400.00
03154              -1.20     1400.00
03155               1.00     1800.00
03156               9.00     2000.00
03157              25.00     2200.00
03158             -20.40     2600.00
03159             -25.00     3200.00
03160              10.80     3600.00
03161              -7.00     3600.00
03162              22.60     3600.00
03163              25.00     3800.00
03164             -25.00     4000.00
03165              25.00     4000.00
03166              25.00     4600.00
03167             -25.00     4600.00
03168              15.20     5000.00
03169              25.00     5200.00
03170             -25.00     5400.00
03171              11.00     5600.00
03172              25.00     6000.00
03173             -25.00     6200.00
03174              21.20     6400.00
03175             -25.00     6800.00
03176              25.00     6800.00
03177              18.20     7000.00
03178             -25.00     7200.00
03179              25.00     7200.00
03180              18.00     7600.00
03181             -25.00     8200.00
03182              25.00     8000.00
03183               7.40     8400.00
03184             -25.00     8600.00
03185              18.00     8800.00
03186               7.40     8800.00
03187              -7.00     9200.00
03188               2.00     9200.00
03189               3.60     9400.00
03190               1.00     9600.00
03191              -3.00     9800.00
03192              -4.60    10000.00
03193               8.20    10200.00
03194               4.40    10400.00
03195              -8.40    10400.00
03196               4.00    10800.00
03197               5.00    10800.00
03198              -7.40    11000.00
03199              -1.00    11200.00
03200              12.20    11200.00
03201              -3.80    11600.00
03202              -6.60    11600.00
03203               9.20    11600.00
03204              -0.60    11800.00
03205              -3.40    12000.00
03206               4.40    12000.00
03207               2.00    12000.00
03208              -1.20    12200.00
03209              -0.20    12400.00
03210               2.00    12400.00
03211               1.00    12600.00
03212               0.80    12600.00
03213               1.60    12600.00
03214               2.00    12800.00
03215              -0.60    12800.00
03216               0.40    12800.00
03217               4.20    13000.00
03218               1.20    13200.00
03219               0.60    13200.00
03220               2.60    13200.00
03221               1.00    13200.00
03222               1.80    13200.00
03223               2.80    13400.00
03224               2.40    13400.00
03225               2.00    13400.00
03226               2.60    13400.00
03227               4.20    13400.00
03228               2.20    13600.00
03229               2.80    13400.00
03230               5.40    13600.00
03231               4.40    13400.00
03232               4.20    13400.00
03233               4.40    13400.00
03234               6.00    13400.00
03235               5.80    13400.00
03236               5.60    13400.00
03237               7.60    13400.00
03238               6.00    13200.00
03239               6.20    13400.00
03240               9.00    13200.00
03241               8.60    13200.00
03242               8.60    13200.00
03243              10.00    13200.00
03244              10.00    13000.00
03245               6.40    13000.00
03246               4.80    12800.00
03247               5.20    12800.00
03248               4.40    12800.00
03249               4.20    12600.00
03250               3.40    12600.00
03251               3.40    12400.00
03252               2.80    12400.00
03253               2.00    12400.00
03254               3.40    12200.00
03255               3.00    12000.00
03256               1.40    12000.00
03257               2.00    12000.00
03258               2.40    11600.00
03259               1.80    11600.00
03260               1.00    11600.00
03261               1.80    11400.00
03262               1.80    11200.00
03263               1.00    11000.00
03264               1.80    10800.00
03265               1.00    10800.00
03266               0.20    10600.00
03267               1.80    10400.00
03268               1.20    10200.00
03269               0.40    10000.00
03270               0.60    10000.00
03271               0.60     9600.00
03272               0.40     9600.00
03273               0.40     9400.00
03274               0.40     9200.00
03275               0.40     9000.00
03276               0.00     8800.00
03277               0.60     8600.00
03278               0.00     8600.00
03279              -0.20     8200.00
03280               0.60     8200.00
03281               0.40     7800.00
03282               0.40     7600.00
03283               0.20     7200.00
03284               0.20     7200.00
03285              -0.40     7000.00
03286               0.20     6800.00
03287               0.40     6400.00
03288              -0.40     6400.00
03289              -0.20     6200.00
03290               0.00     6000.00
03291               0.20     5600.00
03292               0.60     5400.00
03293              -0.40     5200.00
03294              -0.40     5000.00
03295               0.60     4800.00
03296               0.20     4400.00
03297              -0.20     4200.00
03298               0.20     4000.00
03299              -0.40     3800.00
03300               0.00     3600.00
03301               0.20     3200.00
03302              -0.60     3000.00
03303              -0.60     2800.00
03304               0.20     2400.00
03305              -0.40     2400.00
03306              -0.40     2200.00
03307              -0.40     1800.00
03308               0.20     1600.00
03309               0.40     1400.00
03310               0.00     1200.00
03311              -0.60      800.00
03312              -0.40      600.00
03313               0.20      400.00
03314               0.40      200.00
03315               0.60     -200.00
03316               1.40     -400.00
03317              -0.80     -800.00
03318              -1.00    -1000.00
03319               0.40    -1000.00
03320               0.40    -1200.00
03321              -0.60    -1400.00
03322               1.00    -1600.00
03323               4.20    -2000.00
03324              15.60    -2000.00
03325               9.40    -2400.00
03326             -25.00    -2800.00
03327             -14.80    -3400.00
03328              14.40    -3800.00
03329             -19.80    -4000.00
03330              22.20    -3800.00
03331              25.00    -3600.00
03332             -25.00    -4000.00
03333              25.00    -4200.00
03334              25.00    -4600.00
03335             -25.00    -4800.00
03336              17.00    -5200.00
03337              25.00    -5200.00
03338             -25.00    -5600.00
03339               8.80    -5800.00
03340               5.00    -6000.00
03341             -12.20    -6200.00
03342              18.00    -6400.00
03343             -25.00    -6600.00
03344              25.00    -6800.00
03345              10.00    -7200.00
03346             -25.00    -7400.00
03347              25.00    -7600.00
03348              17.20    -7800.00
03349             -25.00    -8000.00
03350              25.00    -8200.00
03351              17.40    -8400.00
03352             -25.00    -8600.00
03353              10.60    -8800.00
03354              14.00    -9000.00
03355             -17.00    -9200.00
03356               4.60    -9400.00
03357               6.80    -9600.00
03358              -9.80    -9800.00
03359               0.20    -9800.00
03360              -1.40   -10000.00
03361               0.40   -10200.00
03362               3.60   -10400.00
03363              -6.80   -10400.00
03364              -0.60   -10600.00
03365               3.40   -10800.00
03366              -6.20   -10800.00
03367              -2.40   -11200.00
03368               6.20   -11400.00
03369              -3.80   -11400.00
03370              -6.00   -11600.00
03371               3.20   -11600.00
03372              -1.00   -11600.00
03373              -5.00   -12000.00
03374               1.80   -12000.00
03375               0.40   -12000.00
03376              -3.80   -12200.00
03377              -1.20   -12400.00
03378              -1.20   -12400.00
03379              -1.60   -12400.00
03380              -2.00   -12400.00
03381              -1.80   -12800.00
03382              -0.60   -12800.00
03383              -4.00   -12800.00
03384              -1.80   -12800.00
03385               0.20   -13000.00
03386              -3.20   -13000.00
03387              -2.20   -13000.00
03388              -2.20   -13200.00
03389              -3.00   -13200.00
03390              -1.80   -13200.00
03391              -3.60   -13200.00
03392              -3.00   -13200.00
03393              -3.00   -13200.00
03394              -4.40   -13200.00
03395              -3.40   -13200.00
03396              -4.20   -13200.00
03397              -4.80   -13200.00
03398              -4.60   -13200.00
03399              -4.40   -13200.00
03400              -6.20   -13200.00
03401              -6.80   -13200.00
03402              -5.00   -13400.00
03403              -6.60   -13200.00
03404              -7.40   -13200.00
03405              -6.80   -13200.00
03406              -8.60   -13200.00
03407              -9.20   -13200.00
03408              -8.60   -13200.00
03409             -10.00   -13000.00
03410             -11.60   -13000.00
03411              -9.00   -13000.00
03412              -6.20   -12800.00
03413              -6.20   -12800.00
03414              -5.00   -12800.00
03415              -4.40   -12600.00
03416              -3.80   -12600.00
03417              -3.00   -12400.00
03418              -4.20   -12200.00
03419              -4.20   -12200.00
03420              -2.60   -12200.00
03421              -3.40   -12000.00
03422              -2.80   -12000.00
03423              -2.60   -12000.00
03424              -3.60   -11800.00
03425              -2.60   -11600.00
03426              -2.00   -11600.00
03427              -2.60   -11400.00
03428              -2.40   -11400.00
03429              -1.40   -11000.00
03430              -1.80   -11000.00
03431              -1.40   -10800.00
03432              -1.40   -10600.00
03433              -2.00   -10400.00
03434              -1.00   -10400.00
03435              -1.20   -10000.00
03436              -2.00   -10000.00
03437              -1.00    -9800.00
03438              -1.40    -9600.00
03439              -1.60    -9600.00
03440              -0.60    -9400.00
03441              -1.20    -9200.00
03442              -1.20    -9000.00
03443              -1.00    -8600.00
03444              -0.60    -8600.00
03445              -1.00    -8400.00
03446              -1.40    -8200.00
03447              -0.60    -8000.00
03448              -1.00    -7600.00
03449              -1.20    -7600.00
03450              -0.20    -7400.00
03451              -1.00    -7200.00
03452              -1.40    -6800.00
03453              -0.40    -6800.00
03454              -0.40    -6400.00
03455              -0.60    -6200.00
03456              -0.80    -6000.00
03457              -1.00    -5800.00
03458              -1.00    -5600.00
03459              -0.40    -5400.00
03460              -0.60    -5200.00
03461              -0.60    -5000.00
03462              -0.40    -4600.00
03463              -0.60    -4400.00
03464              -0.80    -4200.00
03465              -0.60    -4000.00
03466              -0.60    -3800.00
03467              -0.40    -3400.00
03468              -0.20    -3200.00
03469              -0.60    -3000.00
03470              -1.00    -2800.00
03471              -0.40    -2400.00
03472              -0.60    -2200.00
03473              -1.00    -2000.00
03474              -0.40    -1800.00
03475              -0.60    -1600.00
03476              -0.40    -1200.00
03477              -0.40    -1000.00
03478              -0.80     -800.00
03479              -0.60     -400.00
03480               0.20     -400.00
03481              -0.20        0.00
03482               0.40      200.00
03483               2.20      400.00
03484              -0.60      800.00
03485              -1.40      800.00
03486               1.00     1200.00
03487              -0.20     1400.00
03488              -1.20     1400.00
03489               1.20     1800.00
03490              10.20     2000.00
03491              25.00     2200.00
03492             -25.00     2800.00
03493             -25.00     3200.00
03494              13.80     3400.00
03495             -10.00     3600.00
03496              25.00     3600.00
03497              25.00     3800.00
03498             -25.00     3800.00
03499              25.00     4000.00
03500              25.00     4400.00
03501             -25.00     4800.00
03502              25.00     4800.00
03503              25.00     5400.00
03504             -25.00     5400.00
03505              23.60     5800.00
03506              21.00     6000.00
03507             -25.00     6200.00
03508              19.40     6400.00
03509             -25.00     6800.00
03510              25.00     6800.00
03511               3.60     7200.00
03512             -25.00     7200.00
03513              25.00     7600.00
03514               1.80     7800.00
03515             -25.00     8000.00
03516              25.00     8400.00
03517              -2.80     8400.00
03518             -25.00     8600.00
03519              21.00     8800.00
03520               5.20     8800.00
03521              -8.20     9200.00
03522               2.60     9400.00
03523               5.00     9400.00
03524               0.20     9600.00
03525              -3.80     9800.00
03526              -3.40    10000.00
03527               9.40    10200.00
03528               2.60    10400.00
03529              -8.60    10400.00
03530               5.40    10800.00
03531               4.40    10800.00
03532              -8.40    11000.00
03533               0.40    11200.00
03534              12.00    11200.00
03535              -5.80    11600.00
03536              -5.20    11600.00
03537               8.80    11600.00
03538              -1.40    11800.00
03539              -2.80    11800.00
03540               3.80    12000.00
03541               2.60    12400.00
03542              -0.60    12400.00
03543              -0.40    12400.00
03544               2.60    12400.00
03545               1.00    12600.00
03546               0.00    12600.00
03547               2.00    12800.00
03548               2.20    12800.00
03549              -1.80    13000.00
03550               1.00    12800.00
03551               5.20    13000.00
03552               0.20    13200.00
03553               1.00    13200.00
03554               3.00    13400.00
03555               0.40    13400.00
03556               2.00    13200.00
03557               2.60    13400.00
03558               3.00    13400.00
03559               2.00    13400.00
03560               2.00    13400.00
03561               5.00    13400.00
03562               2.00    13400.00
03563               2.80    13400.00
03564               6.20    13400.00
03565               4.20    13600.00
03566               3.60    13400.00
03567               4.60    13400.00
03568               5.80    13400.00
03569               5.40    13400.00
03570               6.20    13400.00
03571               7.40    13400.00
03572               6.00    13400.00
03573               7.00    13400.00
03574               9.20    13200.00
03575               9.00    13200.00
03576               9.20    13200.00
03577              10.20    13200.00
03578               9.80    13200.00
03579               5.80    12800.00
03580               4.40    12800.00
03581               5.00    12800.00
03582               3.80    12800.00
03583               4.20    12800.00
03584               3.80    12600.00
03585               3.40    12400.00
03586               2.60    12400.00
03587               2.60    12200.00
03588               3.40    12200.00
03589               2.20    12000.00
03590               2.20    12000.00
03591               3.00    12000.00
03592               1.20    11800.00
03593               1.20    11800.00
03594               1.60    11400.00
03595               1.40    11200.00
03596               1.40    11200.00
03597               1.20    11000.00
03598               0.80    10800.00
03599               0.40    10800.00
03600               0.40    10400.00
03601               2.00    10400.00
03602               2.20    10200.00
03603               0.20    10000.00
03604              -0.40    10000.00
03605               2.00     9800.00
03606               0.00     9400.00
03607              -1.80     9400.00
03608               1.80     9200.00
03609               1.80     9200.00
03610              -0.60     8800.00
03611               0.60     8800.00
03612              -0.20     8400.00
03613              -2.00     8400.00
03614               0.60     8000.00
03615               2.80     8000.00
03616               0.00     7600.00
03617              -0.20     7600.00
03618               0.00     7200.00
03619              -0.60     7000.00
03620               0.60     6800.00
03621               0.80     6600.00
03622               0.20     6400.00
03623               0.40     6200.00
03624              -1.20     6000.00
03625              -2.00     5800.00
03626               1.00     5600.00
03627               1.80     5200.00
03628               0.00     4800.00
03629               0.60     4800.00
03630               0.20     4600.00
03631              -2.20     4400.00
03632               0.00     4000.00
03633               1.20     3800.00
03634               1.00     3600.00
03635               0.00     3200.00
03636              -1.40     3000.00
03637              -0.60     2800.00
03638               0.60     2600.00
03639               0.00     2400.00
03640               0.40     2000.00
03641               0.40     1800.00
03642              -1.00     1600.00
03643              -1.00     1400.00
03644               1.00     1200.00
03645               0.60      800.00
03646              -0.80      600.00
03647               0.40      400.00
03648               0.40        0.00
03649               0.20     -200.00
03650               1.40     -400.00
03651               0.20     -400.00
03652              -0.40     -800.00
03653               0.80    -1000.00
03654              -0.20    -1400.00
03655              -1.00    -1400.00
03656               1.00    -1600.00
03657               4.20    -2000.00
03658              17.20    -2000.00
03659               6.00    -2400.00
03660             -25.00    -3000.00
03661             -11.00    -3400.00
03662              13.80    -3800.00
03663             -22.00    -4000.00
03664              25.00    -3800.00
03665              25.00    -3800.00
03666             -25.00    -4200.00
03667              25.00    -4200.00
03668              25.00    -4600.00
03669             -25.00    -4800.00
03670              25.00    -5000.00
03671              25.00    -5400.00
03672             -25.00    -5600.00
03673              13.80    -5800.00
03674              -0.60    -6000.00
03675              -7.40    -6200.00
03676              14.00    -6600.00
03677             -25.00    -6600.00
03678              25.00    -6800.00
03679               0.40    -7200.00
03680             -25.00    -7400.00
03681              25.00    -7600.00
03682               6.00    -8000.00
03683             -25.00    -8200.00
03684              25.00    -8200.00
03685              10.00    -8400.00
03686             -25.00    -8800.00
03687              14.60    -8800.00
03688              10.20    -9000.00
03689             -17.40    -9200.00
03690               6.80    -9200.00
03691               5.00    -9600.00
03692              -9.20    -9600.00
03693               1.00    -9800.00
03694              -1.80   -10000.00
03695               2.00   -10400.00
03696               3.00   -10400.00
03697              -7.80   -10400.00
03698               1.20   -10600.00
03699               3.60   -10800.00
03700              -7.60   -10800.00
03701              -1.20   -11000.00
03702               6.60   -11400.00
03703              -5.00   -11400.00
03704              -5.80   -11600.00
03705               4.40   -11600.00
03706              -2.60   -11800.00
03707              -5.00   -12000.00
03708               3.00   -12000.00
03709              -0.40   -12200.00
03710              -3.80   -12400.00
03711              -0.40   -12200.00
03712              -1.20   -12400.00
03713              -1.80   -12600.00
03714              -1.20   -12600.00
03715              -1.80   -12800.00
03716              -1.00   -12800.00
03717              -3.60   -12800.00
03718              -2.00   -13000.00
03719              -0.60   -13000.00
03720              -3.00   -13000.00
03721              -2.80   -13200.00
03722              -2.20   -13200.00
03723              -2.20   -13200.00
03724              -1.80   -13200.00
03725              -3.20   -13200.00
03726              -3.40   -13200.00
03727              -2.80   -13200.00
03728              -4.60   -13200.00
03729              -4.40   -13600.00
03730              -2.80   -13200.00
03731              -5.20   -13200.00
03732              -6.00   -13200.00
03733              -4.40   -13400.00
03734              -6.00   -13400.00
03735              -7.00   -13200.00
03736              -5.00   -13200.00
03737              -6.20   -13200.00
03738              -8.00   -13400.00
03739              -7.00   -13200.00
03740              -8.60   -13200.00
03741              -9.00   -13000.00
03742              -8.20   -13200.00
03743             -10.60   -13200.00
03744             -11.00   -13000.00
03745              -8.60   -12800.00
03746              -6.20   -12800.00
03747              -6.20   -12800.00
03748              -5.00   -12800.00
03749              -4.40   -12800.00
03750              -4.20   -12400.00
03751              -3.80   -12600.00
03752              -3.80   -12400.00
03753              -3.80   -12200.00
03754              -3.40   -12200.00
03755              -2.80   -12000.00
03756              -2.20   -12000.00
03757              -2.60   -12000.00
03758              -2.80   -11600.00
03759              -2.20   -11600.00
03760              -2.20   -11400.00
03761              -2.40   -11400.00
03762              -2.00   -11200.00
03763              -1.20   -11000.00
03764              -2.00   -11000.00
03765              -1.40   -10800.00
03766              -1.40   -10600.00
03767              -2.80   -10400.00
03768              -1.20   -10400.00
03769              -0.60   -10000.00
03770              -1.80   -10000.00
03771              -1.40    -9800.00
03772              -0.80    -9600.00
03773              -1.20    -9400.00
03774              -1.00    -9200.00
03775              -1.00    -9200.00
03776              -1.00    -9000.00
03777              -1.20    -8800.00
03778              -1.00    -8600.00
03779              -1.00    -8400.00
03780              -1.20    -8200.00
03781              -1.20    -8000.00
03782              -0.60    -7800.00
03783              -0.80    -7600.00
03784              -0.60    -7400.00
03785              -0.60    -7200.00
03786              -0.60    -6800.00
03787              -0.60    -6800.00
03788              -0.20    -6400.00
03789              -0.60    -6200.00
03790              -2.00    -6000.00
03791               0.20    -5800.00
03792               0.40    -5600.00
03793              -1.40    -5400.00
03794              -0.80    -5000.00
03795              -0.80    -4800.00
03796              -1.60    -4600.00
03797              -0.80    -4400.00
03798              -0.20    -4200.00
03799              -0.80    -4000.00
03800              -0.60    -3600.00
03801              -0.60    -3400.00
03802              -0.60    -3200.00
03803              -0.40    -3000.00
03804              -1.00    -2800.00
03805              -0.60    -2400.00
03806               0.40    -2200.00
03807              -0.40    -2000.00
03808              -1.80    -1600.00
03809              -1.00    -1600.00
03810               0.20    -1200.00
03811              -0.60    -1000.00
03812              -0.60     -800.00
03813               0.20     -400.00
03814              -0.60     -200.00
03815              -0.60        0.00
03816               0.80      200.00
03817               2.20      400.00
03818              -0.60      800.00
03819              -1.00      800.00
03820               0.40     1200.00
03821               0.20     1400.00
03822              -1.00     1400.00
03823               1.60     1800.00
03824              13.20     2000.00
03825              22.80     2400.00
03826             -25.00     2800.00
03827             -25.00     3200.00
03828              14.80     3600.00
03829             -12.80     3600.00
03830              25.00     3800.00
03831              25.00     3600.00
03832             -25.00     4000.00
03833              25.00     4000.00
03834              25.00     4600.00
03835             -25.00     4800.00
03836              25.00     5200.00
03837              25.00     5400.00
03838             -25.00     5600.00
03839              25.00     6000.00
03840              11.60     6000.00
03841             -21.20     6200.00
03842              16.60     6400.00
03843             -25.00     6600.00
03844              25.00     6800.00
03845             -10.00     7200.00
03846             -25.00     7200.00
03847              25.00     7600.00
03848             -14.60     7800.00
03849             -25.00     8000.00
03850              25.00     8200.00
03851             -12.20     8400.00
03852             -25.00     8600.00
03853              21.80     8800.00
03854               2.00     8800.00
03855              -6.20     9200.00
03856               2.60     9400.00
03857               3.80     9400.00
03858               0.20     9600.00
03859              -4.80     9800.00
03860              -3.00    10000.00
03861              10.20    10000.00
03862               0.60    10400.00
03863              -8.20    10400.00
03864               6.20    10800.00
03865               3.00    10800.00
03866              -8.20    11000.00
03867               2.60    11200.00
03868              11.20    11200.00
03869              -7.20    11600.00
03870              -4.20    11600.00
03871               8.60    11800.00
03872              -2.80    11800.00
03873              -2.20    11800.00
03874               5.20    12200.00
03875               1.80    12200.00
03876              -2.60    12400.00
03877               0.60    12400.00
03878               2.20    12400.00
03879               0.20    12600.00
03880               1.80    12600.00
03881               2.60    12800.00
03882               1.80    12800.00
03883              -1.40    12800.00
03884               1.40    13000.00
03885               4.20    13000.00
03886               0.40    13200.00
03887               1.40    13200.00
03888               2.60    13200.00
03889               1.00    13200.00
03890               2.00    13400.00
03891               2.20    13200.00
03892               2.60    13400.00
03893               2.60    13400.00
03894               3.40    13600.00
03895               4.40    13400.00
03896               2.40    13400.00
03897               3.60    13600.00
03898               5.20    13400.00
03899               4.20    13400.00
03900               5.00    13400.00
03901               4.40    13400.00
03902               5.80    13400.00
03903               6.00    13400.00
03904               6.00    13400.00
03905               7.40    13200.00
03906               5.80    13400.00
03907               7.40    13400.00
03908               9.20    13200.00
03909               8.60    13200.00
03910               9.40    13200.00
03911              10.60    13000.00
03912               9.40    13000.00
03913               5.40    13000.00
03914               5.00    12800.00
03915               5.00    12800.00
03916               3.60    12800.00
03917               4.40    12600.00
03918               3.60    12600.00
03919               3.20    12600.00
03920               2.80    12400.00
03921               2.60    12400.00
03922               3.40    12400.00
03923               2.60    12000.00
03924               1.40    12000.00
03925               2.20    12000.00
03926               2.00    11800.00
03927               1.60    11600.00
03928               1.40    11600.00
03929               1.20    11200.00
03930               1.20    11200.00
03931               1.40    11000.00
03932               1.20    10800.00
03933               0.40    10800.00
03934               0.60    10800.00
03935               1.20    10400.00
03936               0.60    10200.00
03937               0.60    10000.00
03938               0.60    10000.00
03939               0.40     9800.00
03940               0.60     9400.00
03941               0.40     9200.00
03942              -0.20     9200.00
03943               0.60     9200.00
03944               1.00     8800.00
03945              -0.20     8800.00
03946               0.40     8400.00
03947               0.40     8400.00
03948              -0.60     8000.00
03949               1.20     7800.00
03950               0.60     7600.00
03951              -0.80     7400.00
03952               0.60     7200.00
03953               0.20     7000.00
03954              -0.20     6800.00
03955               0.80     6600.00
03956              -0.20     6200.00
03957              -0.60     6200.00
03958               1.00     6000.00
03959               0.40     5800.00
03960              -1.20     5400.00
03961               1.20     5200.00
03962               1.20     4800.00
03963              -1.40     4800.00
03964               0.60     4400.00
03965               1.40     4200.00
03966              -2.60     4000.00
03967               0.40     3800.00
03968               2.00     3600.00
03969              -2.20     3200.00
03970               0.00     3000.00
03971               1.40     3000.00
03972              -1.40     2400.00
03973               0.60     2400.00
03974               1.20     2000.00
03975              -1.40     1800.00
03976               1.00     1600.00
03977               0.40     1400.00
03978              -1.80     1200.00
03979               0.40      800.00
03980               0.20      400.00
03981              -1.20      400.00
03982               0.40        0.00
03983               1.40     -200.00
03984               1.00     -400.00
03985              -1.00     -600.00
03986              -0.20     -800.00
03987               0.60    -1000.00
03988              -0.20    -1400.00
03989              -1.00    -1600.00
03990               1.40    -1800.00
03991               5.00    -2000.00
03992              18.00    -2200.00
03993               1.40    -2400.00
03994             -25.00    -3000.00
03995              -7.40    -3400.00
03996              12.00    -4000.00
03997             -22.80    -4000.00
03998              25.00    -3800.00
03999              21.20    -3600.00
04000             -25.00    -4000.00
04001              25.00    -4200.00
04002              25.00    -4800.00
04003             -25.00    -5000.00
04004              25.00    -5200.00
04005              25.00    -5200.00
04006             -25.00    -5600.00
04007              17.40    -5800.00
04008              -6.40    -6000.00
04009              -2.40    -6400.00
04010              11.40    -6600.00
04011             -25.00    -6800.00
04012              25.00    -7000.00
04013              -8.60    -7200.00
04014             -25.00    -7400.00
04015              25.00    -7600.00
04016              -3.80    -8000.00
04017             -25.00    -8200.00
04018              25.00    -8200.00
04019               2.60    -8400.00
04020             -25.00    -8800.00
04021              18.00    -8800.00
04022               6.80    -9000.00
04023             -16.40    -9200.00
04024               8.60    -9200.00
04025               3.00    -9600.00
04026              -8.60    -9600.00
04027               1.00    -9800.00
04028              -2.20   -10000.00
04029               2.60   -10400.00
04030               2.00   -10400.00
04031              -7.00   -10600.00
04032               2.00   -10600.00
04033               2.00   -10800.00
04034              -7.00   -11000.00
04035               0.20   -11200.00
04036               5.80   -11200.00
04037              -5.00   -11400.00
04038              -3.80   -11400.00
04039               3.40   -11600.00
04040              -2.60   -11800.00
04041              -3.80   -12000.00
04042               2.00   -12000.00
04043              -1.00   -12200.00
04044              -3.40   -12200.00
04045              -0.60   -12400.00
04046              -1.40   -12400.00
04047              -1.40   -12400.00
04048              -1.20   -12400.00
04049              -1.20   -12800.00
04050              -1.20   -12800.00
04051              -3.00   -13000.00
04052              -1.40   -13000.00
04053              -1.00   -13000.00
04054              -2.80   -13200.00
04055              -2.20   -13200.00
04056              -2.80   -13200.00
04057              -2.60   -13000.00
04058              -2.80   -13200.00
04059              -3.60   -13200.00
04060              -2.80   -13200.00
04061              -3.80   -13200.00
04062              -4.00   -13200.00
04063              -3.80   -13400.00
04064              -4.60   -13200.00
04065              -4.60   -13400.00
04066              -4.40   -13200.00
04067              -4.40   -13200.00
04068              -6.80   -13200.00
04069              -6.60   -13400.00
04070              -5.20   -13200.00
04071              -8.20   -13200.00
04072              -7.00   -13200.00
04073              -6.60   -13200.00
04074             -10.40   -13200.00
04075              -8.40   -13200.00
04076              -8.80   -13000.00
04077             -11.00   -13000.00
04078             -10.00   -13000.00
04079              -8.60   -13000.00
04080              -5.40   -12800.00
04081              -6.00   -12800.00
04082              -5.40   -12800.00
04083              -3.40   -12400.00
04084              -4.60   -12600.00
04085              -3.80   -12400.00
04086              -2.80   -12200.00
04087              -5.00   -12200.00
04088              -3.00   -12200.00
04089              -2.00   -12000.00
04090              -4.20   -12000.00
04091              -2.20   -11800.00
04092              -2.20   -11600.00
04093              -3.40   -11600.00
04094              -1.00   -11400.00
04095              -2.20   -11400.00
04096              -2.20   -11200.00
04097              -0.40   -11000.00
04098              -2.80   -11000.00
04099              -1.00   -10800.00
04100              -0.60   -10600.00
04101              -3.60   -10400.00
04102              -0.40   -10200.00
04103              -0.20   -10000.00
04104              -3.40   -10000.00
04105              -0.60    -9800.00
04106              -0.40    -9600.00
04107              -2.20    -9600.00
04108              -0.60    -9200.00
04109              -0.20    -9200.00
04110              -1.40    -9000.00
04111              -1.20    -8800.00
04112              -0.20    -8400.00
04113              -1.20    -8400.00
04114              -1.20    -8000.00
04115              -0.20    -8000.00
04116              -1.20    -7800.00
04117              -1.20    -7600.00
04118              -0.20    -7200.00
04119              -1.20    -7200.00
04120              -1.20    -6800.00
04121               0.00    -6800.00
04122              -0.60    -6400.00
04123              -1.00    -6200.00
04124              -0.60    -6000.00
04125              -0.40    -5800.00
04126              -0.60    -5400.00
04127              -0.60    -5200.00
04128              -1.60    -5200.00
04129              -0.60    -4800.00
04130               0.20    -4600.00
04131              -1.00    -4200.00
04132              -0.40    -4200.00
04133              -0.60    -4000.00
04134              -1.80    -3600.00
04135              -0.60    -3400.00
04136               0.20    -3200.00
04137              -1.00    -2800.00
04138              -0.80    -2600.00
04139               0.20    -2600.00
04140              -0.60    -2200.00
04141              -1.40    -2000.00
04142               0.20    -1600.00
04143               0.20    -1600.00
04144              -1.20    -1200.00
04145              -0.20    -1000.00
04146              -0.60     -600.00
04147              -0.60     -400.00
04148               0.60     -200.00
04149              -0.60        0.00
04150               0.40      400.00
04151               2.60      600.00
04152              -2.20      600.00
04153              -0.80      800.00
04154               1.80     1200.00
04155              -0.40     1400.00
04156              -1.20     1600.00
04157               2.00     1800.00
04158              15.40     2000.00
04159              20.40     2400.00
04160             -25.00     2800.00
04161             -25.00     3200.00
04162              15.00     3600.00
04163             -14.60     3800.00
04164              25.00     3800.00
04165              14.60     4000.00
04166             -25.00     3800.00
04167              25.00     4400.00
04168              25.00     4600.00
04169             -25.00     4800.00
04170              25.00     5000.00
04171              25.00     5400.00
04172             -25.00     5400.00
04173              25.00     6000.00
04174               1.20     6000.00
04175             -14.00     6200.00
04176              12.00     6600.00
04177             -25.00     6600.00
04178              25.00     6800.00
04179             -25.00     7200.00
04180             -25.00     7200.00
04181              25.00     7600.00
04182             -25.00     7800.00
04183             -25.00     8000.00
04184              25.00     8400.00
04185             -22.00     8600.00
04186             -23.00     8600.00
04187              22.60     8800.00
04188              -0.60     9000.00
04189              -6.00     9200.00
04190               3.80     9400.00
04191               3.80     9600.00
04192              -0.20     9600.00
04193              -5.40     9800.00
04194              -2.00    10000.00
04195              10.80    10200.00
04196              -1.40    10200.00
04197              -7.60    10400.00
04198               7.40    10800.00
04199               2.00    10800.00
04200              -8.60    11000.00
04201               4.40    11000.00
04202              10.60    11200.00
04203              -8.40    11400.00
04204              -1.60    11600.00
04205               8.20    11800.00
04206              -3.00    12000.00
04207              -1.20    11800.00
04208               4.20    12000.00
04209               1.80    12200.00
04210              -2.00    12200.00
04211               0.40    12400.00
04212               2.60    12400.00
04213               0.40    12600.00
04214               0.60    12600.00
04215               2.60    12800.00
04216               1.80    12800.00
04217              -1.60    13000.00
04218               2.00    12800.00
04219               4.20    13000.00
04220               0.20    13200.00
04221               1.60    13200.00
04222               2.60    13400.00
04223               1.40    13200.00
04224               2.00    13400.00
04225               2.60    13400.00
04226               3.40    13400.00
04227               1.40    13600.00
04228               3.00    13400.00
04229               4.60    13400.00
04230               2.00    13400.00
04231               3.60    13400.00
04232               5.60    13400.00
04233               4.20    13600.00
04234               4.40    13600.00
04235               4.60    13400.00
04236               6.20    13200.00
04237               5.80    13400.00
04238               6.60    13400.00
04239               7.60    13600.00
04240               5.80    13600.00
04241               7.40    13400.00
04242               9.20    13200.00
04243               8.60    13200.00
04244               9.20    13200.00
04245              10.00    13200.00
04246               9.00    13200.00
04247               5.20    13000.00
04248               4.60    12800.00
04249               5.00    12800.00
04250               4.40    12800.00
04251               4.00    12600.00
04252               3.20    12400.00
04253               3.60    12600.00
04254               2.40    12400.00
04255               2.20    12200.00
04256               3.60    12200.00
04257               2.40    12000.00
04258               0.80    12000.00
04259               1.80    11800.00
04260               2.00    11800.00
04261               1.00    11600.00
04262               1.00    11400.00
04263               2.00    11200.00
04264               1.40    11200.00
04265               1.00    11000.00
04266               1.40    11000.00
04267               0.60    10800.00
04268               0.40    10600.00
04269               1.20    10400.00
04270               1.20    10200.00
04271               0.40    10000.00
04272               0.00     9600.00
04273               0.60     9600.00
04274               0.60     9600.00
04275               0.40     9400.00
04276               0.40     9400.00
04277               0.40     9000.00
04278               0.60     8800.00
04279               0.40     8600.00
04280               0.20     8600.00
04281               0.60     8200.00
04282               0.40     8000.00
04283               0.60     7800.00
04284               0.60     7800.00
04285              -0.40     7600.00
04286               0.00     7200.00
04287               0.40     7000.00
04288               0.40     6800.00
04289               0.00     6400.00
04290              -0.40     6400.00
04291               0.00     6200.00
04292               0.40     6000.00
04293              -0.20     5600.00
04294               0.40     5400.00
04295               0.60     5200.00
04296               0.20     4800.00
04297               0.40     4600.00
04298               0.20     4400.00
04299              -0.40     4400.00
04300               0.20     4000.00
04301               0.00     3800.00
04302               0.20     3400.00
04303              -0.20     3200.00
04304              -0.60     3000.00
04305              -0.20     2800.00
04306               0.40     2400.00
04307              -0.20     2200.00
04308              -0.40     2000.00
04309               0.40     1600.00
04310               0.40     1600.00
04311              -0.40     1200.00
04312               0.20     1200.00
04313              -0.20      800.00
04314              -0.60      600.00
04315               0.00      200.00
04316               0.40        0.00
04317               0.80     -200.00
04318               1.20     -400.00
04319              -1.20     -600.00
04320              -0.60     -800.00
04321               0.60    -1200.00
04322              -0.60    -1200.00
04323              -1.00    -1600.00
04324               1.40    -1800.00
04325               5.80    -2000.00
04326              18.80    -2000.00
04327              -3.00    -2600.00
04328             -25.00    -3200.00
04329              -3.00    -3400.00
04330               9.40    -3800.00
04331             -22.20    -4000.00
04332              25.00    -3600.00
04333               9.20    -3600.00
04334             -25.00    -4000.00
04335              25.00    -4400.00
04336              23.40    -4400.00
04337             -25.00    -5000.00
04338              25.00    -5200.00
04339              25.00    -5400.00
04340             -25.00    -5600.00
04341              20.40    -6000.00
04342             -11.00    -6000.00
04343               2.80    -6400.00
04344               7.00    -6600.00
04345             -23.00    -6800.00
04346              25.00    -7200.00
04347             -18.60    -7200.00
04348             -25.00    -7400.00
04349              25.00    -7600.00
04350             -15.00    -8000.00
04351             -25.00    -8000.00
04352              25.00    -8400.00
04353              -5.20    -8400.00
04354             -25.00    -8600.00
04355              21.20    -9000.00
04356               2.60    -9000.00
04357             -15.00    -9200.00
04358              10.80    -9600.00
04359               0.60    -9600.00
04360              -7.80    -9600.00
04361               1.80    -9800.00
04362              -2.20   -10000.00
04363               3.00   -10200.00
04364               1.20   -10400.00
04365              -7.20   -10400.00
04366               2.60   -10600.00
04367               1.00   -10800.00
04368              -7.40   -10800.00
04369               1.20   -11200.00
04370               5.40   -11200.00
04371              -6.00   -11400.00
04372              -3.40   -11400.00
04373               4.20   -11800.00
04374              -3.60   -11800.00
04375              -3.00   -12000.00
04376               2.60   -12000.00
04377              -1.60   -12200.00
04378              -3.00   -12200.00
04379              -0.80   -12400.00
04380              -2.00   -12400.00
04381              -1.80   -12400.00
04382              -1.40   -12800.00
04383              -1.80   -12800.00
04384              -1.20   -12800.00
04385              -3.80   -12800.00
04386              -1.40   -13000.00
04387              -0.40   -13000.00
04388              -3.00   -13000.00
04389              -2.80   -13200.00
04390              -2.20   -13200.00
04391              -2.60   -13200.00
04392              -3.20   -13200.00
04393              -3.00   -13200.00
04394              -2.80   -13200.00
04395              -4.20   -13200.00
04396              -4.20   -13200.00
04397              -3.40   -13400.00
04398              -4.80   -13400.00
04399              -4.80   -13200.00
04400              -4.20   -13200.00
04401              -5.00   -13200.00
04402              -7.00   -13200.00
04403              -6.00   -13200.00
04404              -5.80   -13200.00
04405              -7.00   -13200.00
04406              -6.20   -13200.00
04407              -7.60   -13200.00
04408              -8.80   -13200.00
04409              -8.60   -13200.00
04410              -9.40   -13200.00
04411             -10.00   -13000.00
04412             -10.60   -13000.00
04413              -8.60   -13000.00
04414              -5.40   -12800.00
04415              -6.00   -12800.00
04416              -5.40   -12800.00
04417              -3.80   -12600.00
04418              -3.60   -12600.00
04419              -3.80   -12400.00
04420              -3.80   -12400.00
04421              -3.00   -12200.00
04422              -3.40   -12200.00
04423              -2.80   -12000.00
04424              -2.00   -12000.00
04425              -3.20   -12000.00
04426              -3.00   -12000.00
04427              -2.00   -11600.00
04428              -2.20   -11400.00
04429              -2.20   -11400.00
04430              -2.00   -11200.00
04431              -1.80   -11000.00
04432              -1.60   -10800.00
04433              -1.40   -10600.00
04434              -1.80   -10600.00
04435              -1.60   -10400.00
04436              -1.20   -10200.00
04437              -1.20   -10000.00
04438              -1.00   -10000.00
04439              -1.20    -9800.00
04440              -1.40    -9600.00
04441              -0.60    -9600.00
04442              -0.80    -9200.00
04443              -1.40    -9200.00
04444              -0.80    -8800.00
04445              -1.20    -8800.00
04446              -1.00    -8400.00
04447              -1.20    -8400.00
04448              -1.00    -8200.00
04449              -1.00    -8000.00
04450              -1.20    -8000.00
04451              -0.60    -7400.00
04452              -0.20    -7200.00
04453              -1.60    -7200.00
04454              -1.00    -6800.00
04455              -0.40    -6600.00
04456              -1.00    -6600.00
04457              -0.80    -6200.00
04458              -0.60    -6000.00
04459              -1.00    -5800.00
04460              -1.20    -5600.00
04461              -1.20    -5200.00
04462              -0.80    -5000.00
04463              -0.60    -4800.00
04464              -0.60    -4600.00
04465              -0.40    -4400.00
04466              -0.60    -4000.00
04467              -1.00    -4000.00
04468              -0.20    -3600.00
04469              -0.20    -3400.00
04470              -0.60    -3200.00
04471              -0.60    -2800.00
04472              -1.00    -2800.00
04473              -0.80    -2400.00
04474              -0.40    -2200.00
04475              -0.60    -2000.00
04476              -0.60    -1800.00
04477              -0.60    -1600.00
04478              -0.60    -1200.00
04479               0.20    -1000.00
04480              -0.60     -800.00
04481              -0.60     -400.00
04482               0.40     -200.00
04483              -0.80        0.00
04484               1.40      200.00
04485               2.60      400.00
04486              -2.60      600.00
04487               0.20      800.00
04488               1.20     1200.00
04489              -1.20     1400.00
04490              -0.20     1600.00
04491               2.60     1800.00
04492              17.00     2000.00
04493              17.00     2400.00
04494             -25.00     2800.00
04495             -21.20     3200.00
04496              15.00     3600.00
04497             -14.80     3600.00
04498              25.00     3600.00
04499               1.80     3800.00
04500             -25.00     4000.00
04501              25.00     4000.00
04502              24.60     4600.00
04503             -25.00     4800.00
04504              25.00     5200.00
04505              25.00     5400.00
04506             -25.00     5600.00
04507              25.00     5600.00
04508              -8.40     6000.00
04509              -9.00     6200.00
04510               8.20     6600.00
04511             -22.80     6600.00
04512              25.00     6800.00
04513             -25.00     7200.00
04514             -25.00     7200.00
04515              25.00     7600.00
04516             -25.00     7800.00
04517             -23.20     8000.00
04518              25.00     8400.00
04519             -25.00     8400.00
04520             -18.60     8600.00
04521              22.80     8800.00
04522              -2.20     9000.00
04523              -6.20     9200.00
04524               5.00     9400.00
04525               3.60     9400.00
04526              -1.80     9600.00
04527              -5.20     9600.00
04528               0.60    10200.00
04529              10.00    10200.00
04530              -2.80    10400.00
04531              -5.40    10400.00
04532               7.00    10800.00
04533               0.20    11000.00
04534              -7.80    11000.00
04535               5.80    11200.00
04536               9.80    11200.00
04537              -9.60    11600.00
04538              -0.60    11600.00
04539               8.40    11600.00
04540              -4.20    11800.00
04541              -1.00    12000.00
04542               6.20    12000.00
04543               1.80    12200.00
04544              -3.00    12400.00
04545               1.40    12400.00
04546               2.80    12600.00
04547              -0.40    12600.00
04548               1.80    12600.00
04549               3.40    12800.00
04550               0.80    12800.00
04551              -2.00    12800.00
04552               2.40    13000.00
04553               4.20    13000.00
04554              -0.40    13200.00
04555               2.00    13200.00
04556               2.60    13200.00
04557               1.00    13200.00
04558               2.00    13200.00
04559               3.60    13400.00
04560               3.00    13400.00
04561               1.80    13200.00
04562               3.60    13400.00
04563               4.20    13400.00
04564               1.40    13600.00
04565               4.20    13400.00
04566               5.80    13400.00
04567               4.00    13600.00
04568               4.20    13400.00
04569               4.60    13400.00
04570               6.00    13400.00
04571               5.80    13400.00
04572               7.40    13400.00
04573               7.40    13400.00
04574               5.80    13400.00
04575               7.60    13400.00
04576               9.00    13200.00
04577               8.60    13200.00
04578               9.60    13200.00
04579              10.00    13200.00
04580               8.40    13000.00
04581               4.60    13000.00
04582               4.60    12800.00
04583               5.00    12800.00
04584               3.60    12600.00
04585               4.20    12600.00
04586               3.60    12600.00
04587               2.60    12400.00
04588               2.20    12400.00
04589               3.40    12400.00
04590               3.40    12200.00
04591               1.40    12000.00
04592               2.00    12000.00
04593               2.00    11800.00
04594               1.00    11600.00
04595               1.40    11600.00
04596               1.40    11600.00
04597               1.40    11200.00
04598               1.20    11000.00
04599               1.40    11000.00
04600               1.20    10800.00
04601               0.40    10800.00
04602               1.20    10600.00
04603               1.60    10400.00
04604               0.60    10200.00
04605               0.60    10000.00
04606               0.40    10000.00
04607               0.40     9600.00
04608               1.00     9600.00
04609               0.60     9400.00
04610               0.20     9200.00
04611               0.20     9000.00
04612               0.60     8800.00
04613               0.60     8600.00
04614               0.20     8400.00
04615               0.60     8200.00
04616               0.40     8000.00
04617               0.40     7800.00
04618               0.40     7600.00
04619              -0.20     7400.00
04620               0.40     7200.00
04621               0.40     7000.00
04622               0.40     6800.00
04623               0.20     6400.00
04624              -0.40     6400.00
04625               0.20     6000.00
04626               0.40     6000.00
04627              -0.20     5600.00
04628               0.40     5400.00
04629               0.20     5200.00
04630              -0.20     4800.00
04631               0.20     4600.00
04632               0.40     4400.00
04633              -0.40     4200.00
04634               0.00     3800.00
04635               0.40     3600.00
04636               0.20     3600.00
04637               0.00     3200.00
04638              -0.60     3000.00
04639              -0.20     2800.00
04640               0.40     2400.00
04641              -0.60     2200.00
04642              -0.40     2000.00
04643               0.40     1800.00
04644              -0.60     1600.00
04645              -0.60     1200.00
04646               0.20     1000.00
04647              -0.60      800.00
04648              -0.60      600.00
04649               0.40      200.00
04650               0.20        0.00
04651               0.80     -200.00
04652               1.80     -400.00
04653              -1.20     -600.00
04654              -1.00     -800.00
04655               1.20    -1000.00
04656              -0.60    -1200.00
04657              -1.00    -1600.00
04658               1.80    -1800.00
04659               6.60    -2000.00
04660              18.80    -2000.00
04661              -7.40    -2600.00
04662             -25.00    -3200.00
04663               0.60    -3600.00
04664               6.80    -4000.00
04665             -21.00    -4000.00
04666              25.00    -3800.00
04667              -3.00    -3800.00
04668             -25.00    -4200.00
04669              25.00    -4400.00
04670               8.40    -4800.00
04671             -25.00    -5000.00
04672              25.00    -5200.00
04673              13.40    -5600.00
04674             -25.00    -5800.00
04675              22.00    -5800.00
04676             -15.00    -6000.00
04677               7.40    -6400.00
04678               1.80    -6600.00
04679             -17.80    -6800.00
04680              25.00    -7000.00
04681             -25.00    -7200.00
04682             -25.00    -7400.00
04683              25.00    -7600.00
04684             -25.00    -8000.00
04685             -25.00    -8200.00
04686              25.00    -8400.00
04687             -12.60    -8400.00
04688             -25.00    -8800.00
04689              22.60    -8800.00
04690              -1.20    -9200.00
04691             -13.40    -9200.00
04692              11.60    -9400.00
04693              -1.00    -9600.00
04694              -7.00    -9600.00
04695               1.40   -10000.00
04696              -2.20   -10000.00
04697               3.80   -10000.00
04698              -0.20   -10400.00
04699              -6.60   -10600.00
04700               3.40   -10800.00
04701               0.20   -10800.00
04702              -7.40   -11000.00
04703               2.00   -11200.00
04704               4.20   -11200.00
04705              -6.60   -11400.00
04706              -2.60   -11600.00
04707               3.40   -11800.00
04708              -4.20   -12000.00
04709              -2.80   -12000.00
04710               2.60   -12200.00
04711              -2.00   -12200.00
04712              -3.00   -12200.00
04713              -0.60   -12400.00
04714              -2.00   -12600.00
04715              -1.40   -12600.00
04716              -1.80   -12400.00
04717              -1.20   -12400.00
04718              -1.40   -12800.00
04719              -3.80   -12800.00
04720              -1.20   -12800.00
04721              -1.20   -13000.00
04722              -3.40   -13000.00
04723              -2.60   -13200.00
04724              -2.60   -13200.00
04725              -2.40   -13200.00
04726              -2.80   -13200.00
04727              -3.40   -13200.00
04728              -2.80   -13400.00
04729              -3.80   -13200.00
04730              -4.20   -13200.00
04731              -3.40   -13200.00
04732              -4.40   -13400.00
04733              -4.60   -13200.00
04734              -4.40   -13200.00
04735              -5.20   -13200.00
04736              -7.00   -13200.00
04737              -6.20   -13400.00
04738              -5.80   -13200.00
04739              -6.80   -13200.00
04740              -7.00   -13200.00
04741              -7.80   -13200.00
04742              -8.60   -13200.00
04743              -8.20   -13200.00
04744              -9.20   -13200.00
04745             -10.60   -13000.00
04746             -10.20   -13000.00
04747              -7.40   -13000.00
04748              -6.20   -13000.00
04749              -5.40   -12800.00
04750              -5.00   -12800.00
04751              -5.00   -12800.00
04752              -2.80   -12400.00
04753              -4.40   -12400.00
04754              -4.20   -12400.00
04755              -2.20   -12400.00
04756              -4.20   -12200.00
04757              -2.00   -12000.00
04758              -2.40   -12000.00
04759              -3.00   -12000.00
04760              -4.20   -11800.00
04761               0.40   -11600.00
04762              -1.80   -11400.00
04763              -3.00   -11400.00
04764              -1.20   -11000.00
04765              -1.20   -11000.00
04766              -3.80   -10800.00
04767              -3.00   -10800.00
04768              -1.20   -10600.00
04769              -0.60   -10400.00
04770              -2.00   -10400.00
04771              -0.40   -10000.00
04772               0.00   -10000.00
04773              -3.40    -9800.00
04774              -0.60    -9600.00
04775              -1.20    -9600.00
04776              -1.80    -9400.00
04777               0.40    -9000.00
04778              -2.20    -9000.00
04779              -2.20    -8800.00
04780               0.00    -8400.00
04781              -1.60    -8400.00
04782              -2.20    -8200.00
04783               0.40    -8000.00
04784              -1.60    -7800.00
04785              -1.20    -7400.00
04786              -0.60    -7400.00
04787              -1.80    -7200.00
04788               0.40    -6800.00
04789              -0.40    -6800.00
04790              -2.00    -6400.00
04791              -0.20    -6200.00
04792              -0.60    -5800.00
04793              -1.40    -5800.00
04794              -0.20    -5600.00
04795              -0.60    -5200.00
04796              -1.40    -5000.00
04797              -1.00    -4800.00
04798              -1.00    -4400.00
04799              -0.60    -4400.00
04800              -0.20    -4000.00
04801              -1.00    -4000.00
04802              -0.60    -3600.00
04803               0.20    -3400.00
04804              -0.60    -3200.00
04805              -1.00    -2800.00
04806              -0.60    -2600.00
04807              -0.60    -2600.00
04808              -0.60    -2000.00
04809               0.00    -1800.00
04810              -0.60    -1600.00
04811              -0.40    -1400.00
04812              -0.20    -1200.00
04813              -1.20     -800.00
04814              -1.00     -600.00
04815               0.20     -400.00
04816              -0.20     -200.00
04817               0.20        0.00
04818               1.80      400.00
04819               1.40      600.00
04820              -1.60      800.00
04821               0.20      800.00
04822               1.20     1200.00
04823              -0.60     1400.00
04824              -0.60     1800.00
04825               2.60     1800.00
04826              19.60     2000.00
04827              12.20     2400.00
04828             -25.00     3000.00
04829             -15.60     3200.00
04830              13.60     3600.00
04831             -13.00     3600.00
04832              25.00     3600.00
04833             -13.60     4000.00
04834             -25.00     4000.00
04835              25.00     4200.00
04836               2.80     4600.00
04837             -25.00     4800.00
04838              25.00     5200.00
04839              21.80     5400.00
04840             -25.00     5600.00
04841              25.00     5800.00
04842             -15.20     6000.00
04843              -2.40     6200.00
04844              -0.40     6600.00
04845             -15.00     6800.00
04846              25.00     6800.00
04847             -25.00     7200.00
04848             -21.40     7400.00
04849              25.00     7600.00
04850             -25.00     7800.00
04851              -8.60     8200.00
04852              25.00     8400.00
04853             -25.00     8400.00
04854             -11.20     8600.00
04855              21.20     8800.00
04856              -4.40     9000.00
04857              -4.60     9200.00
04858               4.60     9400.00
04859               2.80     9600.00
04860              -2.20     9600.00
04861              -6.00     9800.00
04862               1.80    10000.00
04863              10.40    10200.00
04864              -4.40    10400.00
04865              -4.20    10400.00
04866               8.20    10800.00
04867              -1.00    10800.00
04868              -7.20    11000.00
04869               7.60    11200.00
04870               7.80    11200.00
04871             -10.20    11600.00
04872               1.60    11600.00
04873               6.60    11800.00
04874              -4.40    11800.00
04875               1.00    12000.00
04876               4.60    12000.00
04877               1.00    12400.00
04878              -1.40    12400.00
04879               1.40    12400.00
04880               2.60    12600.00
04881               0.60    12600.00
04882               1.80    12600.00
04883               2.60    12800.00
04884               0.60    12800.00
04885              -1.40    12800.00
04886               3.00    13000.00
04887               3.40    13200.00
04888              -0.20    13200.00
04889               2.60    13200.00
04890               1.80    13400.00
04891               1.00    13200.00
04892               3.00    13400.00
04893               3.00    13400.00
04894               2.80    13400.00
04895               2.60    13400.00
04896               3.40    13600.00
04897               4.20    13400.00
04898               2.00    13400.00
04899               4.20    13400.00
04900               5.40    13400.00
04901               4.20    13400.00
04902               3.80    13400.00
04903               5.00    13400.00
04904               6.00    13400.00
04905               5.40    13400.00
04906               7.00    13400.00
04907               6.80    13400.00
04908               5.80    13400.00
04909               8.20    13400.00
04910               8.40    13200.00
04911               8.60    13200.00
04912               9.80    13200.00
04913              10.00    13200.00
04914               8.20    13000.00
04915               5.20    12800.00
04916               4.80    12800.00
04917               4.40    12800.00
04918               4.20    12600.00
04919               4.20    12600.00
04920               3.00    12600.00
04921               2.80    12400.00
04922               2.60    12400.00
04923               2.60    12400.00
04924               3.00    12200.00
04925               2.00    12000.00
04926               1.80    12000.00
04927               2.20    11800.00
04928               2.00    11800.00
04929               1.80    11600.00
04930               1.40    11400.00
04931               1.80    11200.00
04932               1.40    11000.00
04933               1.00    11000.00
04934               1.00    10800.00
04935               0.40    10800.00
04936               1.00    10600.00
04937               1.40    10400.00
04938               1.00    10200.00
04939               0.60    10000.00
04940               0.00    10000.00
04941               0.80     9600.00
04942               1.40     9400.00
04943               0.60     9200.00
04944               0.40     9200.00
04945               0.60     9000.00
04946               0.60     8800.00
04947               0.20     8600.00
04948               0.40     8400.00
04949               0.40     8000.00
04950               0.40     8000.00
04951               0.40     7800.00
04952               0.20     7600.00
04953              -0.60     7400.00
04954              -0.20     7200.00
04955               0.80     7000.00
04956               0.80     6800.00
04957              -0.20     6400.00
04958               0.20     6400.00
04959               0.60     6200.00
04960              -0.40     5800.00
04961               0.20     5600.00
04962               1.00     5400.00
04963              -0.40     5200.00
04964               0.20     4800.00
04965               0.40     4600.00
04966              -1.00     4400.00
04967              -0.60     4000.00
04968               0.00     4000.00
04969              -0.40     3600.00
04970              -0.20     3400.00
04971               0.20     3200.00
04972              -0.60     3000.00
04973               0.00     2800.00
04974               0.60     2400.00
04975              -0.40     2200.00
04976              -0.60     2200.00
04977               0.20     1800.00
04978              -0.60     1400.00
04979              -0.40     1200.00
04980              -0.40     1200.00
04981              -0.60      600.00
04982              -1.00      400.00
04983               0.20      200.00
04984               0.40        0.00
04985               1.00     -200.00
04986               1.20     -400.00
04987              -1.20     -800.00
04988               0.20     -800.00
04989               1.00    -1000.00
04990              -1.40    -1400.00
04991              -0.20    -1600.00
04992               2.00    -1800.00
04993               7.00    -2000.00
04994              20.20    -2400.00
04995             -12.40    -2800.00
04996             -25.00    -3200.00
04997               4.40    -3600.00
04998               3.20    -4000.00
04999             -17.80    -4000.00
05000              25.00    -3600.00
