Unit:(mV)
                     CH1         CH2
Frequency              ? 299.474 kHz
00001              10.00    -6000.00
00002             -17.40    -6400.00
00003              25.00    -6400.00
00004             -25.00    -6800.00
00005               3.60    -7000.00
00006              25.00    -7200.00
00007             -25.00    -7200.00
00008               0.60    -7600.00
00009              25.00    -7800.00
00010             -25.00    -8000.00
00011              -5.40    -8400.00
00012              25.00    -8400.00
00013             -24.60    -8800.00
00014             -19.00    -9000.00
00015              25.00    -9200.00
00016              -4.40    -9200.00
00017             -12.40    -9600.00
00018              13.40    -9600.00
00019              -2.00    -9800.00
00020              -6.20   -10000.00
00021              -0.60   -10000.00
00022               1.40   -10400.00
00023               6.80   -10400.00
00024              -6.00   -10800.00
00025              -3.80   -10800.00
00026               9.00   -11000.00
00027              -5.20   -11000.00
00028              -6.20   -11200.00
00029              10.60   -11400.00
00030               0.20   -11600.00
00031              -8.20   -11800.00
00032               4.40   -12000.00
00033               1.80   -12000.00
00034              -6.00   -12200.00
00035               2.00   -12400.00
00036               2.80   -12400.00
00037              -3.00   -12400.00
00038              -0.60   -12400.00
00039               1.20   -12400.00
00040              -0.60   -12800.00
00041               0.40   -12800.00
00042               1.00   -13000.00
00043               0.40   -13000.00
00044              -0.60   -13000.00
00045              -1.20   -13200.00
00046               1.20   -13000.00
00047               0.20   -13200.00
00048              -1.00   -13200.00
00049              -0.40   -13400.00
00050              -0.40   -13400.00
00051               0.20   -13400.00
00052              -0.60   -13600.00
00053               0.20   -13600.00
00054               1.00   -13600.00
00055              -1.20   -13600.00
00056               0.40   -13600.00
00057               1.20   -13600.00
00058              -0.80   -13600.00
00059               0.20   -13400.00
00060               1.20   -13600.00
00061              -0.60   -13600.00
00062              -1.80   -13600.00
00063               1.00   -13800.00
00064               0.80   -13600.00
00065              -0.60   -13600.00
00066               0.40   -13600.00
00067              -0.60   -13600.00
00068              -1.20   -13600.00
00069               1.00   -13400.00
00070               0.40   -13200.00
00071              -0.20   -13400.00
00072              -0.20   -13200.00
00073               0.20   -13200.00
00074              -0.40   -13000.00
00075               0.00   -13000.00
00076               0.20   -13000.00
00077              -0.40   -12800.00
00078               0.60   -12800.00
00079              -0.40   -12800.00
00080              -1.20   -12400.00
00081               0.40   -12600.00
00082              -0.40   -12400.00
00083               0.20   -12200.00
00084               0.40   -12400.00
00085              -0.80   -12200.00
00086              -1.00   -12000.00
00087               0.60   -11800.00
00088              -0.40   -11600.00
00089              -0.60   -11400.00
00090               0.40   -11400.00
00091               0.20   -11000.00
00092              -0.60   -11000.00
00093               0.20   -10800.00
00094              -0.20   -10800.00
00095              -0.60   -10600.00
00096               0.20   -10400.00
00097               0.20   -10400.00
00098              -0.60    -9800.00
00099              -0.40   -10000.00
00100              -0.60    -9800.00
00101               0.20    -9600.00
00102              -0.40    -9400.00
00103              -0.60    -9200.00
00104               0.20    -9000.00
00105               0.20    -9000.00
00106              -0.60    -8800.00
00107               0.40    -8400.00
00108              -0.20    -8400.00
00109              -0.60    -8000.00
00110               0.40    -8000.00
00111              -0.20    -7600.00
00112              -1.00    -7400.00
00113              -0.40    -7200.00
00114              -0.40    -7000.00
00115              -0.60    -6600.00
00116              -0.20    -6600.00
00117               0.20    -6400.00
00118              -0.60    -6000.00
00119               0.20    -5800.00
00120               0.00    -5600.00
00121              -0.40    -5400.00
00122               0.00    -5000.00
00123               0.20    -4800.00
00124              -0.40    -4600.00
00125               0.00    -4400.00
00126              -0.60    -4200.00
00127              -0.60    -4000.00
00128               0.20    -3600.00
00129              -0.60    -3400.00
00130              -0.60    -3200.00
00131              -0.20    -3000.00
00132              -0.60    -2800.00
00133              -0.40    -2400.00
00134               0.60    -2200.00
00135              -0.40    -2000.00
00136              -0.40    -1800.00
00137               0.20    -1600.00
00138              -0.20    -1200.00
00139              -0.60     -800.00
00140              -0.40     -600.00
00141              -0.20     -400.00
00142              -0.60     -200.00
00143              -0.20        0.00
00144               1.20      400.00
00145               0.40      600.00
00146              -1.80      800.00
00147               0.20     1000.00
00148               1.00     1200.00
00149              -0.60     1400.00
00150              -0.20     1800.00
00151               3.40     2000.00
00152              23.40     2200.00
00153               0.20     2400.00
00154             -25.00     3000.00
00155              -4.20     3400.00
00156               7.00     3600.00
00157              -3.80     3600.00
00158              25.00     3600.00
00159             -25.00     3800.00
00160             -25.00     4000.00
00161              25.00     4400.00
00162             -25.00     4600.00
00163             -25.00     4800.00
00164              25.00     5400.00
00165             -25.00     5400.00
00166             -25.00     5600.00
00167              25.00     6000.00
00168             -23.40     6200.00
00169              21.80     6400.00
00170             -25.00     6600.00
00171               9.00     6800.00
00172              25.00     7000.00
00173             -25.00     7200.00
00174              14.80     7400.00
00175              25.00     7600.00
00176             -25.00     8000.00
00177              13.80     8200.00
00178              25.00     8400.00
00179             -25.00     8600.00
00180             -10.00     8800.00
00181              21.40     8800.00
00182               0.60     9200.00
00183             -13.40     9400.00
00184               3.80     9400.00
00185               9.40     9600.00
00186              -6.00     9800.00
00187             -13.40    10000.00
00188              10.00    10200.00
00189              13.00    10400.00
00190             -18.60    10600.00
00191              -1.00    10600.00
00192              17.20    11000.00
00193             -14.40    11000.00
00194              -9.80    11200.00
00195              20.40    11200.00
00196              -3.40    11600.00
00197             -16.20    11600.00
00198              12.20    11800.00
00199               1.80    12000.00
00200             -10.20    12000.00
00201               3.80    12000.00
00202               4.80    12400.00
00203              -4.40    12400.00
00204              -3.60    12400.00
00205               3.40    12600.00
00206              -0.60    12600.00
00207              -3.80    12600.00
00208               1.20    12800.00
00209               2.60    13000.00
00210              -4.20    13200.00
00211              -3.20    13200.00
00212               4.40    13200.00
00213              -1.00    13200.00
00214              -3.40    13400.00
00215               2.40    13400.00
00216              -1.20    13400.00
00217              -2.40    13400.00
00218               0.60    13600.00
00219               0.00    13600.00
00220              -1.00    13600.00
00221              -2.20    13600.00
00222               0.20    13600.00
00223               0.40    13600.00
00224              -3.00    13600.00
00225              -0.20    13600.00
00226               2.40    13600.00
00227              -1.80    13600.00
00228              -2.80    13600.00
00229               1.80    13600.00
00230              -0.20    13600.00
00231              -2.60    13600.00
00232               2.00    13600.00
00233              -1.00    13600.00
00234              -3.40    13400.00
00235               1.20    13400.00
00236              -0.60    13400.00
00237              -1.80    13400.00
00238               0.40    13400.00
00239              -0.60    13200.00
00240              -1.20    13200.00
00241               0.20    13200.00
00242              -0.40    13000.00
00243              -1.40    13000.00
00244               1.00    12800.00
00245              -0.20    12800.00
00246              -1.80    12800.00
00247               0.40    12600.00
00248              -0.20    12600.00
00249              -1.20    12400.00
00250              -0.40    12400.00
00251              -0.60    12200.00
00252              -0.40    12000.00
00253              -1.00    12000.00
00254              -0.40    12000.00
00255               0.40    11800.00
00256              -1.20    11600.00
00257              -0.60    11400.00
00258               0.60    11200.00
00259               0.00    11200.00
00260              -1.20    10800.00
00261              -0.80    10800.00
00262              -0.20    10800.00
00263              -0.40    10400.00
00264              -0.20    10400.00
00265              -0.40    10200.00
00266              -1.20    10000.00
00267               0.20     9800.00
00268              -0.60     9600.00
00269              -0.60     9400.00
00270              -0.20     9200.00
00271              -0.40     9000.00
00272              -0.20     8800.00
00273              -0.60     8600.00
00274              -1.00     8400.00
00275              -0.20     8200.00
00276               0.20     8000.00
00277              -0.80     7800.00
00278              -0.60     7600.00
00279              -0.40     7400.00
00280              -1.00     7200.00
00281              -0.40     7000.00
00282               0.40     6800.00
00283              -1.00     6400.00
00284              -0.60     6200.00
00285              -0.20     6000.00
00286              -0.60     6000.00
00287              -1.20     5600.00
00288               0.20     5600.00
00289              -0.20     5200.00
00290              -0.40     4800.00
00291              -0.20     4600.00
00292              -0.20     4400.00
00293              -1.00     4200.00
00294              -0.60     4000.00
00295               0.20     3600.00
00296              -0.60     3400.00
00297              -1.00     3200.00
00298              -0.40     3000.00
00299              -0.40     2800.00
00300              -0.60     2400.00
00301              -0.40     2200.00
00302              -0.40     2000.00
00303              -0.60     1600.00
00304               0.00     1400.00
00305               0.20     1200.00
00306              -0.20     1000.00
00307              -0.40      600.00
00308              -0.40      400.00
00309               0.20      200.00
00310               0.40        0.00
00311               1.40     -400.00
00312               0.40     -400.00
00313              -1.20     -800.00
00314              -0.20    -1000.00
00315               0.60    -1200.00
00316              -1.00    -1400.00
00317              -0.60    -1600.00
00318               2.80    -1800.00
00319              11.00    -2000.00
00320              18.00    -2400.00
00321             -21.40    -2800.00
00322             -25.00    -3400.00
00323              11.00    -3600.00
00324              -5.80    -4000.00
00325              -4.60    -4000.00
00326              25.00    -3800.00
00327             -25.00    -4000.00
00328             -22.60    -4400.00
00329              25.00    -4400.00
00330             -25.00    -4800.00
00331             -25.00    -5200.00
00332              25.00    -5400.00
00333             -23.00    -5600.00
00334              -9.20    -5800.00
00335               9.80    -6000.00
00336             -14.80    -6200.00
00337              23.80    -6600.00
00338             -25.00    -6800.00
00339              10.80    -6800.00
00340              25.00    -7200.00
00341             -25.00    -7200.00
00342              10.20    -7600.00
00343              25.00    -8000.00
00344             -25.00    -8200.00
00345               1.80    -8400.00
00346              25.00    -8600.00
00347             -25.00    -8800.00
00348             -13.40    -9000.00
00349              25.00    -9000.00
00350              -7.60    -9200.00
00351             -10.00    -9600.00
00352              13.40    -9600.00
00353              -3.00    -9800.00
00354              -5.00    -9800.00
00355              -1.00   -10000.00
00356               2.00   -10400.00
00357               6.20   -10400.00
00358              -7.00   -10800.00
00359              -2.20   -10800.00
00360               9.20   -11200.00
00361              -6.80   -11000.00
00362              -5.80   -11200.00
00363              11.40   -11600.00
00364              -1.40   -11600.00
00365              -8.20   -11800.00
00366               6.60   -12000.00
00367               1.40   -12000.00
00368              -6.20   -12200.00
00369               3.00   -12200.00
00370               3.40   -12400.00
00371              -3.60   -12400.00
00372              -0.40   -12600.00
00373               1.80   -12600.00
00374              -1.00   -12800.00
00375              -0.60   -12800.00
00376               0.60   -12800.00
00377               1.00   -13000.00
00378              -1.40   -13000.00
00379              -1.20   -13200.00
00380               2.60   -13200.00
00381              -0.60   -13200.00
00382              -1.20   -13400.00
00383               1.20   -13400.00
00384              -0.20   -13400.00
00385              -0.60   -13400.00
00386               0.40   -13400.00
00387               0.40   -13600.00
00388              -0.60   -13600.00
00389               0.20   -13600.00
00390               0.40   -13600.00
00391              -0.60   -13600.00
00392              -0.40   -13600.00
00393               0.20   -13600.00
00394               1.00   -13600.00
00395              -0.60   -13600.00
00396              -1.00   -13600.00
00397               1.20   -13600.00
00398               0.20   -13600.00
00399              -0.60   -13600.00
00400               1.00   -13600.00
00401              -0.60   -13600.00
00402              -1.00   -13400.00
00403               0.60   -13400.00
00404               0.40   -13200.00
00405              -0.60   -13400.00
00406              -0.40   -13200.00
00407               0.40   -13200.00
00408              -1.00   -13000.00
00409              -0.60   -13000.00
00410               0.40   -12800.00
00411              -0.40   -13000.00
00412              -0.20   -12800.00
00413               0.20   -12800.00
00414              -0.40   -12600.00
00415              -0.60   -12600.00
00416              -0.20   -12400.00
00417               1.00   -12400.00
00418              -0.40   -12200.00
00419              -1.20   -12000.00
00420              -0.20   -12000.00
00421              -0.20   -12000.00
00422              -1.00   -11600.00
00423              -0.20   -11400.00
00424               0.20   -11400.00
00425              -0.40   -11200.00
00426              -0.40   -11000.00
00427               0.40   -10800.00
00428              -0.60   -10800.00
00429              -0.40   -10600.00
00430               0.60   -10400.00
00431               0.20   -10400.00
00432              -1.00   -10000.00
00433              -0.60   -10000.00
00434              -0.20   -10000.00
00435              -0.40    -9600.00
00436              -0.60    -9400.00
00437              -0.20    -9200.00
00438              -0.60    -9000.00
00439              -0.40    -8800.00
00440               0.20    -8800.00
00441              -0.40    -8400.00
00442              -0.20    -8200.00
00443               0.20    -8000.00
00444              -0.20    -7800.00
00445              -0.40    -7600.00
00446              -0.40    -7200.00
00447              -0.40    -7200.00
00448              -0.60    -7000.00
00449               0.00    -6800.00
00450              -0.20    -6600.00
00451              -1.00    -6200.00
00452              -0.20    -6000.00
00453               0.00    -5800.00
00454              -0.40    -5600.00
00455              -0.20    -5200.00
00456              -0.20    -5000.00
00457              -0.20    -4800.00
00458               0.00    -4600.00
00459              -0.20    -4400.00
00460              -0.40    -4000.00
00461              -0.20    -4000.00
00462              -0.60    -3800.00
00463               0.00    -3400.00
00464              -0.40    -3000.00
00465              -0.80    -2800.00
00466              -0.40    -2800.00
00467              -0.20    -2400.00
00468              -0.60    -2200.00
00469              -0.40    -2000.00
00470              -0.40    -1600.00
00471              -0.40    -1600.00
00472              -0.40    -1200.00
00473              -0.20     -800.00
00474              -0.60     -600.00
00475              -0.40     -400.00
00476               0.00     -200.00
00477              -0.20        0.00
00478               1.60      400.00
00479               0.60      600.00
00480              -2.20      800.00
00481               0.20     1200.00
00482               1.00     1200.00
00483              -1.20     1400.00
00484               0.20     1800.00
00485               4.20     2000.00
00486              23.80     2200.00
00487              -4.40     2400.00
00488             -25.00     3000.00
00489              -0.60     3400.00
00490               4.80     3600.00
00491               1.20     3800.00
00492              25.00     3800.00
00493             -25.00     4000.00
00494             -19.40     4000.00
00495              25.00     4400.00
00496             -25.00     4600.00
00497             -25.00     5000.00
00498              25.00     5200.00
00499             -25.00     5600.00
00500             -23.00     5600.00
00501              25.00     6000.00
00502             -23.00     6000.00
00503              23.40     6400.00
00504             -25.00     6600.00
00505              18.80     6800.00
00506              25.00     7000.00
00507             -25.00     7400.00
00508              25.00     7600.00
00509              25.00     7800.00
00510             -25.00     7800.00
00511              23.00     8200.00
00512              25.00     8400.00
00513             -25.00     8600.00
00514              -5.80     8800.00
00515              21.00     8800.00
00516              -1.40     9200.00
00517             -12.80     9400.00
00518               5.40     9600.00
00519               8.60     9600.00
00520              -7.00     9800.00
00521             -12.20    10000.00
00522              11.40    10400.00
00523              11.00    10400.00
00524             -18.60    10400.00
00525               1.20    10800.00
00526              15.60    10800.00
00527             -15.20    11000.00
00528              -8.00    11200.00
00529              19.80    11200.00
00530              -5.20    11400.00
00531             -14.80    11800.00
00532              12.20    11800.00
00533               0.40    11800.00
00534              -9.40    12000.00
00535               4.20    12200.00
00536               4.40    12400.00
00537              -4.40    12400.00
00538              -3.00    12600.00
00539               3.20    12600.00
00540              -1.20    12600.00
00541              -3.40    12800.00
00542               1.40    12800.00
00543               1.80    12800.00
00544              -4.20    13000.00
00545              -3.00    13200.00
00546               3.80    13200.00
00547              -1.00    13200.00
00548              -3.00    13200.00
00549               2.00    13400.00
00550              -0.60    13400.00
00551              -2.60    13600.00
00552               0.60    13600.00
00553               0.60    13600.00
00554              -2.00    13600.00
00555              -1.40    13600.00
00556               1.00    13600.00
00557              -1.40    13600.00
00558              -2.20    13600.00
00559               1.20    13600.00
00560               0.00    13600.00
00561              -1.20    13600.00
00562              -1.00    13600.00
00563              -0.40    13600.00
00564              -0.40    13600.00
00565              -1.00    13600.00
00566               1.20    13600.00
00567              -1.00    13400.00
00568              -1.80    13600.00
00569               0.40    13400.00
00570              -0.60    13400.00
00571              -0.60    13400.00
00572              -0.40    13400.00
00573               0.00    13200.00
00574              -0.40    13200.00
00575              -1.20    13200.00
00576              -0.40    13000.00
00577              -0.40    13200.00
00578              -0.40    12800.00
00579              -0.40    12800.00
00580              -0.60    12800.00
00581              -0.40    12600.00
00582              -1.20    12600.00
00583               0.40    12400.00
00584               0.40    12400.00
00585              -1.20    12400.00
00586              -0.40    12000.00
00587              -0.20    12000.00
00588              -0.80    11800.00
00589              -0.40    11600.00
00590              -0.40    11600.00
00591              -0.80    11400.00
00592              -0.40    11200.00
00593              -0.20    11200.00
00594              -0.80    11000.00
00595              -1.00    10800.00
00596               0.20    10600.00
00597              -0.40    10400.00
00598              -0.40    10200.00
00599              -0.60    10000.00
00600              -0.60    10000.00
00601               0.00     9600.00
00602              -0.40     9600.00
00603              -0.60     9400.00
00604              -0.60     9200.00
00605              -0.60     9000.00
00606              -0.40     9000.00
00607              -1.00     8600.00
00608              -0.60     8600.00
00609              -0.20     8200.00
00610              -0.60     8000.00
00611              -0.40     7800.00
00612              -0.20     7600.00
00613              -1.00     7200.00
00614              -0.20     7200.00
00615               0.20     7000.00
00616              -0.40     6800.00
00617              -0.60     6400.00
00618              -0.80     6200.00
00619              -0.60     6000.00
00620              -0.40     6000.00
00621              -1.00     5600.00
00622              -0.60     5400.00
00623              -1.00     5200.00
00624              -0.60     4800.00
00625               0.20     4800.00
00626              -0.20     4400.00
00627              -0.60     4400.00
00628              -0.20     3800.00
00629               0.00     3600.00
00630              -0.40     3400.00
00631              -0.40     3200.00
00632              -0.60     3000.00
00633              -0.60     2800.00
00634               0.40     2400.00
00635              -1.00     2000.00
00636              -1.00     2000.00
00637               0.40     1800.00
00638              -0.40     1600.00
00639              -0.60     1200.00
00640               0.20      800.00
00641              -0.40      600.00
00642               0.00      400.00
00643               0.40      200.00
00644               0.20     -200.00
00645               1.80     -400.00
00646               0.40     -600.00
00647              -1.40     -800.00
00648               0.80    -1000.00
00649               0.40    -1200.00
00650              -1.00    -1600.00
00651              -0.20    -1600.00
00652               2.60    -1800.00
00653              11.80    -2000.00
00654              17.00    -2400.00
00655             -24.20    -2800.00
00656             -23.40    -3400.00
00657              12.80    -3800.00
00658              -9.20    -4000.00
00659               0.60    -4000.00
00660              25.00    -3800.00
00661             -25.00    -4000.00
00662             -10.80    -4400.00
00663              25.00    -4400.00
00664             -25.00    -4800.00
00665             -20.40    -5200.00
00666              25.00    -5600.00
00667             -25.00    -5600.00
00668              -5.20    -6000.00
00669               6.60    -6000.00
00670             -12.40    -6400.00
00671              22.80    -6600.00
00672             -25.00    -6800.00
00673              18.20    -7000.00
00674              25.00    -7200.00
00675             -25.00    -7400.00
00676              19.00    -7600.00
00677              25.00    -8000.00
00678             -25.00    -8200.00
00679               9.00    -8400.00
00680              25.00    -8400.00
00681             -25.00    -8800.00
00682              -9.00    -9000.00
00683              25.00    -9200.00
00684             -10.20    -9400.00
00685              -8.00    -9600.00
00686              13.20    -9800.00
00687              -4.20    -9800.00
00688              -4.60   -10000.00
00689              -0.80   -10000.00
00690               2.60   -10400.00
00691               6.20   -10600.00
00692              -7.40   -10600.00
00693              -0.80   -10800.00
00694               9.00   -10800.00
00695              -7.60   -11200.00
00696              -4.40   -11400.00
00697              11.60   -11400.00
00698              -3.00   -11600.00
00699              -8.20   -11800.00
00700               6.80   -11800.00
00701               0.20   -12000.00
00702              -6.60   -12200.00
00703               4.20   -12200.00
00704               3.20   -12400.00
00705              -3.80   -12400.00
00706               1.00   -12400.00
00707               1.80   -12600.00
00708              -0.60   -12800.00
00709               0.40   -12800.00
00710               0.20   -13000.00
00711               1.00   -13000.00
00712              -1.80   -13200.00
00713              -1.20   -13000.00
00714               2.60   -13200.00
00715              -1.00   -13200.00
00716              -1.40   -13200.00
00717               1.60   -13400.00
00718              -0.40   -13400.00
00719              -0.60   -13400.00
00720               0.80   -13600.00
00721               1.00   -13600.00
00722              -0.60   -13600.00
00723               0.40   -13600.00
00724               0.60   -13600.00
00725              -0.80   -13600.00
00726              -0.20   -13600.00
00727               0.40   -13800.00
00728               0.00   -13600.00
00729              -0.40   -13600.00
00730              -1.20   -13600.00
00731               0.20   -13600.00
00732               0.20   -13600.00
00733              -0.40   -13600.00
00734               0.80   -13400.00
00735              -0.60   -13600.00
00736              -0.60   -13400.00
00737               0.40   -13400.00
00738               0.40   -13200.00
00739              -0.20   -13200.00
00740              -0.60   -13200.00
00741               0.40   -13200.00
00742              -0.40   -13000.00
00743              -1.20   -13000.00
00744              -0.40   -13000.00
00745               0.20   -13000.00
00746               0.20   -12800.00
00747              -0.40   -12800.00
00748              -0.20   -12600.00
00749              -0.60   -12400.00
00750              -0.60   -12400.00
00751               1.20   -12200.00
00752              -0.60   -12000.00
00753              -1.00   -12000.00
00754               0.40   -12000.00
00755              -0.40   -11600.00
00756              -0.60   -11600.00
00757               0.20   -11400.00
00758               0.20   -11400.00
00759              -0.40   -11000.00
00760              -0.20   -11000.00
00761              -0.20   -10800.00
00762              -1.20   -10600.00
00763              -0.60   -10600.00
00764               1.40   -10400.00
00765              -0.60   -10200.00
00766              -0.60   -10000.00
00767               1.20   -10000.00
00768              -1.00    -9800.00
00769              -0.60    -9600.00
00770               1.20    -9400.00
00771              -0.60    -9200.00
00772              -1.00    -9200.00
00773               0.40    -9000.00
00774              -0.20    -8800.00
00775              -1.00    -8400.00
00776              -0.20    -8200.00
00777              -0.40    -8000.00
00778              -0.20    -7800.00
00779              -0.20    -7600.00
00780              -0.60    -7400.00
00781               0.00    -7200.00
00782              -0.20    -6800.00
00783              -0.40    -6800.00
00784               0.80    -6400.00
00785              -0.40    -6400.00
00786              -0.60    -6000.00
00787               0.40    -5800.00
00788              -0.40    -5600.00
00789              -1.00    -5200.00
00790              -0.20    -5000.00
00791              -0.40    -4800.00
00792              -0.20    -4600.00
00793              -0.40    -4400.00
00794              -1.20    -4200.00
00795              -0.60    -3800.00
00796               0.20    -3800.00
00797              -0.20    -3400.00
00798               0.20    -3200.00
00799              -0.40    -2800.00
00800              -0.40    -2600.00
00801              -0.40    -2400.00
00802              -0.40    -2200.00
00803              -0.40    -2000.00
00804              -0.60    -1600.00
00805              -0.80    -1400.00
00806              -0.60    -1200.00
00807              -1.00     -800.00
00808              -1.20     -600.00
00809               0.20     -400.00
00810               0.20     -200.00
00811              -0.60      200.00
00812               2.00      400.00
00813               1.00      600.00
00814              -2.00      800.00
00815               0.80     1000.00
00816               1.00     1200.00
00817              -1.20     1400.00
00818              -0.20     1600.00
00819               5.00     2000.00
00820              24.60     2200.00
00821              -9.20     2400.00
00822             -25.00     3000.00
00823               2.60     3400.00
00824               2.00     3600.00
00825               6.60     3600.00
00826              25.00     3800.00
00827             -25.00     3800.00
00828              -5.20     4000.00
00829              25.00     4400.00
00830             -25.00     4600.00
00831             -24.40     5000.00
00832              25.00     5400.00
00833             -25.00     5600.00
00834             -12.00     5600.00
00835              25.00     6000.00
00836             -22.20     6200.00
00837              24.40     6400.00
00838             -25.00     6800.00
00839              25.00     6800.00
00840              25.00     7000.00
00841             -25.00     7200.00
00842              25.00     7600.00
00843              25.00     7800.00
00844             -25.00     8000.00
00845              25.00     8400.00
00846              25.00     8400.00
00847             -25.00     8600.00
00848              -1.40     8800.00
00849              19.80     9000.00
00850              -3.40     9200.00
00851             -11.80     9400.00
00852               6.20     9600.00
00853               7.80     9800.00
00854              -8.20    10000.00
00855             -11.60    10000.00
00856              12.40    10200.00
00857               9.00    10400.00
00858             -18.80    10600.00
00859               3.80    10800.00
00860              14.00    11000.00
00861             -16.20    11000.00
00862              -5.40    11200.00
00863              19.60    11200.00
00864              -7.40    11600.00
00865             -12.60    11600.00
00866              12.40    11800.00
00867              -1.20    11800.00
00868              -9.40    12000.00
00869               4.40    12200.00
00870               3.80    12400.00
00871              -5.20    12400.00
00872              -2.80    12600.00
00873               3.40    12600.00
00874              -1.40    12600.00
00875              -3.00    12800.00
00876               2.00    12800.00
00877               1.80    12800.00
00878              -3.80    13200.00
00879              -2.20    13200.00
00880               3.60    13200.00
00881              -1.40    13200.00
00882              -3.40    13200.00
00883               2.20    13400.00
00884              -1.20    13400.00
00885              -3.00    13400.00
00886               1.00    13600.00
00887               0.40    13600.00
00888              -2.20    13600.00
00889              -0.60    13600.00
00890               1.40    13600.00
00891              -1.80    13600.00
00892              -1.20    13600.00
00893               1.00    13600.00
00894              -0.40    13600.00
00895              -0.80    13600.00
00896              -1.20    13600.00
00897              -0.40    13600.00
00898              -0.60    13600.00
00899              -1.80    13600.00
00900               1.00    13600.00
00901              -1.20    13600.00
00902              -2.20    13600.00
00903               1.00    13400.00
00904               0.20    13600.00
00905              -1.20    13400.00
00906              -0.20    13400.00
00907               0.60    13200.00
00908              -0.60    13200.00
00909              -1.00    13200.00
00910              -0.20    13000.00
00911              -0.60    13000.00
00912              -0.40    12800.00
00913              -0.40    12600.00
00914              -0.20    12600.00
00915              -1.20    12600.00
00916              -1.20    12400.00
00917               1.00    12400.00
00918              -0.20    12400.00
00919              -1.20    12400.00
00920              -0.20    12000.00
00921              -0.40    12000.00
00922              -0.60    11800.00
00923              -0.40    11600.00
00924              -0.60    11600.00
00925              -0.40    11200.00
00926              -0.40    11200.00
00927              -1.00    11000.00
00928              -0.80    11000.00
00929              -1.00    10800.00
00930              -0.60    10600.00
00931              -0.40    10400.00
00932              -0.40    10400.00
00933              -1.20    10200.00
00934              -0.60    10000.00
00935               0.00     9600.00
00936              -0.60     9600.00
00937              -0.40     9400.00
00938              -0.40     9200.00
00939              -1.00     9200.00
00940              -0.40     8800.00
00941              -0.60     8600.00
00942              -0.60     8400.00
00943              -0.40     8400.00
00944              -0.80     8000.00
00945              -0.40     7800.00
00946              -0.60     7600.00
00947              -1.20     7400.00
00948              -0.20     7200.00
00949              -0.40     6800.00
00950              -0.20     6800.00
00951              -0.60     6400.00
00952              -1.20     6200.00
00953              -0.20     6200.00
00954               0.20     5800.00
00955              -1.00     5600.00
00956              -0.40     5400.00
00957              -0.20     5000.00
00958              -0.60     4800.00
00959               0.40     4600.00
00960              -0.60     4400.00
00961              -0.60     4400.00
00962              -0.60     3800.00
00963              -0.20     3600.00
00964              -0.20     3600.00
00965              -0.60     3200.00
00966              -0.60     3000.00
00967               0.40     2800.00
00968              -0.20     2400.00
00969              -0.60     2200.00
00970              -0.20     2000.00
00971               0.20     1600.00
00972              -0.60     1400.00
00973              -0.20     1200.00
00974              -0.20      800.00
00975              -0.40      600.00
00976              -0.40      400.00
00977               0.20      200.00
00978               0.40     -200.00
00979               1.40     -400.00
00980               0.20     -600.00
00981              -1.00     -800.00
00982               0.40    -1000.00
00983               1.00    -1200.00
00984              -0.60    -1600.00
00985               0.20    -1600.00
00986               3.40    -1800.00
00987              13.20    -2000.00
00988              15.00    -2400.00
00989             -25.00    -2800.00
00990             -21.40    -3200.00
00991              13.60    -3800.00
00992             -12.20    -4000.00
00993               5.40    -4000.00
00994              25.00    -3800.00
00995             -25.00    -4000.00
00996              -0.40    -4200.00
00997              25.00    -4600.00
00998             -25.00    -4800.00
00999              -9.20    -5200.00
01000              25.00    -5200.00
01001             -25.00    -5800.00
01002              -1.00    -5800.00
01003               3.60    -6000.00
01004              -9.40    -6400.00
01005              21.60    -6600.00
01006             -25.00    -6800.00
01007              23.60    -7000.00
01008              25.00    -7200.00
01009             -25.00    -7400.00
01010              25.00    -7600.00
01011              25.00    -8000.00
01012             -25.00    -8200.00
01013              15.00    -8400.00
01014              25.00    -8400.00
01015             -25.00    -8800.00
01016              -4.40    -8800.00
01017              24.80    -9000.00
01018             -12.40    -9400.00
01019              -5.60    -9600.00
01020              13.20    -9600.00
01021              -5.40    -9800.00
01022              -4.20   -10000.00
01023              -0.80   -10000.00
01024               3.40   -10400.00
01025               5.80   -10400.00
01026              -8.20   -10600.00
01027               0.60   -10800.00
01028               8.40   -11000.00
01029              -8.40   -11000.00
01030              -2.80   -11400.00
01031              11.80   -11400.00
01032              -4.20   -11600.00
01033              -6.80   -11600.00
01034               7.40   -11800.00
01035              -0.40   -12000.00
01036              -6.00   -12200.00
01037               4.40   -12200.00
01038               2.20   -12400.00
01039              -3.80   -12400.00
01040               0.60   -12600.00
01041               1.20   -12600.00
01042              -0.60   -12600.00
01043               0.20   -12800.00
01044               0.40   -12800.00
01045               1.00   -13000.00
01046              -1.80   -13000.00
01047              -1.00   -13200.00
01048               2.60   -13000.00
01049              -0.60   -13200.00
01050              -1.20   -13400.00
01051               1.20   -13400.00
01052              -0.40   -13400.00
01053              -0.40   -13600.00
01054               0.40   -13400.00
01055               0.40   -13600.00
01056              -0.80   -13600.00
01057              -0.40   -13600.00
01058               0.60   -13600.00
01059              -0.60   -13400.00
01060              -0.40   -13600.00
01061               0.60   -13600.00
01062               0.60   -13600.00
01063              -0.60   -13600.00
01064              -0.60   -13600.00
01065               0.40   -13600.00
01066              -0.20   -13600.00
01067              -0.20   -13400.00
01068               0.20   -13600.00
01069              -1.00   -13600.00
01070              -1.00   -13600.00
01071               0.20   -13600.00
01072               0.20   -13200.00
01073              -0.60   -13200.00
01074              -0.20   -13200.00
01075               0.60   -13200.00
01076              -0.60   -13000.00
01077              -0.40   -12800.00
01078               0.40   -13000.00
01079              -0.20   -13000.00
01080               0.20   -12800.00
01081              -0.40   -12800.00
01082              -0.60   -12600.00
01083              -0.60   -12400.00
01084              -0.40   -12600.00
01085               0.40   -12200.00
01086              -0.20   -12000.00
01087              -1.00   -12000.00
01088               0.20   -12000.00
01089               0.20   -11800.00
01090              -0.60   -11600.00
01091               0.20   -11600.00
01092               0.60   -11400.00
01093              -0.40   -11000.00
01094              -0.20   -10800.00
01095               0.20   -10800.00
01096              -0.60   -10600.00
01097              -0.60   -10600.00
01098               0.20   -10400.00
01099              -0.40   -10400.00
01100              -0.20   -10000.00
01101              -1.00    -9800.00
01102              -0.20    -9800.00
01103               0.40    -9600.00
01104              -0.40    -9400.00
01105              -0.20    -9200.00
01106               0.40    -9000.00
01107              -0.40    -8800.00
01108              -0.20    -8600.00
01109               0.20    -8400.00
01110              -0.60    -8200.00
01111              -0.60    -8000.00
01112               0.20    -7800.00
01113              -0.40    -7600.00
01114              -0.60    -7400.00
01115              -0.60    -7200.00
01116               0.20    -6800.00
01117               0.20    -6800.00
01118              -0.40    -6400.00
01119              -0.60    -6400.00
01120               0.40    -6000.00
01121              -0.40    -5800.00
01122              -0.60    -5600.00
01123               0.20    -5200.00
01124              -0.40    -5200.00
01125              -0.60    -4800.00
01126               0.20    -4600.00
01127              -0.60    -4400.00
01128              -1.80    -4200.00
01129               0.00    -4000.00
01130               0.20    -3600.00
01131              -1.20    -3600.00
01132               0.60    -3200.00
01133              -1.00    -3000.00
01134              -1.20    -2400.00
01135               0.60    -2400.00
01136              -0.20    -2000.00
01137              -1.80    -1800.00
01138               1.00    -1600.00
01139              -0.40    -1400.00
01140              -2.20    -1200.00
01141               0.60    -1000.00
01142               0.20     -600.00
01143              -2.60     -200.00
01144               1.00     -200.00
01145               0.60        0.00
01146              -0.20      400.00
01147               1.20      600.00
01148              -1.00      800.00
01149              -0.60     1000.00
01150               0.60     1200.00
01151              -0.20     1400.00
01152              -0.60     1600.00
01153               6.20     2000.00
01154              25.00     2000.00
01155             -14.00     2600.00
01156             -25.00     3000.00
01157               6.00     3400.00
01158              -1.20     3800.00
01159              12.20     3800.00
01160              25.00     3800.00
01161             -25.00     4000.00
01162               8.20     4000.00
01163              25.00     4400.00
01164             -25.00     4800.00
01165              -7.20     5000.00
01166              25.00     5400.00
01167             -25.00     5600.00
01168              -2.20     5800.00
01169              22.20     6000.00
01170             -19.00     6200.00
01171              24.40     6400.00
01172             -25.00     6600.00
01173              25.00     6800.00
01174              25.00     7200.00
01175             -25.00     7200.00
01176              25.00     7600.00
01177              25.00     7800.00
01178             -25.00     8200.00
01179              25.00     8400.00
01180              25.00     8400.00
01181             -25.00     8600.00
01182               2.00     8800.00
01183              19.80     9000.00
01184              -4.20     9200.00
01185             -11.60     9400.00
01186               7.60     9600.00
01187               7.40     9600.00
01188              -9.80    10000.00
01189             -10.80    10000.00
01190              14.00    10200.00
01191               6.00    10400.00
01192             -19.40    10600.00
01193               5.60    10800.00
01194              12.20    11000.00
01195             -17.00    11200.00
01196              -3.00    11200.00
01197              19.20    11200.00
01198              -8.60    11600.00
01199             -11.80    11600.00
01200              13.00    11800.00
01201              -1.40    12000.00
01202              -9.20    12000.00
01203               5.20    12200.00
01204               4.20    12400.00
01205              -7.00    12400.00
01206              -2.20    12400.00
01207               3.80    12800.00
01208              -2.80    12800.00
01209              -2.20    12800.00
01210               2.20    12800.00
01211               1.20    13000.00
01212              -4.40    13000.00
01213              -2.00    13200.00
01214               4.40    13200.00
01215              -1.80    13200.00
01216              -2.80    13400.00
01217               3.40    13400.00
01218              -2.20    13400.00
01219              -3.00    13400.00
01220               1.80    13400.00
01221              -0.20    13600.00
01222              -3.00    13600.00
01223               0.20    13600.00
01224               1.20    13600.00
01225              -2.60    13800.00
01226              -0.60    13600.00
01227               1.80    13600.00
01228              -0.60    13600.00
01229              -0.60    13600.00
01230              -1.00    13600.00
01231              -0.60    13600.00
01232              -0.40    13600.00
01233              -0.80    13600.00
01234               0.60    13600.00
01235              -1.20    13600.00
01236              -1.80    13400.00
01237               1.00    13400.00
01238              -0.20    13600.00
01239              -1.00    13400.00
01240              -1.00    13400.00
01241              -0.40    13200.00
01242              -0.40    13200.00
01243              -1.00    13200.00
01244               0.20    13000.00
01245               0.40    12800.00
01246              -0.60    12800.00
01247              -1.00    12800.00
01248               0.20    12600.00
01249              -1.20    12400.00
01250              -1.00    12600.00
01251               1.00    12400.00
01252              -0.60    12400.00
01253              -1.80    12400.00
01254              -1.00    12000.00
01255              -0.60    12000.00
01256              -0.20    11800.00
01257              -0.40    11600.00
01258              -0.20    11600.00
01259              -0.60    11400.00
01260              -1.40    11200.00
01261               0.20    11200.00
01262              -0.40    10800.00
01263              -0.60    10800.00
01264               0.40    10400.00
01265              -0.60    10400.00
01266              -1.20    10400.00
01267              -0.60    10000.00
01268              -1.20    10000.00
01269               0.00     9800.00
01270              -0.20     9600.00
01271              -1.40     9400.00
01272              -0.60     9200.00
01273              -0.40     9200.00
01274              -0.60     8800.00
01275              -0.20     8800.00
01276              -0.20     8400.00
01277              -0.60     8200.00
01278              -0.20     8000.00
01279              -0.20     7800.00
01280              -0.60     7600.00
01281              -0.40     7400.00
01282              -0.40     7200.00
01283              -0.60     7000.00
01284              -0.60     6800.00
01285              -1.20     6600.00
01286              -0.60     6200.00
01287               0.20     6000.00
01288              -0.40     5800.00
01289              -0.20     5600.00
01290              -0.20     5400.00
01291              -0.40     5200.00
01292               0.20     4800.00
01293              -0.20     4600.00
01294              -0.20     4400.00
01295              -0.40     4000.00
01296              -1.00     3800.00
01297              -0.20     3600.00
01298               0.20     3400.00
01299              -1.20     3200.00
01300              -0.40     3000.00
01301               0.20     2800.00
01302              -1.00     2400.00
01303              -0.40     2200.00
01304               0.40     1800.00
01305              -0.40     1600.00
01306               0.00     1400.00
01307               0.40     1200.00
01308              -0.40      800.00
01309              -0.60      600.00
01310               0.20      400.00
01311               0.20        0.00
01312               0.40     -200.00
01313               1.60     -400.00
01314              -0.20     -400.00
01315              -1.20     -800.00
01316               0.20    -1000.00
01317               0.40    -1200.00
01318              -0.60    -1600.00
01319               0.40    -1600.00
01320               3.40    -1800.00
01321              14.00    -2000.00
01322              13.00    -2400.00
01323             -25.00    -3000.00
01324             -18.60    -3400.00
01325              14.60    -3800.00
01326             -15.00    -4000.00
01327              11.80    -4000.00
01328              25.00    -3600.00
01329             -25.00    -4000.00
01330              10.80    -4400.00
01331              25.00    -4800.00
01332             -25.00    -4800.00
01333               2.00    -5200.00
01334              25.00    -5400.00
01335             -25.00    -5800.00
01336               3.40    -6000.00
01337              -0.20    -6000.00
01338              -5.40    -6400.00
01339              20.60    -6600.00
01340             -25.00    -6800.00
01341              25.00    -7000.00
01342              21.00    -7200.00
01343             -25.00    -7400.00
01344              25.00    -7600.00
01345              25.00    -8000.00
01346             -25.00    -8200.00
01347              21.20    -8400.00
01348              25.00    -8400.00
01349             -25.00    -8800.00
01350               0.40    -9200.00
01351              23.60    -9000.00
01352             -14.60    -9400.00
01353              -3.00    -9600.00
01354              13.00    -9600.00
01355              -6.00    -9800.00
01356              -3.00   -10000.00
01357              -0.60   -10000.00
01358               4.40   -10400.00
01359               5.00   -10400.00
01360              -9.40   -10600.00
01361               1.80   -10800.00
01362               7.60   -10800.00
01363             -10.00   -11200.00
01364              -1.20   -11000.00
01365              11.40   -11400.00
01366              -5.80   -11600.00
01367              -5.20   -11800.00
01368               8.40   -12000.00
01369              -1.60   -12000.00
01370              -5.00   -12000.00
01371               5.40   -12400.00
01372               2.00   -12400.00
01373              -3.80   -12400.00
01374               1.20   -12600.00
01375               1.40   -12800.00
01376              -1.40   -12800.00
01377              -0.40   -12800.00
01378               1.00   -13000.00
01379               0.60   -13000.00
01380              -2.20   -13200.00
01381              -0.20   -13200.00
01382               2.20   -13200.00
01383              -1.20   -13200.00
01384              -0.40   -13600.00
01385               1.00   -13400.00
01386              -0.60   -13400.00
01387              -0.40   -13600.00
01388               0.40   -13400.00
01389              -0.20   -13400.00
01390              -1.00   -13400.00
01391               0.20   -13600.00
01392               0.20   -13600.00
01393              -1.20   -13600.00
01394               0.40   -13600.00
01395               0.20   -13600.00
01396              -0.20   -13600.00
01397               0.00   -13600.00
01398              -0.40   -13600.00
01399               0.40   -13600.00
01400               0.20   -13600.00
01401              -0.20   -13400.00
01402               0.20   -13600.00
01403              -0.60   -13600.00
01404              -0.60   -13400.00
01405               0.40   -13200.00
01406              -0.40   -13200.00
01407              -1.00   -13200.00
01408               0.40   -13200.00
01409               0.40   -13200.00
01410              -1.00   -13000.00
01411               0.40   -13000.00
01412               0.20   -13000.00
01413              -0.60   -12800.00
01414               0.60   -12600.00
01415              -0.20   -12800.00
01416              -0.60   -12400.00
01417               0.00   -12400.00
01418              -1.00   -12400.00
01419               0.60   -12200.00
01420              -0.20   -12200.00
01421              -1.00   -12000.00
01422               0.60   -12000.00
01423              -0.40   -11600.00
01424              -0.60   -11600.00
01425               0.80   -11400.00
01426              -0.60   -11400.00
01427              -0.40   -11200.00
01428               0.60   -11000.00
01429              -0.40   -11000.00
01430              -0.60   -10600.00
01431               0.40   -10600.00
01432              -0.20   -10400.00
01433              -0.20   -10000.00
01434               0.20   -10000.00
01435              -0.60    -9800.00
01436              -0.20    -9800.00
01437               0.20    -9600.00
01438              -0.40    -9400.00
01439               0.20    -9000.00
01440              -1.00    -9000.00
01441              -0.20    -9000.00
01442               0.20    -8600.00
01443              -1.20    -8400.00
01444              -0.40    -8200.00
01445               1.00    -8000.00
01446              -0.20    -7800.00
01447              -0.40    -7600.00
01448              -0.40    -7400.00
01449              -0.60    -7200.00
01450               0.20    -7000.00
01451              -0.20    -6800.00
01452              -0.40    -6400.00
01453              -0.60    -6200.00
01454              -1.00    -6000.00
01455              -0.20    -5800.00
01456              -0.60    -5600.00
01457              -0.80    -5200.00
01458              -0.20    -5200.00
01459              -0.20    -4800.00
01460              -0.60    -4600.00
01461              -0.40    -4400.00
01462              -0.40    -4000.00
01463              -0.40    -3800.00
01464              -0.20    -3600.00
01465              -0.60    -3400.00
01466              -0.60    -3200.00
01467              -0.80    -2800.00
01468              -1.00    -2600.00
01469              -0.20    -2400.00
01470              -0.60    -2200.00
01471              -1.00    -2000.00
01472              -0.20    -1600.00
01473              -0.60    -1200.00
01474              -0.60    -1200.00
01475               0.00     -800.00
01476              -0.60     -600.00
01477              -0.20     -400.00
01478               0.20     -200.00
01479               0.40      200.00
01480               1.80      400.00
01481              -0.20      600.00
01482              -1.20      800.00
01483               0.60     1000.00
01484               0.20     1200.00
01485              -1.40     1400.00
01486               0.60     1800.00
01487               7.20     2000.00
01488              25.00     2200.00
01489             -17.80     2600.00
01490             -25.00     3000.00
01491               9.40     3600.00
01492              -4.20     3600.00
01493              17.20     3600.00
01494              25.00     3800.00
01495             -25.00     4000.00
01496              21.80     4200.00
01497              25.00     4400.00
01498             -25.00     4800.00
01499               8.40     5000.00
01500              25.00     5400.00
01501             -25.00     5600.00
01502               6.60     5800.00
01503              17.20     6000.00
01504             -17.00     6200.00
01505              22.20     6400.00
01506             -25.00     6800.00
01507              25.00     6800.00
01508              25.00     7200.00
01509             -25.00     7200.00
01510              25.00     7600.00
01511              25.00     7800.00
01512             -25.00     8200.00
01513              25.00     8400.00
01514              21.20     8400.00
01515             -25.00     8600.00
01516               5.40     8800.00
01517              18.60     9000.00
01518              -6.80     9200.00
01519             -10.20     9400.00
01520               8.40     9600.00
01521               5.80     9800.00
01522             -10.20    10000.00
01523              -9.80    10200.00
01524              15.40    10400.00
01525               4.60    10400.00
01526             -19.60    10400.00
01527               8.40    10800.00
01528              11.00    11000.00
01529             -19.40    11000.00
01530              -0.20    11200.00
01531              19.20    11400.00
01532             -13.00    11600.00
01533              -9.20    11800.00
01534              13.40    11800.00
01535              -5.20    12000.00
01536              -7.00    12000.00
01537               6.40    12200.00
01538               1.80    12400.00
01539              -5.40    12400.00
01540              -1.20    12400.00
01541               3.60    12600.00
01542              -2.00    12600.00
01543              -2.20    12800.00
01544               2.20    13000.00
01545               0.80    13000.00
01546              -4.60    13000.00
01547              -1.20    13200.00
01548               4.20    13400.00
01549              -2.60    13200.00
01550              -2.00    13400.00
01551               2.00    13400.00
01552              -2.00    13400.00
01553              -1.80    13400.00
01554               2.00    13400.00
01555               0.20    13600.00
01556              -1.80    13600.00
01557              -0.40    13600.00
01558               1.40    13600.00
01559              -2.20    13600.00
01560              -1.40    13600.00
01561               1.40    13600.00
01562              -0.60    13600.00
01563              -1.20    13600.00
01564              -1.00    13600.00
01565              -0.20    13600.00
01566              -0.60    13600.00
01567              -0.40    13600.00
01568               1.20    13600.00
01569              -1.40    13600.00
01570              -1.20    13400.00
01571               0.60    13600.00
01572              -0.40    13400.00
01573              -1.40    13400.00
01574               0.00    13400.00
01575               1.00    13400.00
01576              -2.20    13200.00
01577              -1.40    13200.00
01578               0.40    13000.00
01579              -1.80    12800.00
01580               0.20    12800.00
01581               0.20    12600.00
01582              -0.60    12600.00
01583              -0.60    12600.00
01584              -0.60    12400.00
01585               1.00    12400.00
01586              -1.00    12400.00
01587              -1.80    12200.00
01588               1.20    12200.00
01589              -3.40    12000.00
01590              -1.00    11800.00
01591              -1.40    11800.00
01592               1.00    11600.00
01593               0.40    11200.00
01594              -1.40    11200.00
01595               1.20    11000.00
01596               0.40    11000.00
01597              -4.40    10800.00
01598              -0.20    10600.00
01599               0.20    10400.00
01600               0.40    10200.00
01601              -2.00    10200.00
01602              -0.20    10000.00
01603               1.20    10000.00
01604              -2.00     9600.00
01605               0.40     9400.00
01606              -1.00     9200.00
01607              -0.60     9000.00
01608               0.20     8800.00
01609              -2.20     8600.00
01610              -1.00     8400.00
01611               1.00     8200.00
01612               0.40     8000.00
01613              -1.00     7800.00
01614               0.40     7600.00
01615              -1.00     7200.00
01616              -1.60     7200.00
01617               0.60     7000.00
01618              -0.40     6800.00
01619              -0.20     6400.00
01620              -0.40     6200.00
01621              -1.20     6000.00
01622              -0.60     6000.00
01623               0.40     5600.00
01624              -0.60     5400.00
01625              -0.60     5200.00
01626               0.20     4800.00
01627              -0.60     4600.00
01628              -1.00     4400.00
01629              -0.40     4000.00
01630              -0.40     3800.00
01631               0.60     3600.00
01632              -0.20     3400.00
01633              -1.20     3000.00
01634               0.60     2800.00
01635              -0.40     2400.00
01636              -1.00     2400.00
01637               0.40     2000.00
01638               0.00     2000.00
01639              -1.40     1600.00
01640               0.20     1400.00
01641               0.20     1200.00
01642              -1.20      800.00
01643              -0.60      600.00
01644               0.40      400.00
01645               0.20        0.00
01646               0.00     -200.00
01647               2.00     -400.00
01648              -0.40     -600.00
01649              -1.40     -800.00
01650               1.20    -1000.00
01651               0.40    -1200.00
01652              -2.00    -1600.00
01653               0.40    -1800.00
01654               3.40    -1800.00
01655              14.60    -2000.00
01656              10.80    -2400.00
01657             -25.00    -2800.00
01658             -16.20    -3400.00
01659              14.80    -3800.00
01660             -18.00    -4000.00
01661              18.80    -4000.00
01662              25.00    -3800.00
01663             -25.00    -4200.00
01664              22.20    -4200.00
01665              25.00    -4600.00
01666             -25.00    -5000.00
01667              13.20    -5200.00
01668              25.00    -5600.00
01669             -25.00    -5800.00
01670               5.80    -5800.00
01671              -2.20    -6000.00
01672              -2.80    -6200.00
01673              16.80    -6600.00
01674             -25.00    -6800.00
01675              25.00    -7000.00
01676              12.20    -7200.00
01677             -25.00    -7600.00
01678              25.00    -7800.00
01679              22.20    -8000.00
01680             -25.00    -8200.00
01681              25.00    -8200.00
01682              24.20    -8400.00
01683             -25.00    -8800.00
01684               4.20    -9000.00
01685              21.20    -9200.00
01686             -15.60    -9200.00
01687              -1.00    -9600.00
01688              12.40    -9800.00
01689              -6.40    -9800.00
01690              -3.20   -10000.00
01691              -0.20   -10200.00
01692               5.20   -10400.00
01693               3.40   -10600.00
01694              -8.60   -10800.00
01695               3.40   -10800.00
01696               6.00   -11000.00
01697              -9.80   -11200.00
01698               0.40   -11400.00
01699              10.60   -11400.00
01700              -6.20   -11600.00
01701              -4.40   -11800.00
01702               7.40   -12000.00
01703              -2.20   -12200.00
01704              -4.20   -12200.00
01705               5.20   -12200.00
01706               1.20   -12400.00
01707              -3.80   -12400.00
01708               1.80   -12400.00
01709               0.60   -12600.00
01710              -1.40   -12800.00
01711               0.20   -12800.00
01712               0.40   -13000.00
01713               0.40   -13000.00
01714              -2.00   -13200.00
01715              -0.40   -13200.00
01716               2.20   -13200.00
01717              -0.80   -13200.00
01718              -0.60   -13400.00
01719               0.60   -13400.00
01720              -0.40   -13400.00
01721              -0.60   -13600.00
01722               0.20   -13600.00
01723               0.40   -13600.00
01724              -0.60   -13600.00
01725               0.00   -13600.00
01726               0.40   -13600.00
01727              -0.60   -13600.00
01728               0.00   -13600.00
01729               0.40   -13600.00
01730               0.40   -13600.00
01731              -0.60   -13600.00
01732              -1.20   -13600.00
01733               0.60   -13600.00
01734              -0.20   -13600.00
01735              -0.40   -13600.00
01736               0.40   -13400.00
01737              -1.00   -13600.00
01738               0.20   -13600.00
01739               0.40   -13400.00
01740              -0.20   -13400.00
01741               0.20   -13400.00
01742               0.20   -13200.00
01743              -0.20   -13200.00
01744              -0.40   -13000.00
01745              -0.40   -13000.00
01746              -0.40   -12800.00
01747               0.20   -12800.00
01748               0.20   -12800.00
01749              -0.60   -12800.00
01750              -0.40   -12600.00
01751              -0.40   -12600.00
01752               0.20   -12400.00
01753               0.60   -12200.00
01754               0.00   -12200.00
01755              -0.40   -12000.00
01756               0.20   -12000.00
01757              -0.40   -11600.00
01758               0.00   -11600.00
01759              -0.20   -11400.00
01760              -0.60   -11400.00
01761              -0.40   -11000.00
01762              -0.20   -11000.00
01763              -0.60   -10800.00
01764              -0.60   -10800.00
01765               0.20   -10600.00
01766               0.40   -10400.00
01767              -0.40   -10200.00
01768              -0.20   -10000.00
01769              -0.20    -9800.00
01770              -0.60    -9800.00
01771               0.40    -9600.00
01772               0.00    -9200.00
01773              -0.60    -9200.00
01774              -0.40    -9000.00
01775              -0.20    -8800.00
01776              -1.00    -8600.00
01777              -0.60    -8400.00
01778              -0.20    -8200.00
01779              -0.60    -8000.00
01780               0.00    -7600.00
01781              -0.40    -7400.00
01782              -0.80    -7400.00
01783               0.20    -7200.00
01784               0.40    -6800.00
01785              -0.20    -6600.00
01786              -0.20    -6400.00
01787              -0.60    -6400.00
01788              -0.60    -6000.00
01789              -0.60    -5800.00
01790              -0.60    -5600.00
01791              -0.60    -5200.00
01792              -0.80    -5000.00
01793              -0.60    -4600.00
01794              -0.20    -4600.00
01795              -0.40    -4400.00
01796              -1.00    -4200.00
01797              -0.20    -3800.00
01798               0.40    -3600.00
01799              -0.40    -3400.00
01800              -0.40    -3200.00
01801              -0.20    -2800.00
01802              -0.60    -2600.00
01803              -0.60    -2400.00
01804              -0.20    -2000.00
01805              -1.20    -1800.00
01806              -0.60    -1600.00
01807              -0.20    -1600.00
01808              -0.60    -1200.00
01809              -0.60    -1000.00
01810              -0.40     -600.00
01811              -0.40     -400.00
01812              -0.20        0.00
01813               0.40      200.00
01814               2.00      400.00
01815              -0.40      600.00
01816              -1.20      800.00
01817               0.40     1200.00
01818               0.60     1200.00
01819              -0.80     1800.00
01820               0.40     1600.00
01821               9.20     2000.00
01822              25.00     2200.00
01823             -22.60     2600.00
01824             -25.00     3200.00
01825              11.40     3400.00
01826              -7.60     3600.00
01827              23.40     3600.00
01828              25.00     3800.00
01829             -25.00     4000.00
01830              25.00     4000.00
01831              25.00     4600.00
01832             -25.00     4800.00
01833              25.00     5200.00
01834              25.00     5400.00
01835             -25.00     5600.00
01836              15.00     5800.00
01837              10.80     6000.00
01838             -13.40     6000.00
01839              19.00     6400.00
01840             -25.00     6600.00
01841              25.00     7000.00
01842              15.20     7200.00
01843             -25.00     7400.00
01844              25.00     7600.00
01845              17.00     7800.00
01846             -25.00     8000.00
01847              25.00     8400.00
01848              13.20     8600.00
01849             -25.00     8600.00
01850               8.60     8800.00
01851              17.00     9200.00
01852              -8.00     9200.00
01853              -9.40     9400.00
01854               8.60     9600.00
01855               5.20     9800.00
01856             -11.80    10000.00
01857              -8.40    10000.00
01858              16.80    10400.00
01859               1.60    10400.00
01860             -19.00    10600.00
01861              11.40    10800.00
01862               9.00    10800.00
01863             -20.20    11000.00
01864               3.40    11200.00
01865              18.00    11400.00
01866             -15.00    11600.00
01867              -6.20    11600.00
01868              13.00    11800.00
01869              -6.00    12000.00
01870              -6.80    12000.00
01871               6.00    12200.00
01872               2.00    12400.00
01873              -5.80    12600.00
01874              -0.60    12600.00
01875               3.80    12600.00
01876              -2.20    12600.00
01877              -2.20    12800.00
01878               2.80    12800.00
01879               1.20    13000.00
01880              -4.60    13000.00
01881              -1.00    13200.00
01882               3.80    13200.00
01883              -2.60    13400.00
01884              -2.20    13400.00
01885               2.00    13400.00
01886              -2.00    13400.00
01887              -1.80    13400.00
01888               1.60    13400.00
01889              -0.20    13600.00
01890              -2.20    13600.00
01891               1.20    13600.00
01892               0.40    13600.00
01893              -2.80    13600.00
01894               1.20    13600.00
01895              -0.60    13600.00
01896              -1.00    13600.00
01897               2.60    13600.00
01898              -3.80    13600.00
01899              -1.20    13600.00
01900               3.60    13600.00
01901              -4.60    13600.00
01902               0.60    13400.00
01903               2.60    13600.00
01904              -4.60    13600.00
01905              -0.40    13400.00
01906               3.00    13400.00
01907              -3.60    13400.00
01908              -1.80    13400.00
01909               3.80    13200.00
01910              -3.20    13200.00
01911              -2.60    13200.00
01912               2.60    13000.00
01913              -2.40    13000.00
01914              -0.40    12800.00
01915               1.60    12800.00
01916              -2.20    12600.00
01917              -1.40    12600.00
01918               0.00    12400.00
01919              -0.20    12400.00
01920              -0.60    12200.00
01921              -0.40    12000.00
01922              -0.60    12000.00
01923              -1.40    12000.00
01924               0.20    11800.00
01925              -0.40    11600.00
01926              -0.60    11600.00
01927               0.00    11200.00
01928              -0.80    11200.00
01929              -0.60    11000.00
01930              -0.40    10800.00
01931              -0.60    10800.00
01932              -0.40    10800.00
01933               0.20    10400.00
01934              -1.00    10200.00
01935              -2.00    10000.00
01936              -0.20     9800.00
01937               0.40     9600.00
01938              -1.00     9600.00
01939               0.20     9200.00
01940               0.20     9200.00
01941              -1.00     9200.00
01942              -0.20     8800.00
01943              -0.20     8800.00
01944              -0.40     8400.00
01945              -0.40     8400.00
01946              -0.40     8000.00
01947              -0.40     7800.00
01948              -1.00     7600.00
01949              -1.20     7200.00
01950               0.20     7200.00
01951               0.40     6800.00
01952              -0.60     6800.00
01953              -0.60     6400.00
01954              -0.20     6200.00
01955              -0.20     6200.00
01956              -0.40     5800.00
01957               0.40     5600.00
01958              -0.20     5200.00
01959              -1.20     5000.00
01960               0.00     4800.00
01961               0.20     4600.00
01962              -1.80     4200.00
01963              -0.20     4000.00
01964               0.20     3800.00
01965              -1.40     3600.00
01966               0.40     3400.00
01967               0.40     3000.00
01968              -1.80     2800.00
01969               0.40     2400.00
01970               0.60     2400.00
01971              -1.80     2000.00
01972               0.40     2000.00
01973               0.40     1600.00
01974              -1.40     1400.00
01975              -0.20     1000.00
01976              -0.40      800.00
01977              -1.80      600.00
01978               0.20      400.00
01979               0.20        0.00
01980               0.60     -200.00
01981               1.20     -400.00
01982              -0.60     -800.00
01983              -0.40     -800.00
01984               0.00    -1200.00
01985               0.40    -1200.00
01986              -0.20    -1600.00
01987               0.20    -1800.00
01988               4.20    -2000.00
01989              16.80    -2000.00
01990               6.80    -2400.00
01991             -25.00    -3000.00
01992             -12.20    -3400.00
01993              14.00    -3800.00
01994             -20.40    -4000.00
01995              25.00    -3800.00
01996              25.00    -3800.00
01997             -25.00    -4200.00
01998              25.00    -4400.00
01999              25.00    -4600.00
02000             -25.00    -5000.00
02001              22.40    -5200.00
02002              25.00    -5600.00
02003             -25.00    -5800.00
02004               8.60    -5800.00
02005              -4.40    -6000.00
02006               1.40    -6400.00
02007              12.40    -6600.00
02008             -25.00    -6800.00
02009              25.00    -7200.00
02010               3.40    -7200.00
02011             -25.00    -7400.00
02012              25.00    -7800.00
02013              12.20    -8000.00
02014             -25.00    -8200.00
02015              25.00    -8400.00
02016              18.80    -8600.00
02017             -25.00    -8800.00
02018               8.60    -9000.00
02019              19.00    -9200.00
02020             -16.00    -9400.00
02021               0.60    -9600.00
02022              10.80    -9600.00
02023              -6.00    -9800.00
02024              -3.00   -10000.00
02025              -1.20   -10200.00
02026               6.20   -10400.00
02027               2.60   -10600.00
02028             -10.20   -10600.00
02029               6.00   -10800.00
02030               5.40   -11000.00
02031             -11.40   -11200.00
02032               2.60   -11200.00
02033              10.80   -11600.00
02034              -8.20   -11600.00
02035              -3.00   -11800.00
02036               8.40   -12000.00
02037              -4.20   -12000.00
02038              -4.40   -12200.00
02039               6.00   -12200.00
02040               0.40   -12400.00
02041              -4.40   -12400.00
02042               2.00   -12400.00
02043               0.20   -12600.00
02044              -1.80   -12800.00
02045               0.40   -12800.00
02046               1.40   -13000.00
02047               0.40   -13000.00
02048              -2.20   -13000.00
02049               0.60   -13200.00
02050               1.80   -13200.00
02051              -2.00   -13200.00
02052               0.00   -13400.00
02053               1.00   -13600.00
02054              -1.20   -13400.00
02055              -0.60   -13600.00
02056              -0.20   -13600.00
02057              -0.20   -13600.00
02058              -0.40   -13600.00
02059               0.20   -13600.00
02060               0.20   -13600.00
02061              -0.20   -13600.00
02062               0.20   -13800.00
02063               0.60   -13600.00
02064               0.80   -13600.00
02065              -1.00   -13600.00
02066              -0.60   -13600.00
02067               0.60   -13600.00
02068              -0.60   -13600.00
02069              -0.20   -13600.00
02070               0.40   -13600.00
02071              -1.20   -13600.00
02072              -0.20   -13600.00
02073               0.80   -13200.00
02074              -0.20   -13400.00
02075               0.20   -13200.00
02076               0.40   -13200.00
02077               0.20   -13200.00
02078              -0.40   -13200.00
02079               0.00   -13000.00
02080               0.20   -12800.00
02081               0.20   -12800.00
02082               0.20   -12800.00
02083              -0.40   -12600.00
02084              -0.20   -12600.00
02085              -0.60   -12400.00
02086              -0.20   -12400.00
02087               0.60   -12200.00
02088              -0.40   -12200.00
02089              -0.60   -12000.00
02090               0.20   -11800.00
02091               0.20   -11800.00
02092              -0.40   -11600.00
02093              -0.60   -11400.00
02094               0.40   -11400.00
02095               0.00   -11000.00
02096              -0.60   -11000.00
02097              -0.20   -10800.00
02098              -0.60   -10600.00
02099              -0.40   -10600.00
02100               0.40   -10400.00
02101              -0.60   -10000.00
02102              -0.40   -10000.00
02103              -0.60    -9800.00
02104              -0.60    -9800.00
02105               0.20    -9600.00
02106              -0.60    -9200.00
02107              -0.60    -9200.00
02108               0.20    -9000.00
02109              -0.60    -9000.00
02110              -1.00    -8400.00
02111              -0.20    -8400.00
02112              -0.20    -8200.00
02113              -0.40    -8000.00
02114               0.20    -8000.00
02115              -0.60    -7400.00
02116              -0.60    -7400.00
02117              -0.60    -7200.00
02118              -0.40    -6800.00
02119               0.20    -6800.00
02120              -0.60    -6400.00
02121              -1.40    -6400.00
02122               0.40    -6000.00
02123               0.40    -5800.00
02124              -1.20    -5600.00
02125              -0.40    -5200.00
02126               0.20    -5000.00
02127              -0.40    -4600.00
02128              -0.40    -4400.00
02129              -0.20    -4400.00
02130              -0.40    -4000.00
02131              -0.60    -3800.00
02132              -0.60    -3600.00
02133               0.00    -3400.00
02134              -0.40    -3200.00
02135              -1.20    -2800.00
02136              -0.20    -2600.00
02137              -0.20    -2400.00
02138              -0.40    -2000.00
02139              -0.20    -2000.00
02140               0.00    -1600.00
02141               0.20    -1400.00
02142              -0.20    -1200.00
02143              -0.60     -800.00
02144              -0.40     -400.00
02145              -0.40     -200.00
02146              -0.20        0.00
02147               0.40      200.00
02148               2.00      400.00
02149              -1.20      600.00
02150              -1.20      800.00
02151               0.60     1200.00
02152               0.60     1400.00
02153              -1.00     1600.00
02154               0.80     1800.00
02155              11.00     2000.00
02156              24.20     2400.00
02157             -25.00     2800.00
02158             -25.00     3200.00
02159              13.20     3600.00
02160             -10.80     3600.00
02161              25.00     3600.00
02162              25.00     4000.00
02163             -25.00     4000.00
02164              25.00     4200.00
02165              25.00     4600.00
02166             -25.00     4800.00
02167              25.00     5200.00
02168              25.00     5400.00
02169             -25.00     5600.00
02170              22.60     5800.00
02171               4.40     6000.00
02172              -8.60     6200.00
02173              15.00     6600.00
02174             -25.00     6600.00
02175              25.00     6800.00
02176               2.20     7200.00
02177             -25.00     7200.00
02178              25.00     7600.00
02179               4.20     7800.00
02180             -25.00     8200.00
02181              25.00     8400.00
02182               6.80     8400.00
02183             -25.00     8800.00
02184              11.60     8800.00
02185              16.20     9200.00
02186             -10.20     9400.00
02187              -7.60     9400.00
02188              10.60     9600.00
02189               3.40     9800.00
02190             -11.40    10000.00
02191              -6.20    10200.00
02192              15.80    10400.00
02193               0.00    10400.00
02194             -17.20    10800.00
02195              11.40    10800.00
02196               6.60    11000.00
02197             -18.80    11000.00
02198               3.80    11200.00
02199              16.60    11200.00
02200             -14.40    11600.00
02201              -5.00    11600.00
02202              12.20    12000.00
02203              -6.80    12000.00
02204              -5.20    12000.00
02205               6.40    12200.00
02206               1.00    12400.00
02207              -5.80    12600.00
02208              -0.20    12600.00
02209               2.60    12600.00
02210              -2.80    12800.00
02211              -1.20    12800.00
02212               2.80    12800.00
02213               0.20    13000.00
02214              -5.20    13200.00
02215               0.20    13200.00
02216               4.20    13200.00
02217              -3.00    13200.00
02218              -1.40    13400.00
02219               2.60    13400.00
02220              -2.60    13600.00
02221              -1.60    13600.00
02222               2.20    13600.00
02223               0.40    13600.00
02224              -2.20    13600.00
02225               0.00    13600.00
02226               0.60    13600.00
02227              -2.80    13600.00
02228              -0.80    13600.00
02229               1.60    13600.00
02230              -1.00    13600.00
02231              -1.00    13600.00
02232              -0.60    13600.00
02233              -0.40    13600.00
02234              -0.60    13600.00
02235               0.00    13600.00
02236               0.40    13600.00
02237              -2.00    13600.00
02238              -1.00    13600.00
02239               0.20    13600.00
02240              -1.20    13600.00
02241              -1.20    13200.00
02242              -0.60    13200.00
02243              -0.20    13200.00
02244              -1.00    13200.00
02245              -1.00    13200.00
02246              -0.40    13200.00
02247              -0.40    12800.00
02248               0.40    12800.00
02249              -0.60    12800.00
02250              -0.40    12600.00
02251              -0.60    12600.00
02252              -1.20    12600.00
02253               0.40    12400.00
02254              -0.60    12400.00
02255              -1.80    12400.00
02256              -0.40    12000.00
02257              -0.40    11800.00
02258              -0.60    11800.00
02259              -0.40    11600.00
02260              -0.40    11600.00
02261              -0.20    11400.00
02262              -0.20    11200.00
02263              -0.40    11000.00
02264              -0.60    11000.00
02265              -0.40    10800.00
02266              -0.20    10400.00
02267              -0.40    10400.00
02268              -0.40    10200.00
02269              -1.00    10000.00
02270              -0.80     9800.00
02271               0.00     9600.00
02272              -0.60     9600.00
02273              -1.00     9400.00
02274              -0.20     9200.00
02275               0.20     9000.00
02276              -0.60     8800.00
02277              -0.60     8600.00
02278               0.00     8400.00
02279              -0.40     8200.00
02280              -0.20     8000.00
02281               0.40     7800.00
02282              -1.20     7600.00
02283              -0.60     7200.00
02284               0.20     7200.00
02285              -0.60     7000.00
02286              -0.20     6600.00
02287               0.00     6400.00
02288              -1.00     6200.00
02289              -0.40     6000.00
02290               0.20     5800.00
02291              -0.60     5600.00
02292              -0.40     5400.00
02293               0.20     5000.00
02294              -0.60     4800.00
02295              -0.40     4600.00
02296              -0.40     4200.00
02297              -0.80     4000.00
02298              -0.40     3800.00
02299              -0.20     3600.00
02300              -0.60     3200.00
02301              -1.00     3000.00
02302              -0.40     2800.00
02303              -0.40     2600.00
02304              -0.40     2400.00
02305              -0.40     2200.00
02306              -0.40     1800.00
02307              -0.20     1600.00
02308              -0.60     1200.00
02309              -0.40     1200.00
02310              -0.40      800.00
02311              -0.60      600.00
02312              -0.20      400.00
02313              -0.20        0.00
02314               0.40     -400.00
02315               1.80     -400.00
02316              -0.60     -600.00
02317              -1.20    -1000.00
02318               0.40    -1200.00
02319               0.40    -1200.00
02320              -1.20    -1600.00
02321               1.00    -1800.00
02322               5.20    -1800.00
02323              17.00    -2000.00
02324               4.20    -2400.00
02325             -25.00    -3000.00
02326              -9.60    -3600.00
02327              13.40    -4000.00
02328             -21.00    -4000.00
02329              25.00    -4000.00
02330              25.00    -3600.00
02331             -25.00    -4200.00
02332              25.00    -4400.00
02333              25.00    -4600.00
02334             -25.00    -5000.00
02335              25.00    -5200.00
02336              25.00    -5600.00
02337             -25.00    -5600.00
02338              11.40    -6000.00
02339              -8.60    -6200.00
02340               6.60    -6400.00
02341               9.40    -6600.00
02342             -25.00    -6800.00
02343              25.00    -6800.00
02344              -5.60    -7200.00
02345             -25.00    -7600.00
02346              25.00    -8000.00
02347               3.60    -8000.00
02348             -25.00    -8200.00
02349              25.00    -8400.00
02350              13.00    -8400.00
02351             -25.00    -8800.00
02352              13.00    -9000.00
02353              17.00    -9200.00
02354             -17.40    -9400.00
02355               4.00    -9600.00
02356               9.80    -9800.00
02357              -7.20   -10000.00
02358              -1.80   -10000.00
02359              -0.60   -10200.00
02360               5.60   -10400.00
02361               1.20   -10600.00
02362              -9.40   -10800.00
02363               6.00   -11000.00
02364               3.60   -11000.00
02365             -11.00   -11200.00
02366               3.80   -11400.00
02367               9.20   -11600.00
02368              -8.60   -11600.00
02369              -1.40   -12000.00
02370               7.80   -12000.00
02371              -4.60   -12200.00
02372              -2.80   -12200.00
02373               5.80   -12200.00
02374              -1.00   -12400.00
02375              -3.00   -12400.00
02376               1.80   -12600.00
02377              -0.20   -12600.00
02378              -1.20   -12800.00
02379               0.20   -12800.00
02380               0.60   -13000.00
02381               0.20   -12800.00
02382              -2.40   -13200.00
02383               0.60   -13200.00
02384               2.00   -13200.00
02385              -1.80   -13200.00
02386              -0.20   -13600.00
02387               1.00   -13400.00
02388              -1.00   -13600.00
02389              -0.40   -13600.00
02390               0.60   -13600.00
02391               0.20   -13600.00
02392              -0.80   -13400.00
02393               0.40   -13600.00
02394               0.40   -13600.00
02395              -0.80   -13600.00
02396               0.40   -13600.00
02397               0.60   -13600.00
02398               0.20   -13600.00
02399              -0.40   -13600.00
02400              -0.40   -13600.00
02401               1.00   -13600.00
02402              -0.20   -13600.00
02403               0.20   -13600.00
02404               0.40   -13400.00
02405              -1.00   -13600.00
02406              -0.20   -13600.00
02407               1.00   -13400.00
02408               0.20   -13200.00
02409              -0.60   -13200.00
02410               0.40   -13200.00
02411               0.40   -13200.00
02412              -0.60   -13000.00
02413               0.40   -13000.00
02414               0.40   -12800.00
02415               0.20   -12800.00
02416               0.40   -12800.00
02417              -0.20   -12600.00
02418              -0.20   -12400.00
02419               0.20   -12400.00
02420               0.20   -12400.00
02421               0.40   -12200.00
02422              -0.60   -12000.00
02423              -0.40   -12000.00
02424               0.00   -12000.00
02425              -0.40   -11600.00
02426              -0.40   -11600.00
02427              -0.20   -11400.00
02428              -0.20   -11200.00
02429              -0.40   -11000.00
02430              -0.20   -11000.00
02431              -0.40   -10800.00
02432              -0.40   -10600.00
02433               0.40   -10600.00
02434               0.20   -10400.00
02435              -0.20   -10200.00
02436              -0.60   -10000.00
02437              -0.80    -9800.00
02438              -0.20    -9600.00
02439              -0.20    -9600.00
02440              -0.60    -9200.00
02441              -0.20    -9200.00
02442              -1.00    -8800.00
02443              -0.60    -8800.00
02444               0.20    -8600.00
02445              -1.00    -8400.00
02446              -0.20    -8200.00
02447               0.40    -8000.00
02448              -0.40    -7800.00
02449              -0.20    -7400.00
02450              -0.20    -7200.00
02451              -0.60    -7200.00
02452              -0.20    -7000.00
02453               0.00    -6600.00
02454              -0.60    -6600.00
02455              -0.60    -6200.00
02456              -0.60    -5800.00
02457              -0.40    -5800.00
02458              -0.40    -5400.00
02459              -0.60    -5200.00
02460              -0.40    -4800.00
02461               0.40    -4800.00
02462              -0.20    -4400.00
02463              -0.20    -4200.00
02464              -0.20    -4000.00
02465              -0.40    -3800.00
02466               0.20    -3600.00
02467               0.20    -3200.00
02468              -1.20    -3200.00
02469              -0.60    -2800.00
02470               0.20    -2600.00
02471              -1.00    -2400.00
02472              -0.20    -2000.00
02473               0.20    -1800.00
02474              -0.60    -1600.00
02475              -0.20    -1200.00
02476               0.20    -1000.00
02477              -0.60     -800.00
02478              -0.40     -600.00
02479               0.40     -200.00
02480              -0.20        0.00
02481               0.00      200.00
02482               2.20      600.00
02483              -0.60      600.00
02484              -1.60      800.00
02485               1.00     1200.00
02486               0.20     1200.00
02487              -1.60     1600.00
02488               1.20     1800.00
02489              12.20     2000.00
02490              22.00     2200.00
02491             -25.00     2800.00
02492             -25.00     3200.00
02493              13.80     3600.00
02494             -11.80     3800.00
02495              25.00     3600.00
02496              23.60     3800.00
02497             -25.00     3800.00
02498              25.00     4200.00
02499              25.00     4600.00
02500             -25.00     4800.00
02501              25.00     5200.00
02502              25.00     5400.00
02503             -25.00     5600.00
02504              25.00     5800.00
02505              -1.40     6000.00
02506              -4.60     6400.00
02507               9.80     6400.00
02508             -25.00     6800.00
02509              25.00     6800.00
02510             -13.20     7200.00
02511             -25.00     7400.00
02512              25.00     7600.00
02513             -11.80     7800.00
02514             -25.00     8200.00
02515              25.00     8400.00
02516              -3.20     8600.00
02517             -25.00     8600.00
02518              13.60     8800.00
02519              13.40     9000.00
02520             -10.20     9200.00
02521              -6.20     9600.00
02522              10.00     9600.00
02523               2.40     9600.00
02524             -11.80    10000.00
02525              -4.60    10200.00
02526              17.40    10400.00
02527              -3.00    10400.00
02528             -16.40    10800.00
02529              14.20    10800.00
02530               4.20    11000.00
02531             -20.20    11000.00
02532               7.80    11200.00
02533              15.00    11200.00
02534             -17.80    11600.00
02535              -2.20    11800.00
02536              12.40    11800.00
02537              -8.60    12000.00
02538              -4.20    12000.00
02539               7.00    12400.00
02540               0.40    12400.00
02541              -5.80    12600.00
02542               0.60    12600.00
02543               3.00    12600.00
02544              -2.60    12800.00
02545              -1.40    12800.00
02546               2.60    13000.00
02547              -0.40    13000.00
02548              -5.40    13200.00
02549               0.40    13200.00
02550               3.60    13200.00
02551              -3.80    13200.00
02552              -0.60    13400.00
02553               2.00    13400.00
02554              -2.80    13600.00
02555              -0.80    13400.00
02556               1.60    13400.00
02557              -0.60    13600.00
02558              -2.20    13400.00
02559               0.40    13600.00
02560               0.40    13600.00
02561              -2.80    13600.00
02562              -0.40    13400.00
02563               1.20    14000.00
02564              -1.20    13600.00
02565              -1.20    13600.00
02566              -0.60    13600.00
02567              -0.20    13600.00
02568              -1.00    13600.00
02569               0.20    13600.00
02570               0.40    13600.00
02571              -2.20    13400.00
02572              -0.40    13600.00
02573               0.60    13400.00
02574              -1.00    13400.00
02575              -1.00    13400.00
02576              -0.40    13400.00
02577              -0.20    13200.00
02578              -1.40    13200.00
02579              -1.00    13200.00
02580              -0.20    13000.00
02581              -0.60    12800.00
02582              -0.20    12800.00
02583              -0.40    12800.00
02584              -0.40    12600.00
02585              -1.00    12600.00
02586              -0.60    12400.00
02587               0.40    12400.00
02588              -0.80    12200.00
02589              -1.20    12000.00
02590              -0.20    12000.00
02591              -0.60    12000.00
02592              -0.60    11800.00
02593              -0.60    11600.00
02594              -0.40    11600.00
02595              -0.40    11200.00
02596              -0.40    11200.00
02597              -0.20    11000.00
02598              -0.60    10800.00
02599              -0.60    10800.00
02600               0.20    10600.00
02601              -0.20    10400.00
02602              -0.60    10400.00
02603              -0.60    10000.00
02604              -0.40    10000.00
02605               0.20     9600.00
02606              -0.40     9600.00
02607              -0.60     9400.00
02608              -0.40     9200.00
02609              -0.40     9000.00
02610              -0.40     8800.00
02611              -0.60     8600.00
02612              -0.40     8400.00
02613              -0.40     8200.00
02614              -0.20     8000.00
02615               0.20     7800.00
02616              -0.80     7600.00
02617              -0.40     7200.00
02618              -0.20     7200.00
02619              -0.60     7000.00
02620              -0.20     6600.00
02621              -0.60     6400.00
02622              -1.00     6200.00
02623              -0.40     6000.00
02624              -0.60     5800.00
02625              -0.60     5600.00
02626              -1.00     5400.00
02627              -0.60     5000.00
02628              -0.40     4800.00
02629              -0.60     4600.00
02630              -0.60     4200.00
02631              -0.60     4000.00
02632              -0.60     3800.00
02633               0.00     3600.00
02634               0.00     3400.00
02635              -0.60     3000.00
02636              -0.40     2800.00
02637               0.00     2600.00
02638              -0.60     2400.00
02639              -1.00     2000.00
02640              -0.20     2000.00
02641              -0.40     1600.00
02642              -1.00     1400.00
02643              -0.60     1000.00
02644              -0.40      800.00
02645              -0.60      600.00
02646               0.20      200.00
02647               0.40        0.00
02648               0.60     -400.00
02649               2.00     -400.00
02650              -0.40     -600.00
02651              -1.20    -1000.00
02652               0.60    -1000.00
02653               0.40    -1200.00
02654              -1.20    -1600.00
02655               1.00    -1800.00
02656               5.00    -2000.00
02657              18.00    -2000.00
02658               1.00    -2400.00
02659             -25.00    -3200.00
02660              -6.20    -3600.00
02661              12.60    -4000.00
02662             -21.40    -4000.00
02663              25.00    -3800.00
02664              18.60    -3800.00
02665             -25.00    -4200.00
02666              25.00    -4400.00
02667              25.00    -4600.00
02668             -25.00    -5000.00
02669              25.00    -5200.00
02670              25.00    -5600.00
02671             -25.00    -5800.00
02672              13.00    -6000.00
02673             -11.80    -6200.00
02674              10.60    -6400.00
02675               4.20    -6800.00
02676             -25.00    -6800.00
02677              25.00    -7200.00
02678             -14.60    -7200.00
02679             -25.00    -7400.00
02680              25.00    -7800.00
02681              -6.20    -8000.00
02682             -25.00    -8200.00
02683              25.00    -8400.00
02684               5.80    -8800.00
02685             -25.00    -8800.00
02686              15.80    -9000.00
02687              12.60    -9200.00
02688             -17.20    -9400.00
02689               5.60    -9600.00
02690               7.80    -9800.00
02691              -7.00    -9800.00
02692              -2.20   -10000.00
02693              -1.00   -10200.00
02694               7.00   -10400.00
02695               0.40   -10600.00
02696              -9.20   -10600.00
02697               7.20   -10800.00
02698               2.60   -11000.00
02699             -11.00   -11200.00
02700               5.20   -11400.00
02701               7.80   -11600.00
02702              -9.20   -11600.00
02703              -1.20   -11800.00
02704               6.60   -12000.00
02705              -4.60   -12000.00
02706              -2.40   -12400.00
02707               5.20   -12200.00
02708              -0.60   -12400.00
02709              -3.00   -12400.00
02710               1.40   -12400.00
02711               0.60   -12800.00
02712              -0.60   -12800.00
02713              -0.20   -12800.00
02714               1.00   -13000.00
02715               0.40   -13000.00
02716              -2.60   -13200.00
02717               1.20   -13200.00
02718               1.40   -13200.00
02719              -2.00   -13400.00
02720              -0.20   -13200.00
02721               1.00   -13400.00
02722              -0.40   -13600.00
02723              -0.40   -13200.00
02724               0.80   -13600.00
02725               0.40   -13600.00
02726              -0.60   -13600.00
02727               0.40   -13600.00
02728               1.00   -13600.00
02729              -0.60   -13600.00
02730               0.20   -13600.00
02731               1.00   -13600.00
02732               0.20   -13600.00
02733              -1.40   -13600.00
02734              -0.20   -13600.00
02735               1.00   -13600.00
02736              -1.00   -13600.00
02737               0.40   -13600.00
02738               0.40   -13600.00
02739              -1.20   -13600.00
02740               0.40   -13400.00
02741               1.00   -13200.00
02742              -0.20   -13400.00
02743              -0.40   -13200.00
02744               0.40   -13200.00
02745               0.20   -13200.00
02746              -0.80   -13000.00
02747              -0.40   -13000.00
02748               0.20   -12800.00
02749              -0.20   -12800.00
02750              -0.40   -12800.00
02751               0.00   -12600.00
02752              -0.40   -12800.00
02753              -0.80   -12400.00
02754               0.40   -12200.00
02755               0.40   -12400.00
02756              -1.00   -12200.00
02757               0.20   -12000.00
02758               0.40   -12000.00
02759              -1.00   -11600.00
02760               0.20   -11600.00
02761              -0.40   -11400.00
02762              -0.60   -11000.00
02763              -0.20   -11200.00
02764              -0.20   -11000.00
02765              -0.80   -10800.00
02766              -0.40   -10600.00
02767              -0.20   -10600.00
02768               0.20   -10400.00
02769               0.20   -10200.00
02770              -0.60   -10000.00
02771              -0.60    -9800.00
02772               0.20    -9600.00
02773              -0.40    -9600.00
02774              -0.40    -9200.00
02775              -0.20    -9200.00
02776              -0.60    -8800.00
02777              -0.40    -8800.00
02778              -0.20    -8400.00
02779              -0.60    -8400.00
02780              -0.40    -8200.00
02781              -0.20    -8000.00
02782               0.00    -7600.00
02783              -0.40    -7400.00
02784              -1.00    -7400.00
02785              -0.20    -7200.00
02786               0.20    -6800.00
02787              -0.20    -6600.00
02788               0.20    -6400.00
02789              -0.60    -6400.00
02790              -0.40    -6000.00
02791               0.20    -5600.00
02792              -0.60    -5600.00
02793              -0.60    -5200.00
02794               0.20    -5000.00
02795              -0.40    -4600.00
02796              -0.40    -4400.00
02797              -0.20    -4200.00
02798              -1.00    -4000.00
02799              -0.40    -3800.00
02800               0.40    -3600.00
02801              -0.40    -3400.00
02802              -0.40    -3200.00
02803              -0.40    -2800.00
02804              -0.60    -2600.00
02805              -0.20    -2400.00
02806               0.00    -2000.00
02807              -0.40    -1800.00
02808              -0.20    -1600.00
02809              -0.40    -1200.00
02810              -0.40    -1000.00
02811              -0.60     -800.00
02812              -0.60     -400.00
02813               0.00     -400.00
02814              -0.60        0.00
02815               0.40      400.00
02816               1.80      400.00
02817              -1.40      600.00
02818              -0.60     1000.00
02819               1.20     1200.00
02820              -0.20     1400.00
02821              -1.00     1800.00
02822               1.40     1800.00
02823              14.00     2000.00
02824              19.60     2400.00
02825             -25.00     2800.00
02826             -25.00     3200.00
02827              13.80     3600.00
02828             -13.20     3600.00
02829              25.00     3600.00
02830              14.00     3800.00
02831             -25.00     4000.00
02832              25.00     4000.00
02833              25.00     4400.00
02834             -25.00     4800.00
02835              25.00     5200.00
02836              25.00     5400.00
02837             -25.00     5600.00
02838              25.00     5600.00
02839              -7.40     6000.00
02840               0.60     6200.00
02841               3.40     6600.00
02842             -25.00     6800.00
02843              25.00     7000.00
02844             -25.00     7000.00
02845             -25.00     7200.00
02846              25.00     7800.00
02847             -25.00     7800.00
02848             -25.00     8200.00
02849              25.00     8400.00
02850             -10.80     8600.00
02851             -25.00     8800.00
02852              16.20     8800.00
02853              11.40     9000.00
02854             -11.00     9200.00
02855              -5.20     9400.00
02856               9.80     9800.00
02857               2.00     9800.00
02858             -13.20    10000.00
02859              -2.80    10000.00
02860              18.00    10200.00
02861              -6.20    10600.00
02862             -14.60    10600.00
02863              16.20    10800.00
02864               0.40    11000.00
02865             -18.80    11000.00
02866              11.40    11200.00
02867              11.60    11600.00
02868             -18.20    11600.00
02869               1.00    11600.00
02870              10.40    11800.00
02871              -9.40    12000.00
02872              -2.80    12000.00
02873               6.20    12200.00
02874              -0.20    12400.00
02875              -5.40    12400.00
02876               0.80    12400.00
02877               2.60    12600.00
02878              -3.40    12800.00
02879              -1.00    12800.00
02880               3.20    12800.00
02881              -1.20    13000.00
02882              -5.00    13000.00
02883               1.60    13200.00
02884               2.20    13200.00
02885              -4.20    13200.00
02886               0.20    13400.00
02887               1.00    13600.00
02888              -3.00    13400.00
02889              -0.60    13400.00
02890               1.00    13600.00
02891              -0.40    13600.00
02892              -2.00    13600.00
02893               0.20    13600.00
02894               0.40    13600.00
02895              -2.80    13600.00
02896              -0.40    13600.00
02897               1.40    13800.00
02898              -1.00    13600.00
02899              -1.20    13600.00
02900              -0.60    13600.00
02901              -0.40    13600.00
02902              -1.00    13600.00
02903              -0.20    13600.00
02904               0.40    13600.00
02905              -2.20    13600.00
02906              -1.00    13600.00
02907               0.60    13400.00
02908              -0.60    13400.00
02909              -1.20    13400.00
02910               0.20    13200.00
02911               0.20    13200.00
02912              -1.60    13000.00
02913              -0.40    13200.00
02914              -0.20    13200.00
02915              -1.00    12800.00
02916               0.20    12800.00
02917              -0.60    12600.00
02918              -1.00    12600.00
02919              -0.60    12600.00
02920              -0.60    12600.00
02921               0.40    12400.00
02922              -0.40    12400.00
02923              -1.20    12000.00
02924              -0.20    12000.00
02925              -0.40    12000.00
02926              -0.40    11800.00
02927              -0.20    11600.00
02928              -0.20    11600.00
02929              -0.20    11200.00
02930              -0.40    11200.00
02931              -0.40    11000.00
02932              -1.00    10800.00
02933              -0.60    10800.00
02934               0.20    10600.00
02935              -0.60    10400.00
02936              -0.60    10200.00
02937              -0.60    10000.00
02938              -0.40    10000.00
02939               0.20     9600.00
02940              -0.40     9400.00
02941              -0.40     9200.00
02942              -0.20     9000.00
02943              -0.20     8800.00
02944              -0.20     8800.00
02945              -0.80     8400.00
02946              -0.60     8400.00
02947              -1.00     8200.00
02948              -0.60     8000.00
02949              -0.20     7800.00
02950              -1.20     7600.00
02951              -0.60     7400.00
02952              -0.60     7000.00
02953              -0.40     6800.00
02954               0.00     6600.00
02955              -0.40     6400.00
02956              -0.60     6200.00
02957              -0.20     6000.00
02958              -0.60     6000.00
02959              -0.60     5600.00
02960              -0.40     5400.00
02961              -0.40     5000.00
02962              -0.60     4600.00
02963              -0.60     4600.00
02964              -1.00     4400.00
02965              -0.60     4000.00
02966              -0.60     3800.00
02967              -0.40     3600.00
02968              -0.20     3200.00
02969              -0.60     3000.00
02970              -0.60     2800.00
02971               0.40     2400.00
02972              -0.20     2200.00
02973              -1.20     2000.00
02974               0.40     1800.00
02975              -0.20     1600.00
02976              -1.20     1400.00
02977              -0.20     1200.00
02978              -0.40      600.00
02979              -1.00      600.00
02980               0.20      400.00
02981               0.20        0.00
02982               1.20     -200.00
02983               1.80     -400.00
02984              -1.20     -800.00
02985              -0.60     -800.00
02986               1.20    -1200.00
02987              -0.40    -1400.00
02988              -1.00    -1600.00
02989               1.60    -1800.00
02990               5.40    -2000.00
02991              19.00    -2000.00
02992              -2.60    -2600.00
02993             -25.00    -3200.00
02994              -3.00    -3600.00
02995              10.60    -4000.00
02996             -21.80    -4000.00
02997              25.00    -3800.00
02998               9.00    -4000.00
02999             -25.00    -4200.00
03000              25.00    -4400.00
03001              20.60    -4600.00
03002             -25.00    -5000.00
03003              25.00    -5200.00
03004              21.40    -5600.00
03005             -25.00    -5800.00
03006              14.00    -5800.00
03007             -14.40    -6000.00
03008              14.00    -6600.00
03009              -0.60    -6600.00
03010             -24.40    -6800.00
03011              25.00    -7200.00
03012             -23.00    -7400.00
03013             -25.00    -7600.00
03014              25.00    -7800.00
03015             -14.20    -8000.00
03016             -25.00    -8200.00
03017              25.00    -8400.00
03018               1.40    -8600.00
03019             -25.00    -8800.00
03020              18.80    -9000.00
03021              12.00    -9200.00
03022             -19.40    -9600.00
03023               7.40    -9600.00
03024               7.80    -9800.00
03025              -9.00   -10000.00
03026              -2.60   -10000.00
03027               1.40   -10400.00
03028               5.00   -10400.00
03029              -1.00   -10600.00
03030              -7.60   -10800.00
03031               7.60   -10800.00
03032               0.60   -11200.00
03033              -9.80   -11200.00
03034               6.60   -11400.00
03035               6.60   -11600.00
03036              -9.00   -11600.00
03037               0.20   -12000.00
03038               6.00   -12000.00
03039              -5.40   -12200.00
03040              -2.00   -12200.00
03041               5.80   -12200.00
03042              -1.40   -12400.00
03043              -3.80   -12400.00
03044               2.60   -12400.00
03045              -0.40   -12800.00
03046              -1.40   -12800.00
03047               2.00   -12800.00
03048               1.00   -13000.00
03049              -1.20   -13000.00
03050              -1.20   -13200.00
03051               1.20   -13200.00
03052               0.40   -13200.00
03053              -0.60   -13200.00
03054               0.20   -13200.00
03055              -0.60   -13400.00
03056              -0.20   -13600.00
03057               0.20   -13400.00
03058               0.20   -13600.00
03059               0.20   -13600.00
03060              -0.20   -13600.00
03061               0.40   -13600.00
03062               0.20   -13600.00
03063              -0.20   -13600.00
03064               0.40   -13600.00
03065               0.60   -13600.00
03066               0.60   -13600.00
03067              -1.00   -13600.00
03068              -0.60   -13600.00
03069               1.00   -13600.00
03070              -0.60   -13400.00
03071               0.20   -13600.00
03072               0.60   -13600.00
03073              -0.60   -13600.00
03074              -0.60   -13200.00
03075               0.00   -13400.00
03076               0.20   -13200.00
03077              -0.20   -13200.00
03078               1.00   -13200.00
03079               0.60   -13200.00
03080              -1.40   -13000.00
03081              -0.60   -13000.00
03082               0.20   -12800.00
03083               0.20   -12800.00
03084               0.40   -12600.00
03085              -0.20   -12400.00
03086              -0.60   -12800.00
03087              -1.00   -12400.00
03088               0.60   -12400.00
03089              -0.40   -12200.00
03090              -1.00   -12000.00
03091               0.80   -12000.00
03092               0.20   -12000.00
03093              -1.00   -11800.00
03094              -0.20   -11600.00
03095              -0.60   -11400.00
03096              -0.20   -11200.00
03097               0.40   -11000.00
03098              -0.20   -10800.00
03099              -0.60   -10800.00
03100              -0.40   -10600.00
03101              -0.60   -10600.00
03102               0.20   -10400.00
03103               0.40   -10000.00
03104              -1.00   -10000.00
03105              -0.20   -10000.00
03106              -0.20    -9600.00
03107              -1.20    -9400.00
03108               0.20    -9200.00
03109              -0.20    -9200.00
03110              -0.60    -9000.00
03111               0.40    -8800.00
03112              -0.60    -8600.00
03113              -1.00    -8400.00
03114               1.00    -8200.00
03115              -1.00    -8000.00
03116               0.20    -7600.00
03117               0.40    -7600.00
03118              -2.00    -7200.00
03119               0.20    -7000.00
03120               0.20    -6800.00
03121              -1.00    -6600.00
03122               0.80    -6400.00
03123              -0.60    -6200.00
03124              -0.60    -6000.00
03125               0.60    -5800.00
03126              -0.60    -5600.00
03127              -0.20    -5200.00
03128               0.60    -5000.00
03129              -0.60    -4600.00
03130              -0.20    -4400.00
03131              -0.60    -4400.00
03132              -0.60    -4000.00
03133              -0.20    -3800.00
03134              -0.40    -3600.00
03135              -0.40    -3200.00
03136              -0.40    -3200.00
03137              -1.20    -2800.00
03138              -0.20    -2600.00
03139               0.40    -2200.00
03140              -0.60    -2000.00
03141               0.00    -1800.00
03142               0.40    -1600.00
03143              -1.00    -1200.00
03144              -0.60    -1000.00
03145              -0.20     -800.00
03146              -1.20     -400.00
03147              -0.40     -200.00
03148               0.20        0.00
03149               0.20      400.00
03150               1.20      400.00
03151              -1.40      800.00
03152              -0.80      800.00
03153               0.80     1200.00
03154               0.60     1400.00
03155              -1.00     1800.00
03156               1.00     1800.00
03157              16.40     2000.00
03158              17.20     2400.00
03159             -25.00     2800.00
03160             -21.40     3200.00
03161              14.20     3600.00
03162             -14.40     3600.00
03163              25.00     3600.00
03164               3.00     3800.00
03165             -25.00     4000.00
03166              25.00     4400.00
03167              22.80     4600.00
03168             -25.00     4800.00
03169              25.00     5200.00
03170              25.00     5600.00
03171             -25.00     5600.00
03172              25.00     6000.00
03173             -13.00     6000.00
03174               5.80     6200.00
03175              -2.80     6600.00
03176             -25.00     6800.00
03177              25.00     6800.00
03178             -25.00     7200.00
03179             -25.00     7400.00
03180              25.00     7800.00
03181             -25.00     8000.00
03182             -25.00     8200.00
03183              25.00     8400.00
03184             -17.20     8600.00
03185             -25.00     8600.00
03186              17.20     8800.00
03187              10.00     9200.00
03188             -12.20     9200.00
03189              -3.40     9400.00
03190              11.40     9600.00
03191               0.20    10000.00
03192             -13.80    10000.00
03193              -0.40    10200.00
03194              17.40    10200.00
03195              -9.20    10400.00
03196             -12.40    10800.00
03197              17.00    10800.00
03198              -2.40    11000.00
03199             -18.00    11200.00
03200              13.00    11200.00
03201               9.80    11200.00
03202             -18.80    11600.00
03203               3.40    11600.00
03204               9.80    11800.00
03205             -10.20    12000.00
03206              -1.60    12200.00
03207               6.80    12400.00
03208              -1.40    12400.00
03209              -6.00    12400.00
03210               1.60    12600.00
03211               2.00    12600.00
03212              -3.80    12600.00
03213              -0.60    12800.00
03214               3.00    12800.00
03215              -1.40    13000.00
03216              -5.20    13000.00
03217               2.20    13200.00
03218               2.20    13200.00
03219              -4.20    13400.00
03220               0.40    13400.00
03221               1.80    13400.00
03222              -3.00    13400.00
03223              -0.60    13400.00
03224               1.60    13600.00
03225              -1.40    13600.00
03226              -2.80    13600.00
03227               1.00    13600.00
03228               0.60    13600.00
03229              -3.60    13600.00
03230               0.40    13600.00
03231               1.20    13600.00
03232              -1.00    13600.00
03233              -0.60    13600.00
03234              -0.20    13600.00
03235               0.00    13600.00
03236              -1.00    13600.00
03237              -0.20    13600.00
03238               0.20    13600.00
03239              -2.20    13600.00
03240              -0.60    13400.00
03241               0.40    13400.00
03242              -1.00    13600.00
03243              -1.20    13400.00
03244              -0.20    13200.00
03245               0.40    13200.00
03246              -1.20    13200.00
03247              -0.20    13000.00
03248               0.20    13000.00
03249              -0.40    12800.00
03250               0.40    12800.00
03251              -0.80    12800.00
03252              -0.40    12600.00
03253              -1.00    12600.00
03254              -0.60    12400.00
03255               0.40    12400.00
03256              -0.80    12200.00
03257              -1.00    12000.00
03258              -0.20    12000.00
03259              -0.40    12000.00
03260              -0.60    11800.00
03261              -0.20    11400.00
03262              -0.20    11600.00
03263              -0.20    11200.00
03264               0.20    11000.00
03265               0.00    11000.00
03266              -1.00    11000.00
03267              -0.40    10600.00
03268               0.20    10800.00
03269              -0.40    10400.00
03270              -0.60    10200.00
03271              -0.80    10000.00
03272              -0.60    10000.00
03273              -1.20     9600.00
03274               0.20     9600.00
03275               0.40     9200.00
03276              -1.00     9200.00
03277              -0.40     9000.00
03278              -0.20     8800.00
03279              -1.20     8600.00
03280              -0.40     8400.00
03281               0.20     8200.00
03282              -0.20     8000.00
03283              -0.40     7800.00
03284              -1.20     7400.00
03285              -0.60     7400.00
03286              -0.40     7000.00
03287              -0.20     6800.00
03288              -0.40     6800.00
03289              -0.40     6400.00
03290              -0.40     6000.00
03291              -0.60     6000.00
03292              -1.40     5600.00
03293              -0.40     5600.00
03294              -0.40     5200.00
03295              -0.20     5000.00
03296               0.20     4800.00
03297              -0.60     4400.00
03298              -1.00     4400.00
03299              -0.60     4000.00
03300               0.20     3800.00
03301               0.00     3600.00
03302              -0.20     3200.00
03303              -1.20     3000.00
03304              -0.60     2800.00
03305              -0.20     2400.00
03306              -0.60     2200.00
03307              -0.40     2000.00
03308              -0.20     1800.00
03309              -0.40     1600.00
03310              -0.60     1400.00
03311               0.00     1200.00
03312               0.00      800.00
03313              -0.20      400.00
03314               0.40      200.00
03315               0.40        0.00
03316               0.60     -200.00
03317               1.20     -400.00
03318              -1.00     -800.00
03319              -0.60    -1000.00
03320               0.40    -1200.00
03321              -0.40    -1400.00
03322              -1.00    -1600.00
03323               1.60    -1800.00
03324               6.80    -2000.00
03325              19.60    -2400.00
03326              -6.00    -2600.00
03327             -25.00    -3200.00
03328               0.20    -3600.00
03329               8.20    -4000.00
03330             -20.20    -4000.00
03331              25.00    -3800.00
03332              -1.80    -3800.00
03333             -25.00    -4200.00
03334              25.00    -4400.00
03335               8.20    -4600.00
03336             -25.00    -5000.00
03337              25.00    -5400.00
03338              12.60    -5600.00
03339             -25.00    -5800.00
03340              14.00    -6000.00
03341             -15.60    -6200.00
03342              17.20    -6600.00
03343              -6.80    -6600.00
03344             -18.00    -6800.00
03345              25.00    -7200.00
03346             -25.00    -7200.00
03347             -25.00    -7400.00
03348              25.00    -8000.00
03349             -25.00    -8200.00
03350             -25.00    -8400.00
03351              25.00    -8400.00
03352              -6.80    -8800.00
03353             -25.00    -8800.00
03354              22.20    -9000.00
03355               6.60    -9200.00
03356             -17.20    -9400.00
03357              10.00    -9600.00
03358               4.60    -9800.00
03359              -7.40    -9800.00
03360              -1.20   -10000.00
03361               0.20   -10400.00
03362               6.60   -10400.00
03363              -2.20   -10600.00
03364              -7.00   -10600.00
03365               8.40   -10800.00
03366              -0.60   -11000.00
03367             -10.00   -11200.00
03368               7.60   -11400.00
03369               5.40   -11600.00
03370              -9.60   -11800.00
03371               1.60   -11800.00
03372               6.00   -12000.00
03373              -6.00   -12000.00
03374              -0.80   -12200.00
03375               5.40   -12200.00
03376              -2.00   -12400.00
03377              -2.20   -12600.00
03378               2.00   -12600.00
03379               0.20   -12800.00
03380              -1.00   -12800.00
03381               0.40   -12800.00
03382               1.40   -13000.00
03383              -0.40   -13000.00
03384              -2.20   -13000.00
03385               2.00   -13200.00
03386               1.00   -13200.00
03387              -2.00   -13200.00
03388               0.60   -13200.00
03389               0.40   -13400.00
03390              -0.40   -13400.00
03391               0.40   -13600.00
03392               0.40   -13600.00
03393               0.20   -13600.00
03394              -0.60   -13600.00
03395              -0.20   -13600.00
03396               0.60   -13600.00
03397              -0.40   -13800.00
03398              -0.60   -13800.00
03399               1.20   -13600.00
03400               0.20   -13600.00
03401              -2.20   -13600.00
03402               1.00   -13600.00
03403               1.00   -13600.00
03404              -1.40   -13600.00
03405               1.40   -13600.00
03406              -0.20   -13600.00
03407              -1.80   -13400.00
03408               1.40   -13400.00
03409              -0.40   -13600.00
03410              -0.40   -13200.00
03411              -0.40   -13200.00
03412              -0.60   -13200.00
03413               0.40   -13200.00
03414              -1.00   -13000.00
03415              -0.20   -12800.00
03416               0.40   -12800.00
03417              -0.20   -12800.00
03418              -0.20   -12800.00
03419               0.40   -12600.00
03420              -0.60   -12600.00
03421              -0.60   -12400.00
03422               1.00   -12400.00
03423               0.20   -12200.00
03424              -1.20   -12200.00
03425              -0.40   -12000.00
03426              -0.40   -12000.00
03427              -1.00   -11600.00
03428              -0.20   -11600.00
03429              -0.40   -11400.00
03430              -0.20   -11200.00
03431               0.20   -11000.00
03432              -0.20   -11000.00
03433              -0.60   -10800.00
03434               0.20   -10800.00
03435               0.40   -10400.00
03436              -0.60   -10400.00
03437               0.20   -10000.00
03438               0.00   -10000.00
03439              -1.20    -9800.00
03440              -0.20    -9800.00
03441               0.00    -9600.00
03442              -0.60    -9200.00
03443              -0.20    -9200.00
03444              -0.40    -8800.00
03445               0.20    -8800.00
03446              -0.20    -8400.00
03447              -1.00    -8200.00
03448               0.20    -8200.00
03449               1.00    -8000.00
03450              -0.40    -7600.00
03451              -0.20    -7400.00
03452               0.40    -7200.00
03453              -1.20    -7000.00
03454              -0.60    -6800.00
03455               0.80    -6600.00
03456              -0.60    -6400.00
03457              -0.80    -6000.00
03458               0.20    -6000.00
03459              -0.60    -5600.00
03460              -0.60    -5600.00
03461               0.40    -5200.00
03462               0.20    -5000.00
03463              -0.20    -4600.00
03464               0.00    -4400.00
03465              -0.60    -4400.00
03466              -1.00    -4000.00
03467               0.40    -3600.00
03468              -0.20    -3600.00
03469              -0.60    -3400.00
03470              -0.60    -3000.00
03471              -0.60    -2800.00
03472              -0.40    -2400.00
03473              -0.20    -2400.00
03474              -0.40    -2000.00
03475              -0.20    -1800.00
03476              -0.60    -1600.00
03477              -1.00    -1200.00
03478              -0.20    -1200.00
03479              -0.20     -800.00
03480              -0.60     -400.00
03481              -0.20     -200.00
03482               0.20        0.00
03483               0.40      400.00
03484               1.00      600.00
03485              -0.60      600.00
03486              -0.60      800.00
03487               0.20     1200.00
03488               0.20     1400.00
03489              -1.20     1600.00
03490               1.40     1800.00
03491              18.20     2000.00
03492              14.00     2400.00
03493             -25.00     2800.00
03494             -18.20     3200.00
03495              14.00     3600.00
03496             -13.00     3600.00
03497              25.00     3800.00
03498              -7.60     3800.00
03499             -25.00     3800.00
03500              25.00     4400.00
03501               5.60     4600.00
03502             -25.00     4800.00
03503              25.00     5200.00
03504              20.20     5400.00
03505             -25.00     5600.00
03506              25.00     6000.00
03507             -16.40     6000.00
03508              10.00     6200.00
03509             -10.20     6600.00
03510             -20.20     6800.00
03511              25.00     7000.00
03512             -25.00     7200.00
03513             -25.00     7600.00
03514              25.00     7600.00
03515             -25.00     8000.00
03516             -21.20     8200.00
03517              25.00     8400.00
03518             -24.60     8600.00
03519             -23.60     8600.00
03520              18.60     9000.00
03521               6.80     9200.00
03522             -11.80     9200.00
03523              -1.40     9600.00
03524              10.00     9600.00
03525              -0.60     9800.00
03526             -14.00    10000.00
03527               2.00    10200.00
03528              17.80    10400.00
03529             -11.80    10400.00
03530             -10.00    10800.00
03531              17.80    10800.00
03532              -5.80    11000.00
03533             -17.20    11200.00
03534              15.00    11200.00
03535               6.80    11400.00
03536             -19.00    11600.00
03537               5.80    11800.00
03538               8.20    12000.00
03539             -10.60    12000.00
03540              -0.40    12200.00
03541               6.20    12400.00
03542              -1.80    12400.00
03543              -5.40    12400.00
03544               1.40    12600.00
03545               1.20    12600.00
03546              -3.80    12800.00
03547              -0.40    12800.00
03548               2.80    12800.00
03549              -1.20    13000.00
03550              -4.60    13200.00
03551               2.60    13200.00
03552               2.20    13200.00
03553              -4.60    13400.00
03554               0.00    13400.00
03555               0.40    13400.00
03556              -3.80    13400.00
03557              -0.20    13400.00
03558               1.80    13600.00
03559              -0.60    13600.00
03560              -1.20    13600.00
03561               1.00    13600.00
03562              -0.40    13600.00
03563              -3.60    13600.00
03564               0.20    13600.00
03565               0.20    13600.00
03566              -0.60    13600.00
03567              -0.40    13600.00
03568              -0.60    13800.00
03569               0.40    13600.00
03570              -0.20    13600.00
03571              -0.40    13400.00
03572               0.40    13600.00
03573              -2.60    13600.00
03574              -1.00    13400.00
03575               1.40    13400.00
03576              -1.00    13600.00
03577              -1.20    13200.00
03578               1.20    13200.00
03579              -0.40    13200.00
03580              -1.80    13200.00
03581              -0.40    13000.00
03582              -0.60    13200.00
03583              -0.40    12800.00
03584               0.20    12800.00
03585              -0.60    12800.00
03586              -0.20    12600.00
03587              -1.00    12600.00
03588              -0.60    12400.00
03589               1.00    12400.00
03590              -1.00    12000.00
03591              -1.00    12000.00
03592               0.60    12000.00
03593              -1.00    12000.00
03594              -0.80    11800.00
03595              -0.40    11600.00
03596              -0.60    11400.00
03597              -0.60    11200.00
03598              -0.40    11000.00
03599              -0.20    11000.00
03600              -1.00    10800.00
03601              -0.60    10800.00
03602               0.20    10400.00
03603              -0.20    10400.00
03604              -1.00    10200.00
03605              -0.40    10000.00
03606               0.20     9800.00
03607              -0.60     9600.00
03608              -0.40     9600.00
03609              -0.40     9400.00
03610              -1.00     9000.00
03611              -0.60     8800.00
03612              -0.40     8800.00
03613              -1.20     8400.00
03614              -0.60     8400.00
03615              -0.60     8000.00
03616               0.00     8000.00
03617               0.20     7600.00
03618              -0.60     7400.00
03619              -0.80     7200.00
03620               0.20     7000.00
03621              -0.40     6800.00
03622              -0.60     6600.00
03623              -0.20     6400.00
03624              -1.00     6200.00
03625               0.20     6000.00
03626              -1.00     5600.00
03627              -1.00     5600.00
03628               0.00     5200.00
03629              -0.40     5000.00
03630              -0.60     4600.00
03631               0.40     4400.00
03632              -0.20     4200.00
03633              -0.60     4000.00
03634               0.40     3600.00
03635               0.40     3600.00
03636              -0.80     3200.00
03637              -0.60     3000.00
03638               0.40     2800.00
03639              -0.20     2400.00
03640              -1.00     2200.00
03641              -0.40     2000.00
03642               0.20     1800.00
03643              -1.00     1600.00
03644              -0.20     1200.00
03645               0.40     1000.00
03646              -0.40      800.00
03647              -0.40      400.00
03648               0.80        0.00
03649               0.20        0.00
03650               0.80     -200.00
03651               1.80     -400.00
03652              -1.00     -800.00
03653              -0.60     -800.00
03654               1.00    -1200.00
03655              -0.40    -1400.00
03656              -0.60    -1600.00
03657               1.40    -1800.00
03658               7.60    -2000.00
03659              19.80    -2200.00
03660             -10.60    -2600.00
03661             -25.00    -3200.00
03662               3.40    -3600.00
03663               5.20    -4000.00
03664             -17.80    -4000.00
03665              25.00    -3600.00
03666             -12.60    -4000.00
03667             -25.00    -4200.00
03668              25.00    -4400.00
03669              -4.40    -4800.00
03670             -25.00    -5000.00
03671              25.00    -5200.00
03672               3.40    -5600.00
03673             -25.00    -5800.00
03674              13.40    -6000.00
03675             -16.60    -6400.00
03676              19.80    -6400.00
03677             -12.40    -6800.00
03678             -12.00    -7000.00
03679              25.00    -7200.00
03680             -25.00    -7400.00
03681             -19.80    -7600.00
03682              25.00    -8000.00
03683             -25.00    -8200.00
03684             -21.80    -8200.00
03685              25.00    -8400.00
03686             -12.40    -8800.00
03687             -25.00    -8800.00
03688              23.80    -9000.00
03689               2.80    -9200.00
03690             -16.20    -9400.00
03691              10.80    -9600.00
03692               2.80    -9800.00
03693              -6.80   -10000.00
03694              -1.20   -10000.00
03695               0.60   -10400.00
03696               7.40   -10600.00
03697              -3.40   -10600.00
03698              -6.00   -10800.00
03699               9.60   -11000.00
03700              -2.20   -11200.00
03701              -9.80   -11200.00
03702               9.20   -11400.00
03703               3.60   -11400.00
03704             -10.00   -11600.00
03705               3.20   -12000.00
03706               4.60   -12000.00
03707              -6.60   -12200.00
03708               1.00   -12200.00
03709               5.20   -12400.00
03710              -2.60   -12400.00
03711              -1.20   -12600.00
03712               2.20   -12600.00
03713              -0.60   -12800.00
03714              -0.40   -12800.00
03715               0.40   -13000.00
03716               1.00   -13000.00
03717              -0.40   -13200.00
03718              -2.20   -13200.00
03719               1.60   -13200.00
03720               0.40   -13200.00
03721              -1.80   -13200.00
03722               0.80   -13400.00
03723               0.20   -13600.00
03724              -0.60   -13600.00
03725               0.20   -13600.00
03726               0.60   -13600.00
03727              -0.40   -13600.00
03728              -0.40   -13600.00
03729               0.60   -13600.00
03730              -0.60   -13600.00
03731              -0.80   -13600.00
03732               0.20   -13600.00
03733               0.20   -13600.00
03734              -0.20   -13400.00
03735              -1.20   -13600.00
03736              -0.20   -13600.00
03737               0.60   -13600.00
03738              -0.40   -13600.00
03739               0.40   -13600.00
03740              -0.20   -13600.00
03741              -0.60   -13400.00
03742               0.20   -13400.00
03743               0.20   -13200.00
03744              -0.40   -13200.00
03745              -0.60   -13200.00
03746               0.20   -13200.00
03747              -0.20   -13000.00
03748              -1.00   -13000.00
03749               0.00   -13000.00
03750              -0.20   -12800.00
03751               0.20   -12800.00
03752              -0.20   -12800.00
03753              -0.40   -12600.00
03754              -0.20   -12600.00
03755              -0.40   -12400.00
03756               0.60   -12400.00
03757               0.40   -12200.00
03758              -1.00   -12200.00
03759              -0.40   -12000.00
03760               0.20   -12000.00
03761              -0.60   -11600.00
03762              -0.20   -11600.00
03763               0.00   -11400.00
03764               0.20   -11200.00
03765              -0.40   -11000.00
03766               0.20   -10800.00
03767              -0.40   -10800.00
03768              -0.60   -10600.00
03769               0.40   -10400.00
03770               0.20   -10400.00
03771              -0.20   -10000.00
03772              -0.40   -10000.00
03773              -0.40    -9800.00
03774               0.40    -9600.00
03775              -0.40    -9400.00
03776              -0.40    -9200.00
03777               0.00    -9200.00
03778               0.00    -9000.00
03779              -0.60    -8600.00
03780              -0.40    -8600.00
03781               0.20    -8400.00
03782              -0.60    -8000.00
03783              -0.40    -8000.00
03784               0.40    -7800.00
03785              -0.40    -7400.00
03786              -1.20    -7200.00
03787               0.20    -7000.00
03788               0.20    -6800.00
03789              -0.20    -6600.00
03790              -0.20    -6400.00
03791              -0.20    -6000.00
03792               0.20    -5800.00
03793              -0.60    -5600.00
03794              -1.20    -5600.00
03795              -0.20    -5200.00
03796              -0.40    -5000.00
03797              -1.20    -4600.00
03798               0.00    -4400.00
03799               0.20    -4200.00
03800              -1.40    -4000.00
03801              -0.40    -3600.00
03802               1.00    -3400.00
03803              -0.60    -3200.00
03804              -1.00    -3000.00
03805               0.40    -2800.00
03806               0.20    -2600.00
03807              -0.60    -2000.00
03808              -0.60    -2000.00
03809              -0.20    -1600.00
03810              -0.60    -1400.00
03811              -1.00    -1200.00
03812              -0.60    -1000.00
03813              -0.60     -800.00
03814              -0.60     -400.00
03815              -0.60     -200.00
03816               0.20        0.00
03817               1.80      200.00
03818               1.00      400.00
03819              -1.40      600.00
03820               0.60     1200.00
03821              -0.20     1200.00
03822              -0.60     1400.00
03823               1.00     1600.00
03824               0.40     1800.00
03825              19.40     2000.00
03826              13.00     2400.00
03827             -25.00     2800.00
03828             -15.00     3200.00
03829              16.00     3600.00
03830             -14.00     3600.00
03831              25.00     3800.00
03832             -16.60     3800.00
03833             -25.00     4000.00
03834              25.00     4400.00
03835              -9.60     4600.00
03836             -25.00     4800.00
03837              25.00     5200.00
03838               7.40     5600.00
03839             -25.00     5600.00
03840              25.00     6000.00
03841             -17.40     6000.00
03842              12.60     6200.00
03843             -16.60     6600.00
03844             -10.80     6800.00
03845              25.00     6800.00
03846             -25.00     7200.00
03847             -16.60     7400.00
03848              25.00     7800.00
03849             -25.00     7800.00
03850              -9.80     8200.00
03851              25.00     8400.00
03852             -25.00     8600.00
03853             -18.80     8800.00
03854              19.60     8800.00
03855               4.80     9200.00
03856             -12.40     9400.00
03857              -0.40     9600.00
03858               9.80     9600.00
03859              -2.80     9800.00
03860             -13.80    10000.00
03861               4.00    10000.00
03862              16.20    10200.00
03863             -14.00    10400.00
03864              -8.20    10600.00
03865              18.00    10800.00
03866              -7.60    11000.00
03867             -15.60    11200.00
03868              17.00    11200.00
03869               4.60    11600.00
03870             -19.40    11600.00
03871               7.00    11800.00
03872               6.80    12000.00
03873             -11.00    12000.00
03874               0.40    12200.00
03875               6.00    12400.00
03876              -3.00    12400.00
03877              -5.00    12400.00
03878               2.00    12600.00
03879               1.00    12600.00
03880              -3.00    12800.00
03881              -0.20    12800.00
03882               3.00    12800.00
03883              -1.80    13000.00
03884              -5.40    13200.00
03885               3.40    13200.00
03886               1.80    13400.00
03887              -5.00    13200.00
03888               1.00    13400.00
03889               1.00    13400.00
03890              -4.00    13400.00
03891              -0.40    13400.00
03892               1.80    13600.00
03893              -1.40    13400.00
03894              -1.80    13600.00
03895               1.40    13600.00
03896               0.20    13600.00
03897              -2.80    13600.00
03898               0.60    13600.00
03899               1.20    13600.00
03900              -1.40    13600.00
03901              -1.40    13600.00
03902              -0.20    13600.00
03903              -0.40    13600.00
03904              -2.00    13600.00
03905               1.00    13600.00
03906               0.00    13400.00
03907              -2.80    13400.00
03908               0.40    13400.00
03909               1.00    13400.00
03910              -1.20    13200.00
03911              -0.80    13400.00
03912               0.80    13200.00
03913              -0.20    13200.00
03914              -1.60    13200.00
03915              -0.20    13200.00
03916              -0.20    13000.00
03917              -1.20    12800.00
03918              -0.20    12800.00
03919               0.20    12800.00
03920              -1.20    12600.00
03921              -1.20    12600.00
03922               0.40    12400.00
03923              -0.20    12400.00
03924              -1.40    12200.00
03925              -0.20    12000.00
03926               0.20    12000.00
03927              -1.20    11800.00
03928              -0.60    11600.00
03929               0.60    11600.00
03930              -1.20    11400.00
03931              -1.40    11200.00
03932               0.80    11200.00
03933              -1.20    11000.00
03934              -2.00    10800.00
03935               1.20    10600.00
03936              -0.40    10600.00
03937              -1.40    10400.00
03938               0.40    10000.00
03939              -1.40    10000.00
03940              -0.60     9800.00
03941               1.00     9600.00
03942              -1.00     9400.00
03943              -0.60     9400.00
03944               0.20     9200.00
03945              -1.00     8800.00
03946              -1.00     8600.00
03947              -0.20     8600.00
03948              -0.60     8400.00
03949              -0.60     8000.00
03950               0.40     7800.00
03951              -0.60     7600.00
03952              -1.40     7400.00
03953               0.40     7200.00
03954              -0.60     7000.00
03955              -0.60     6800.00
03956               0.40     6400.00
03957              -0.80     6400.00
03958              -1.20     6200.00
03959               1.40     6000.00
03960              -0.60     5600.00
03961              -1.20     5400.00
03962               0.40     5200.00
03963               0.20     4800.00
03964              -1.20     4600.00
03965               0.40     4400.00
03966               0.20     4400.00
03967              -1.40     4000.00
03968              -0.40     3600.00
03969               0.40     3600.00
03970              -0.60     3200.00
03971              -1.00     3000.00
03972               1.00     2600.00
03973               0.40     2400.00
03974              -1.40     2400.00
03975               0.20     2000.00
03976               0.40     1600.00
03977              -0.80     1400.00
03978               0.20     1200.00
03979               0.40     1000.00
03980              -1.00      800.00
03981              -0.60      400.00
03982               0.20      400.00
03983               0.00        0.00
03984               1.20     -200.00
03985               1.40     -400.00
03986              -1.40     -800.00
03987              -0.40     -800.00
03988               1.00    -1200.00
03989              -0.60    -1400.00
03990              -0.40    -1600.00
03991               2.20    -1800.00
03992               8.20    -2000.00
03993              19.40    -2200.00
03994             -13.80    -2800.00
03995             -25.00    -3400.00
03996               5.20    -3600.00
03997               2.20    -4000.00
03998             -15.40    -4000.00
03999              25.00    -4000.00
04000             -22.60    -4000.00
04001             -25.00    -4200.00
04002              25.00    -4400.00
04003             -17.40    -4800.00
04004             -25.00    -5000.00
04005              25.00    -5200.00
04006              -5.80    -5600.00
04007             -20.40    -5800.00
04008              13.00    -6000.00
04009             -17.40    -6400.00
04010              21.40    -6600.00
04011             -17.40    -6800.00
04012              -5.00    -6800.00
04013              25.00    -7200.00
04014             -25.00    -7400.00
04015             -10.20    -7600.00
04016              25.00    -7800.00
04017             -25.00    -8000.00
04018             -14.40    -8400.00
04019              25.00    -8400.00
04020             -18.20    -8800.00
04021             -23.80    -8800.00
04022              25.00    -9000.00
04023              -0.60    -9200.00
04024             -15.00    -9400.00
04025              12.40    -9600.00
04026               0.60    -9800.00
04027              -6.80   -10000.00
04028              -0.60   -10200.00
04029               1.20   -10200.00
04030               7.00   -10400.00
04031              -4.40   -10600.00
04032              -4.80   -10800.00
04033               9.80   -10800.00
04034              -3.60   -11200.00
04035              -8.40   -11200.00
04036              10.00   -11400.00
04037               2.00   -11400.00
04038             -10.00   -11600.00
04039               4.40   -11800.00
04040               3.80   -12000.00
04041              -6.80   -12000.00
04042               1.40   -12200.00
04043               5.00   -12200.00
04044              -3.00   -12400.00
04045              -1.00   -12400.00
04046               2.00   -12400.00
04047              -0.60   -12800.00
04048              -0.60   -12800.00
04049               0.40   -12800.00
04050               1.40   -12800.00
04051              -1.00   -13000.00
04052              -1.80   -13000.00
04053               2.00   -13200.00
04054               0.20   -13200.00
04055              -1.80   -13200.00
04056               1.00   -13200.00
04057              -0.20   -13600.00
04058              -0.60   -13600.00
04059               0.00   -13600.00
04060               0.20   -13600.00
04061              -0.60   -13600.00
04062              -0.60   -13600.00
04063               0.40   -13600.00
04064              -0.20   -13600.00
04065              -0.60   -13600.00
04066               0.40   -13600.00
04067               0.60   -13600.00
04068              -0.20   -13600.00
04069              -1.20   -13600.00
04070               0.40   -13600.00
04071               0.40   -13600.00
04072              -1.00   -13600.00
04073               0.40   -13600.00
04074              -0.60   -13400.00
04075              -1.40   -13400.00
04076               0.20   -13400.00
04077               0.20   -13400.00
04078              -0.40   -13200.00
04079              -0.40   -13200.00
04080               0.60   -13200.00
04081              -0.20   -13000.00
04082              -0.60   -13000.00
04083               0.40   -13000.00
04084               0.20   -13000.00
04085               0.20   -12800.00
04086              -0.20   -12800.00
04087              -0.60   -12600.00
04088              -0.40   -12400.00
04089              -0.20   -12400.00
04090               0.20   -12200.00
04091               0.20   -12200.00
04092              -0.60   -12000.00
04093              -0.60   -12000.00
04094               1.00   -12000.00
04095              -0.40   -11600.00
04096              -1.00   -11600.00
04097               1.00   -11400.00
04098               0.40   -11200.00
04099              -1.40   -11000.00
04100               0.60   -10800.00
04101               1.00   -10800.00
04102              -2.60   -10600.00
04103               0.40   -10400.00
04104               1.80   -10200.00
04105              -2.00   -10000.00
04106              -0.40   -10000.00
04107               1.00    -9800.00
04108              -1.20    -9600.00
04109               0.20    -9400.00
04110               0.60    -9200.00
04111              -0.60    -9200.00
04112               0.40    -9000.00
04113               0.20    -8800.00
04114              -1.40    -8600.00
04115               0.20    -8400.00
04116               0.20    -8000.00
04117              -1.40    -8000.00
04118               0.00    -7600.00
04119               0.40    -7400.00
04120              -1.80    -7200.00
04121              -0.60    -6800.00
04122               1.20    -6800.00
04123              -0.40    -6600.00
04124              -1.20    -6400.00
04125               0.40    -6000.00
04126               0.20    -6000.00
04127              -1.20    -5600.00
04128              -0.40    -5600.00
04129              -0.40    -5200.00
04130              -0.60    -5000.00
04131              -0.60    -4800.00
04132              -0.60    -4400.00
04133              -0.20    -4200.00
04134              -0.60    -4000.00
04135              -0.80    -3800.00
04136              -0.20    -3600.00
04137               0.20    -3400.00
04138              -0.60    -3000.00
04139              -0.60    -2800.00
04140              -0.20    -2400.00
04141              -0.20    -2200.00
04142              -0.60    -2000.00
04143              -0.40    -1800.00
04144              -0.20    -1600.00
04145              -0.20    -1200.00
04146              -0.60    -1000.00
04147              -0.40     -800.00
04148              -0.60     -400.00
04149              -0.40     -200.00
04150               0.00        0.00
04151               1.20      200.00
04152               1.00      600.00
04153              -1.40      800.00
04154              -0.20     1200.00
04155               0.40     1200.00
04156              -0.40     1400.00
04157              -0.40     1600.00
04158               2.80     2000.00
04159              21.40     2000.00
04160               6.20     2400.00
04161             -25.00     3000.00
04162              -9.40     3200.00
04163              10.80     3600.00
04164              -8.20     3600.00
04165              25.00     3800.00
04166             -25.00     4000.00
04167             -25.00     4000.00
04168              25.00     4400.00
04169             -25.00     4800.00
04170             -25.00     4800.00
04171              25.00     5200.00
04172             -10.60     5400.00
04173             -25.00     5600.00
04174              25.00     6000.00
04175             -22.00     6000.00
04176              18.60     6400.00
04177             -24.40     6600.00
04178              -2.80     6800.00
04179              25.00     7000.00
04180             -25.00     7200.00
04181              -3.00     7400.00
04182              25.00     7600.00
04183             -25.00     7800.00
04184               0.80     8200.00
04185              25.00     8400.00
04186             -25.00     8600.00
04187             -14.60     8800.00
04188              20.80     8800.00
04189               2.20     9200.00
04190             -12.40     9200.00
04191               2.20     9600.00
04192               9.20     9600.00
04193              -4.40     9600.00
04194             -13.40    10000.00
04195               5.40    10200.00
04196              14.60    10400.00
04197             -15.40    10600.00
04198              -5.40    10800.00
04199              17.40    10800.00
04200             -10.20    11000.00
04201             -13.40    11200.00
04202              18.40    11200.00
04203               1.80    11600.00
04204             -17.80    11600.00
04205               9.00    11800.00
04206               4.40    12000.00
04207             -11.00    12000.00
04208               1.80    12200.00
04209               5.20    12200.00
04210              -3.40    12400.00
04211              -4.40    12600.00
04212               2.60    12600.00
04213               0.40    12600.00
04214              -3.40    12800.00
04215               0.60    12800.00
04216               2.60    13000.00
04217              -2.60    13200.00
04218              -4.20    13200.00
04219               3.40    13200.00
04220               0.60    13200.00
04221              -3.80    13200.00
04222               1.80    13400.00
04223              -0.20    13600.00
04224              -3.00    13400.00
04225               0.40    13600.00
04226               1.20    13400.00
04227              -1.80    13600.00
04228              -1.80    13600.00
04229               1.40    13600.00
04230              -0.60    13600.00
04231              -2.40    13600.00
04232               1.00    13600.00
04233               1.00    13600.00
04234              -1.00    13600.00
04235              -1.20    13600.00
04236              -0.40    13600.00
04237              -0.40    13600.00
04238              -1.20    13600.00
04239               1.00    13400.00
04240              -0.60    13600.00
04241              -2.20    13600.00
04242               1.00    13400.00
04243              -0.40    13400.00
04244              -1.20    13400.00
04245              -0.60    13200.00
04246               0.20    13200.00
04247              -0.60    13200.00
04248              -1.20    13200.00
04249              -0.40    13200.00
04250              -0.80    13000.00
04251              -0.40    12800.00
04252              -0.40    12800.00
04253              -0.60    12600.00
04254              -0.80    12400.00
04255              -1.20    12600.00
04256               0.20    12400.00
04257               0.20    12400.00
04258              -1.40    12400.00
04259              -0.40    12000.00
04260              -0.60    12000.00
04261              -1.00    11800.00
04262              -0.60    11600.00
04263              -0.20    11600.00
04264              -0.60    11200.00
04265              -0.60    11200.00
04266              -0.20    11000.00
04267              -0.40    11000.00
04268              -1.20    10800.00
04269              -0.40    10800.00
04270               0.00    10400.00
04271              -1.00    10200.00
04272              -1.00    10200.00
04273              -1.00    10000.00
04274              -0.40     9800.00
04275              -0.60     9600.00
04276              -0.60     9400.00
04277              -0.40     9200.00
04278              -0.60     9000.00
04279               0.20     9000.00
04280              -0.20     8600.00
04281              -0.60     8400.00
04282              -0.40     8400.00
04283              -0.40     8000.00
04284              -0.20     7800.00
04285              -0.40     7600.00
04286              -1.00     7400.00
04287              -0.40     7200.00
04288              -0.40     7000.00
04289              -0.40     6800.00
04290              -0.60     6800.00
04291              -0.60     6400.00
04292              -0.20     6000.00
04293               0.20     6000.00
04294              -0.40     5600.00
04295               0.20     5400.00
04296              -0.20     5200.00
04297               0.20     4800.00
04298               0.00     4600.00
04299              -0.20     4400.00
04300              -0.60     4200.00
04301              -0.60     3800.00
04302              -0.40     3800.00
04303              -0.20     3600.00
04304              -0.40     3200.00
04305              -0.60     3000.00
04306               0.20     2800.00
04307               0.00     2400.00
04308              -0.20     2200.00
04309              -0.40     2000.00
04310               0.20     1800.00
04311              -0.20     1600.00
04312              -0.40     1200.00
04313              -0.40      800.00
04314              -0.60      800.00
04315              -0.60      400.00
04316              -0.40      200.00
04317              -0.40     -200.00
04318               1.00     -200.00
04319               1.00     -600.00
04320              -1.40     -800.00
04321              -0.20    -1000.00
04322               1.00    -1200.00
04323              -0.60    -1400.00
04324              -0.40    -1600.00
04325               2.40    -1800.00
04326               9.20    -2000.00
04327              19.00    -2400.00
04328             -17.20    -2800.00
04329             -25.00    -3200.00
04330               8.20    -3800.00
04331              -1.40    -4000.00
04332             -11.00    -4000.00
04333              25.00    -4000.00
04334             -25.00    -4000.00
04335             -25.00    -4200.00
04336              25.00    -4400.00
04337             -25.00    -4800.00
04338             -25.00    -5200.00
04339              25.00    -5200.00
04340             -14.20    -5800.00
04341             -15.60    -5800.00
04342              11.80    -6000.00
04343             -16.60    -6400.00
04344              23.00    -6600.00
04345             -22.00    -6800.00
04346               2.00    -7000.00
04347              25.00    -7200.00
04348             -25.00    -7400.00
04349              -1.20    -7600.00
04350              25.00    -7800.00
04351             -25.00    -8000.00
04352              -6.80    -8400.00
04353              25.00    -8400.00
04354             -23.00    -8800.00
04355             -19.00    -9000.00
04356              25.00    -9000.00
04357              -3.80    -9200.00
04358             -12.40    -9600.00
04359              13.20    -9600.00
04360              -0.60    -9800.00
04361              -5.80   -10000.00
04362              -1.00   -10000.00
04363               1.40   -10400.00
04364               7.00   -10400.00
04365              -6.00   -10600.00
04366              -3.80   -10800.00
04367              10.00   -10800.00
04368              -5.00   -11200.00
04369              -7.60   -11200.00
04370              11.40   -11400.00
04371               1.00   -11600.00
04372              -9.00   -11600.00
04373               5.40   -11800.00
04374               3.00   -12000.00
04375              -6.80   -12200.00
04376               2.20   -12200.00
04377               4.20   -12400.00
04378              -3.80   -12400.00
04379              -1.00   -12600.00
04380               1.60   -12800.00
04381              -1.20   -12600.00
04382              -0.60   -12800.00
04383               0.40   -12800.00
04384               1.00   -13000.00
04385              -1.00   -13000.00
04386              -1.80   -13000.00
04387               2.20   -13200.00
04388               0.20   -13200.00
04389              -1.40   -13400.00
04390               1.00   -13200.00
04391              -0.40   -13200.00
04392              -0.60   -13600.00
04393              -0.40   -13400.00
04394               0.20   -13600.00
04395              -1.00   -13600.00
04396              -0.60   -13600.00
04397               0.40   -13600.00
04398              -0.40   -13600.00
04399              -0.60   -13600.00
04400               0.40   -13600.00
04401               0.40   -13600.00
04402               0.40   -13600.00
04403              -0.60   -13600.00
04404               0.20   -13600.00
04405               0.80   -13600.00
04406              -0.40   -13400.00
04407               0.20   -13600.00
04408              -0.40   -13600.00
04409              -1.00   -13600.00
04410               0.20   -13600.00
04411               0.20   -13400.00
04412              -0.60   -13200.00
04413              -0.20   -13200.00
04414               0.40   -13200.00
04415               0.20   -13200.00
04416              -0.40   -13000.00
04417               0.20   -12800.00
04418               0.20   -12800.00
04419               0.60   -12800.00
04420              -0.20   -12800.00
04421              -0.40   -12800.00
04422              -0.40   -12400.00
04423               0.20   -12400.00
04424               0.20   -12400.00
04425               0.20   -12200.00
04426              -0.40   -12000.00
04427              -0.60   -12000.00
04428               0.20   -11600.00
04429              -0.20   -11600.00
04430              -0.20   -11600.00
04431               0.20   -11400.00
04432               0.20   -11200.00
04433              -0.20   -11000.00
04434               0.20   -10800.00
04435              -0.40   -10800.00
04436              -0.60   -10600.00
04437               0.40   -10400.00
04438               0.40   -10400.00
04439              -1.00   -10000.00
04440              -0.40   -10000.00
04441              -0.20    -9800.00
04442              -0.40    -9600.00
04443              -0.20    -9400.00
04444              -0.20    -9200.00
04445              -0.60    -9000.00
04446              -0.40    -8800.00
04447              -0.20    -8800.00
04448              -0.60    -8600.00
04449              -0.40    -8200.00
04450               0.20    -8000.00
04451               0.00    -7800.00
04452              -0.40    -7600.00
04453              -0.60    -7400.00
04454              -0.40    -7200.00
04455              -0.40    -6800.00
04456              -0.40    -6600.00
04457              -0.40    -6600.00
04458              -0.60    -6200.00
04459              -0.60    -6000.00
04460              -0.20    -5800.00
04461              -0.40    -5600.00
04462              -0.60    -5400.00
04463              -0.40    -5200.00
04464              -0.20    -4800.00
04465              -0.20    -4600.00
04466              -0.40    -4400.00
04467              -0.40    -4200.00
04468              -0.60    -4000.00
04469              -0.40    -3600.00
04470              -0.20    -3400.00
04471              -0.60    -3200.00
04472              -0.60    -2800.00
04473              -0.60    -2600.00
04474              -0.60    -2400.00
04475              -0.60    -2200.00
04476              -0.40    -2000.00
04477              -0.40    -1600.00
04478              -0.40    -1600.00
04479               0.20    -1200.00
04480              -0.20    -1000.00
04481              -0.40     -800.00
04482              -0.20     -400.00
04483               0.20     -200.00
04484              -0.20        0.00
04485               1.40      400.00
04486               1.00      600.00
04487              -2.00      600.00
04488              -0.20      800.00
04489               0.60     1200.00
04490              -0.60     1400.00
04491              -0.60     1600.00
04492               3.60     1800.00
04493              23.20     2200.00
04494               1.20     2600.00
04495             -25.00     3000.00
04496              -5.00     3400.00
04497               8.40     3600.00
04498              -4.20     3800.00
04499              25.00     3600.00
04500             -25.00     3800.00
04501             -25.00     4000.00
04502              25.00     4400.00
04503             -25.00     4800.00
04504             -25.00     4800.00
04505              25.00     5400.00
04506             -25.00     5600.00
04507             -25.00     5600.00
04508              25.00     6000.00
04509             -23.20     6000.00
04510              21.20     6400.00
04511             -25.00     6400.00
04512               6.60     6800.00
04513              25.00     7200.00
04514             -25.00     7200.00
04515              11.40     7400.00
04516              25.00     7600.00
04517             -25.00     8000.00
04518              11.20     8200.00
04519              25.00     8400.00
04520             -25.00     8600.00
04521             -10.60     8800.00
04522              20.60     9000.00
04523               1.00     9200.00
04524             -12.60     9400.00
04525               3.40     9400.00
04526               9.40     9600.00
04527              -6.00    10000.00
04528             -13.40    10000.00
04529               8.40    10000.00
04530              13.20    10400.00
04531             -17.40    10400.00
04532              -2.40    10800.00
04533              17.00    10800.00
04534             -13.00    11000.00
04535             -10.80    11200.00
04536              19.60    11400.00
04537              -1.60    11600.00
04538             -16.40    11600.00
04539              10.80    11800.00
04540               2.40    11800.00
04541             -10.20    12000.00
04542               3.40    12200.00
04543               5.00    12400.00
04544              -3.80    12400.00
04545              -3.60    12400.00
04546               3.00    12600.00
04547              -0.20    12600.00
04548              -3.40    12800.00
04549               1.20    12800.00
04550               2.20    13000.00
04551              -3.60    13200.00
04552              -3.80    13200.00
04553               3.80    13200.00
04554              -0.20    13200.00
04555              -3.60    13200.00
04556               2.20    13400.00
04557              -0.20    13400.00
04558              -3.20    13400.00
04559               1.20    13600.00
04560               1.20    13600.00
04561              -1.80    13600.00
04562              -1.00    13600.00
04563               1.00    13600.00
04564              -1.00    13800.00
04565              -2.60    13600.00
04566               1.00    13600.00
04567               0.60    13600.00
04568              -1.40    13600.00
04569              -1.20    13600.00
04570               0.20    13600.00
04571              -0.20    13600.00
04572              -1.20    13600.00
04573               1.20    13400.00
04574              -0.20    13600.00
04575              -2.80    13400.00
04576               0.40    13400.00
04577               0.60    13600.00
04578              -1.80    13400.00
04579              -1.40    13400.00
04580               0.60    13400.00
04581              -0.60    13200.00
04582              -2.20    13200.00
04583               0.20    13000.00
04584              -0.40    12800.00
04585              -1.20    12800.00
04586              -0.20    12800.00
04587               0.00    12800.00
04588              -1.00    12600.00
04589              -1.20    12400.00
04590               0.20    12400.00
04591               0.20    12400.00
04592              -2.00    12000.00
04593              -0.60    12000.00
04594              -0.40    11800.00
04595              -0.80    12000.00
04596              -0.80    11800.00
04597              -0.60    11600.00
04598              -0.40    11200.00
04599              -0.60    11200.00
04600              -0.40    11000.00
04601              -0.20    10800.00
04602              -0.60    10800.00
04603              -0.40    10800.00
04604               0.20    10400.00
04605              -0.20    10200.00
04606              -1.00    10200.00
04607              -0.80    10000.00
04608              -0.20     9800.00
04609              -0.60     9600.00
04610              -0.80     9400.00
04611              -0.40     9200.00
04612              -0.60     9200.00
04613              -0.20     8800.00
04614              -0.20     8600.00
04615              -0.40     8400.00
04616              -0.40     8400.00
04617              -0.40     8200.00
04618               0.20     7800.00
04619              -0.40     7600.00
04620              -1.00     7400.00
04621              -0.20     7200.00
04622              -0.40     7000.00
04623              -0.60     6800.00
04624              -0.40     6600.00
04625              -0.40     6400.00
04626              -0.80     6000.00
04627               0.20     6000.00
04628              -0.20     5800.00
04629              -0.60     5400.00
04630              -0.40     5200.00
04631               0.40     4800.00
04632              -0.20     4600.00
04633              -0.60     4400.00
04634              -0.40     4000.00
04635              -0.60     4000.00
04636              -0.20     3800.00
04637              -0.20     3400.00
04638              -0.60     3200.00
04639              -1.00     3000.00
04640              -0.40     2800.00
04641               0.20     2400.00
04642              -0.60     2200.00
04643              -0.60     2000.00
04644               0.20     1600.00
04645              -0.40     1600.00
04646              -0.60     1200.00
04647               0.20     1000.00
04648              -0.60      600.00
04649              -0.60      400.00
04650               0.40        0.00
04651               0.40        0.00
04652               1.40     -400.00
04653               1.00     -600.00
04654              -1.20     -800.00
04655               0.20    -1000.00
04656               0.40    -1200.00
04657              -1.00    -1400.00
04658              -0.40    -1600.00
04659               2.00    -1800.00
04660              10.00    -2000.00
04661              18.40    -2400.00
04662             -20.80    -2800.00
04663             -25.00    -3200.00
04664              10.80    -3600.00
04665              -4.40    -4000.00
04666              -6.20    -4000.00
04667              25.00    -3600.00
04668             -25.00    -4000.00
04669             -25.00    -4400.00
04670              25.00    -4400.00
04671             -25.00    -4800.00
04672             -25.00    -5200.00
04673              25.00    -5400.00
04674             -21.40    -5600.00
04675             -10.20    -5800.00
04676               9.40    -6000.00
04677             -15.00    -6200.00
04678              23.80    -6600.00
04679             -25.00    -6800.00
04680               9.40    -7000.00
04681              25.00    -7200.00
04682             -25.00    -7400.00
04683               8.20    -7600.00
04684              25.00    -8000.00
04685             -25.00    -8000.00
04686              -0.20    -8400.00
04687              25.00    -8400.00
04688             -25.00    -8800.00
04689             -15.00    -9000.00
04690              25.00    -9000.00
04691              -6.20    -9200.00
04692             -10.60    -9600.00
04693              13.40    -9600.00
04694              -1.80    -9800.00
04695              -5.20    -9800.00
04696              -1.00   -10000.00
04697               2.60   -10200.00
04698               6.80   -10400.00
04699              -7.00   -10600.00
04700              -2.40   -10800.00
04701               9.40   -10800.00
04702              -7.00   -11200.00
04703              -6.00   -11200.00
04704              11.20   -11400.00
04705              -1.40   -11600.00
04706              -8.40   -11800.00
04707               6.20   -11800.00
04708               1.80   -12000.00
04709              -6.20   -12000.00
04710               3.00   -12200.00
04711               3.60   -12400.00
04712              -3.60   -12400.00
04713              -0.40   -12400.00
04714               1.80   -12600.00
04715              -1.20   -12800.00
04716              -0.60   -12800.00
04717               0.40   -12800.00
04718               1.00   -13000.00
04719              -1.40   -13000.00
04720              -1.40   -13000.00
04721               2.20   -13200.00
04722              -0.40   -13200.00
04723              -1.40   -13200.00
04724               1.00   -13200.00
04725              -0.20   -13400.00
04726              -0.60   -13600.00
04727              -0.20   -13400.00
04728               0.60   -13400.00
04729              -0.60   -13600.00
04730              -0.60   -13600.00
04731               0.60   -13600.00
04732              -0.60   -13600.00
04733              -0.60   -13600.00
04734               0.60   -13600.00
04735               0.60   -13600.00
04736              -0.60   -13600.00
04737              -1.00   -13600.00
04738               0.40   -13600.00
04739               0.40   -13600.00
04740              -0.60   -13600.00
04741               1.00   -13600.00
04742              -0.60   -13400.00
04743              -1.40   -13200.00
04744               1.00   -13200.00
04745               0.60   -13400.00
04746              -1.20   -13000.00
04747               0.20   -13200.00
04748               1.20   -13000.00
04749              -1.20   -13000.00
04750              -0.60   -13000.00
04751               0.80   -12800.00
04752              -0.60   -12800.00
04753               0.20   -12800.00
04754               0.40   -12600.00
04755              -0.20   -12600.00
04756              -0.60   -12400.00
04757               0.20   -12400.00
04758               1.40   -12200.00
04759              -0.20   -12000.00
04760              -0.60   -12000.00
04761               0.40   -12000.00
04762              -0.20   -11600.00
04763              -0.60   -11600.00
04764              -0.20   -11400.00
04765               0.20   -11400.00
04766              -0.40   -11200.00
04767              -0.40   -11000.00
04768              -0.20   -10800.00
04769              -0.60   -10800.00
04770              -0.40   -10600.00
04771               0.40   -10400.00
04772               0.20   -10200.00
04773              -0.20   -10000.00
04774              -0.60   -10000.00
04775              -0.40    -9800.00
04776              -0.20    -9600.00
04777              -0.40    -9600.00
04778              -0.40    -9200.00
04779              -0.60    -9000.00
04780              -1.00    -8800.00
04781              -0.60    -8800.00
04782              -0.40    -8400.00
04783              -0.60    -8400.00
04784              -0.20    -8000.00
04785               0.20    -8000.00
04786              -0.20    -7400.00
04787              -0.60    -7400.00
04788              -0.40    -7200.00
04789               0.00    -6800.00
04790              -0.40    -6600.00
04791              -0.20    -6600.00
04792              -0.80    -6200.00
04793              -0.80    -6000.00
04794              -0.60    -5800.00
04795              -0.60    -5600.00
04796              -0.40    -5200.00
04797              -0.40    -5000.00
04798              -0.20    -4800.00
04799              -0.20    -4600.00
04800              -0.40    -4400.00
04801              -0.60    -4000.00
04802              -0.40    -4000.00
04803              -0.40    -3600.00
04804              -0.20    -3400.00
04805              -0.40    -3200.00
04806              -0.60    -2800.00
04807              -0.60    -2800.00
04808               0.00    -2400.00
04809              -0.40    -2000.00
04810              -1.00    -2000.00
04811              -0.20    -1800.00
04812              -0.20    -1400.00
04813              -1.00    -1200.00
04814               0.20     -800.00
04815              -0.20     -600.00
04816              -0.60     -400.00
04817               0.20     -200.00
04818               0.20        0.00
04819               1.20      400.00
04820               0.60      400.00
04821              -1.20      800.00
04822              -0.20     1000.00
04823               0.60     1200.00
04824              -0.60     1400.00
04825              -0.20     1800.00
04826               4.20     1800.00
04827              24.20     2200.00
04828              -3.00     2600.00
04829             -25.00     3200.00
04830              -1.40     3400.00
04831               5.40     3600.00
04832               0.60     3600.00
04833              25.00     3800.00
04834             -25.00     4000.00
04835             -21.80     4000.00
04836              25.00     4400.00
04837             -25.00     4600.00
04838             -25.00     4800.00
04839              25.00     5200.00
04840             -25.00     5400.00
04841             -25.00     5600.00
04842              25.00     6000.00
04843             -23.80     6200.00
04844              22.80     6400.00
04845             -25.00     6600.00
04846              16.20     6800.00
04847              25.00     7000.00
04848             -25.00     7200.00
04849              24.80     7600.00
04850              25.00     7800.00
04851             -25.00     8000.00
04852              21.20     8200.00
04853              25.00     8400.00
04854             -25.00     8600.00
04855              -6.60     8800.00
04856              20.40     8800.00
04857              -1.20     9200.00
04858             -12.40     9200.00
04859               4.60     9600.00
04860               8.40     9800.00
04861              -7.00    10000.00
04862             -13.00    10000.00
04863              10.80    10200.00
04864              11.60    10400.00
04865             -18.20    10400.00
04866               1.00    10800.00
04867              16.20    10800.00
04868             -14.80    11000.00
04869              -8.60    11200.00
04870              19.60    11200.00
04871              -4.40    11600.00
04872             -15.40    11600.00
04873              11.80    11800.00
04874               0.80    12000.00
04875             -10.20    12000.00
04876               3.80    12200.00
04877               5.00    12400.00
04878              -4.20    12400.00
04879              -3.60    12600.00
04880               4.20    12600.00
04881              -0.60    12600.00
04882              -3.60    12800.00
04883               2.00    12800.00
04884               2.20    13000.00
04885              -4.40    13000.00
04886              -2.80    13200.00
04887               3.80    13200.00
04888              -1.20    13200.00
04889              -3.40    13200.00
04890               2.60    13400.00
04891              -0.60    13400.00
04892              -2.80    13400.00
04893               1.20    13400.00
04894               1.00    13600.00
04895              -1.40    13600.00
04896              -1.20    13600.00
04897               1.80    13600.00
04898              -1.20    13600.00
04899              -2.80    13800.00
04900               1.20    13600.00
04901              -0.20    13600.00
04902              -1.60    13600.00
04903              -1.20    13600.00
04904              -0.20    13600.00
04905              -0.60    13600.00
04906              -1.20    13600.00
04907               1.00    13600.00
04908              -1.00    13600.00
04909              -2.20    13600.00
04910               0.60    13400.00
04911              -0.60    13400.00
04912              -1.60    13400.00
04913               0.20    13200.00
04914              -0.80    13400.00
04915              -1.00    13200.00
04916              -0.60    13200.00
04917              -1.00    13000.00
04918              -1.20    13000.00
04919               1.00    12800.00
04920              -1.20    12800.00
04921              -1.20    12800.00
04922               1.00    12600.00
04923              -2.20    12600.00
04924              -0.20    12400.00
04925               1.40    12400.00
04926              -2.20    12200.00
04927              -0.60    12000.00
04928               1.40    12000.00
04929              -2.20    11800.00
04930              -0.40    11800.00
04931               0.40    11600.00
04932              -1.40    11600.00
04933              -0.80    11200.00
04934               0.60    11000.00
04935              -1.20    11000.00
04936              -1.20    10800.00
04937               1.00    10600.00
04938              -0.60    10400.00
04939              -1.00    10200.00
04940               0.20    10000.00
04941              -1.00    10000.00
04942              -0.20     9800.00
04943               0.60     9600.00
04944              -1.00     9400.00
04945              -0.60     9400.00
04946               0.20     9200.00
04947              -0.40     8800.00
04948              -0.20     8600.00
04949              -0.40     8400.00
04950              -1.20     8400.00
04951              -0.20     8000.00
04952              -0.20     7800.00
04953              -1.20     7600.00
04954               0.40     7600.00
04955              -0.20     7200.00
04956              -1.00     7000.00
04957               0.40     6800.00
04958              -0.20     6400.00
04959              -1.40     6400.00
04960               0.40     6000.00
04961               0.40     6000.00
04962              -1.80     5600.00
04963              -0.40     5400.00
04964              -0.40     5200.00
04965              -0.40     4800.00
04966              -0.40     4600.00
04967              -0.60     4400.00
04968              -0.60     4000.00
04969              -0.60     3800.00
04970              -0.20     3800.00
04971               0.40     3400.00
04972              -0.60     3000.00
04973              -1.00     3000.00
04974               0.40     2800.00
04975              -0.40     2400.00
04976              -1.00     2200.00
04977              -0.40     2000.00
04978              -0.20     1600.00
04979              -1.00     1400.00
04980              -0.60     1200.00
04981              -0.40      800.00
04982              -1.00      600.00
04983              -0.40      400.00
04984               0.20      200.00
04985               0.20     -200.00
04986               1.40     -400.00
04987               0.60     -600.00
04988              -1.20     -800.00
04989              -0.20    -1000.00
04990               1.00    -1200.00
04991              -1.00    -1600.00
04992              -0.60    -1600.00
04993               2.60    -1800.00
04994              11.60    -2000.00
04995              16.60    -2400.00
04996             -23.60    -2800.00
04997             -24.40    -3400.00
04998              12.20    -3600.00
04999              -7.60    -4000.00
05000              -0.40    -4000.00
