Unit:(mV)
                     CH1         CH2
Frequency              ? 299.477 kHz
00001             -12.00    -6000.00
00002               5.80    -6200.00
00003               3.40    -6600.00
00004             -21.20    -6600.00
00005              25.00    -6800.00
00006             -23.60    -7200.00
00007             -25.00    -7200.00
00008              25.00    -7600.00
00009             -19.00    -8000.00
00010             -25.00    -8000.00
00011              25.00    -8200.00
00012              -6.00    -8400.00
00013             -25.00    -8800.00
00014              23.00    -8800.00
00015               4.60    -9000.00
00016             -16.60    -9200.00
00017              10.20    -9400.00
00018               3.60    -9600.00
00019              -8.40    -9600.00
00020              -1.00    -9800.00
00021               0.60   -10000.00
00022               4.80   -10200.00
00023              -2.00   -10400.00
00024              -5.20   -10600.00
00025               5.80   -10600.00
00026              -0.60   -10800.00
00027              -7.20   -11000.00
00028               4.40   -11200.00
00029               5.20   -11200.00
00030              -7.40   -11200.00
00031              -1.00   -11600.00
00032               5.20   -11600.00
00033              -5.20   -11800.00
00034              -2.20   -12000.00
00035               4.20   -12000.00
00036              -1.80   -12200.00
00037              -2.60   -12200.00
00038               1.40   -12200.00
00039              -0.60   -12400.00
00040              -0.80   -12400.00
00041               0.20   -12800.00
00042               0.60   -12600.00
00043              -0.40   -12800.00
00044              -2.60   -12800.00
00045               0.60   -13000.00
00046               0.40   -13000.00
00047              -2.20   -13000.00
00048              -0.40   -13200.00
00049              -0.40   -13200.00
00050              -0.80   -13000.00
00051              -0.40   -13000.00
00052              -0.20   -13200.00
00053              -0.20   -13200.00
00054              -0.60   -13200.00
00055               0.20   -13200.00
00056               0.20   -13200.00
00057              -1.40   -13200.00
00058              -0.20   -13200.00
00059               0.40   -13400.00
00060              -0.60   -13200.00
00061              -1.00   -13400.00
00062              -1.00   -13200.00
00063               0.20   -13400.00
00064              -0.40   -13200.00
00065              -0.40   -13200.00
00066              -0.60   -13200.00
00067              -1.20   -13200.00
00068              -0.40   -13200.00
00069               0.20   -13000.00
00070              -0.40   -13000.00
00071              -1.00   -13000.00
00072              -0.20   -13000.00
00073               0.00   -13000.00
00074              -1.20   -12800.00
00075              -0.40   -12800.00
00076              -0.20   -12600.00
00077               0.00   -12600.00
00078              -0.20   -12400.00
00079              -0.60   -12200.00
00080              -0.60   -12200.00
00081              -0.60   -12200.00
00082              -0.60   -12000.00
00083              -0.20   -12000.00
00084              -1.20   -11800.00
00085              -0.80   -11600.00
00086              -0.20   -11600.00
00087              -1.00   -11400.00
00088              -0.20   -11400.00
00089              -0.40   -11000.00
00090              -0.60   -11000.00
00091              -0.60   -10800.00
00092               0.00   -10600.00
00093              -1.00   -10600.00
00094              -1.20   -10400.00
00095               0.20   -10200.00
00096              -0.40   -10000.00
00097              -1.00    -9800.00
00098              -1.00    -9600.00
00099              -1.00    -9800.00
00100              -0.60    -9200.00
00101              -0.20    -9200.00
00102              -1.20    -9000.00
00103              -0.20    -8800.00
00104              -0.20    -8800.00
00105              -1.60    -8600.00
00106              -0.40    -8200.00
00107               0.60    -8200.00
00108              -2.20    -8000.00
00109              -0.60    -7800.00
00110               1.80    -7600.00
00111              -2.40    -7200.00
00112              -2.60    -7200.00
00113               2.00    -6800.00
00114              -1.20    -6800.00
00115              -2.80    -6400.00
00116               1.80    -6200.00
00117              -0.40    -6000.00
00118              -2.20    -5800.00
00119               0.80    -5600.00
00120               0.40    -5200.00
00121              -1.20    -5000.00
00122              -1.00    -4600.00
00123               0.40    -4600.00
00124              -0.40    -4400.00
00125              -1.80    -4200.00
00126              -0.20    -4000.00
00127              -0.20    -3600.00
00128              -1.40    -3400.00
00129              -0.40    -3200.00
00130              -0.20    -3000.00
00131              -1.00    -2600.00
00132               0.40    -2400.00
00133               0.40    -2000.00
00134              -1.40    -2000.00
00135              -0.20    -1800.00
00136               0.20    -1600.00
00137              -1.20    -1200.00
00138               0.20    -1000.00
00139               0.60     -800.00
00140              -2.00     -400.00
00141              -1.20     -200.00
00142               1.00        0.00
00143               0.60      200.00
00144               1.00      600.00
00145               0.20      800.00
00146              -0.40     1000.00
00147              -0.20     1200.00
00148               0.40     1400.00
00149               0.20     1800.00
00150               1.40     1800.00
00151              15.80     2000.00
00152              18.20     2400.00
00153             -25.00     2800.00
00154             -23.80     3200.00
00155              13.40     3600.00
00156             -11.00     3600.00
00157              25.00     3600.00
00158              -1.80     3800.00
00159             -25.00     4000.00
00160              25.00     4000.00
00161              21.00     4600.00
00162             -25.00     4800.00
00163              25.00     5200.00
00164              25.00     5400.00
00165             -25.00     5400.00
00166              25.00     5600.00
00167              -8.40     6000.00
00168              -3.40     6200.00
00169               1.20     6400.00
00170             -24.60     6800.00
00171              25.00     6800.00
00172             -25.00     7200.00
00173             -25.00     7400.00
00174              25.00     7600.00
00175             -25.00     7800.00
00176             -25.00     8000.00
00177              25.00     8400.00
00178             -25.00     8200.00
00179             -22.80     8600.00
00180              21.80     8800.00
00181               1.80     9000.00
00182              -7.40     9200.00
00183              -1.40     9200.00
00184               8.20     9600.00
00185               1.00     9600.00
00186             -13.40     9600.00
00187               2.60    10000.00
00188              15.00    10200.00
00189             -10.00    10200.00
00190              -6.60    10400.00
00191              13.00    10600.00
00192              -3.80    10800.00
00193             -11.80    11000.00
00194               9.40    11200.00
00195               9.20    11200.00
00196             -14.60    11400.00
00197               1.60    11600.00
00198               9.80    11600.00
00199              -8.40    11800.00
00200              -1.40    12000.00
00201               6.60    12000.00
00202              -0.40    12200.00
00203              -4.60    12400.00
00204               1.00    12400.00
00205               2.80    12400.00
00206              -2.80    12600.00
00207              -0.60    12600.00
00208               3.60    12800.00
00209              -1.00    12800.00
00210              -4.20    12800.00
00211               2.80    13000.00
00212               2.60    13000.00
00213              -3.00    13000.00
00214               1.40    13200.00
00215               0.80    13200.00
00216              -2.20    13200.00
00217               0.60    13400.00
00218               0.60    13400.00
00219              -1.20    13400.00
00220              -0.40    13400.00
00221               0.00    13400.00
00222              -0.20    13400.00
00223              -1.00    13400.00
00224               0.20    13400.00
00225               1.00    13400.00
00226               0.40    13400.00
00227              -0.60    13400.00
00228              -0.60    13400.00
00229               1.20    13400.00
00230              -1.00    13400.00
00231               0.20    13400.00
00232               1.20    13200.00
00233              -2.60    13400.00
00234              -0.40    13400.00
00235               1.40    13200.00
00236              -1.00    13200.00
00237              -1.20    13200.00
00238               1.20    13200.00
00239               0.40    13000.00
00240              -1.40    13000.00
00241               0.40    12800.00
00242               1.00    12600.00
00243              -1.60    12600.00
00244               0.40    12600.00
00245               1.00    12600.00
00246              -1.80    12400.00
00247              -0.60    12400.00
00248               0.60    12400.00
00249              -0.20    12200.00
00250              -1.20    12200.00
00251              -0.20    11800.00
00252               0.40    11800.00
00253              -1.00    11600.00
00254               0.00    11600.00
00255               0.60    11200.00
00256              -0.60    11200.00
00257              -0.20    11000.00
00258               0.80    11000.00
00259              -0.20    10800.00
00260              -1.20    10800.00
00261               0.40    10600.00
00262               0.20    10400.00
00263              -0.60    10200.00
00264              -0.20    10000.00
00265              -0.60    10000.00
00266              -0.40     9600.00
00267               0.80     9600.00
00268              -0.60     9400.00
00269              -0.20     9000.00
00270               0.40     9200.00
00271              -0.40     8800.00
00272              -0.20     8600.00
00273               0.20     8400.00
00274              -0.60     8400.00
00275              -0.60     8000.00
00276               0.60     7800.00
00277              -0.40     7600.00
00278              -0.60     7600.00
00279               0.20     7000.00
00280               0.00     7000.00
00281              -0.20     6800.00
00282              -0.20     6600.00
00283              -0.40     6200.00
00284              -0.40     6000.00
00285              -0.20     6000.00
00286              -0.60     5600.00
00287               0.00     5600.00
00288              -0.40     5200.00
00289              -0.20     4800.00
00290               0.00     4600.00
00291              -0.40     4400.00
00292              -0.60     4400.00
00293              -0.40     3800.00
00294               0.00     3600.00
00295              -0.60     3600.00
00296              -0.40     3200.00
00297              -0.60     2800.00
00298              -0.60     2800.00
00299              -0.20     2600.00
00300              -0.60     2200.00
00301              -0.60     2000.00
00302              -0.20     2000.00
00303              -0.40     1600.00
00304              -0.60     1200.00
00305               0.20     1000.00
00306              -0.20      800.00
00307              -0.60      400.00
00308               0.20      200.00
00309               0.20        0.00
00310               0.40     -200.00
00311               1.20     -400.00
00312              -1.20     -800.00
00313              -1.00    -1000.00
00314               0.80    -1000.00
00315              -0.40    -1200.00
00316              -0.60    -1400.00
00317               1.80    -1600.00
00318               6.60    -2000.00
00319              19.00    -2000.00
00320              -6.00    -2400.00
00321             -25.00    -3000.00
00322              -0.60    -3600.00
00323               6.60    -3800.00
00324             -17.80    -3800.00
00325              25.00    -3600.00
00326              -8.60    -3600.00
00327             -25.00    -4000.00
00328              25.00    -4200.00
00329               2.80    -4600.00
00330             -25.00    -5000.00
00331              25.00    -5200.00
00332              10.00    -5400.00
00333             -25.00    -5600.00
00334              21.40    -5800.00
00335             -15.80    -6000.00
00336              10.60    -6400.00
00337              -2.00    -6400.00
00338             -16.20    -6800.00
00339              25.00    -6800.00
00340             -25.00    -7200.00
00341             -25.00    -7200.00
00342              25.00    -7600.00
00343             -25.00    -7800.00
00344             -25.00    -8000.00
00345              25.00    -8200.00
00346             -14.00    -8400.00
00347             -25.00    -8600.00
00348              25.00    -8800.00
00349               0.20    -9000.00
00350             -14.80    -9200.00
00351              11.80    -9200.00
00352               1.00    -9600.00
00353              -7.40    -9600.00
00354              -0.60    -9800.00
00355               0.40   -10000.00
00356               5.20   -10200.00
00357              -3.00   -10400.00
00358              -5.00   -10400.00
00359               5.80   -10800.00
00360              -2.00   -10800.00
00361              -7.00   -10800.00
00362               5.20   -11200.00
00363               4.20   -11400.00
00364              -7.60   -11400.00
00365              -0.20   -11600.00
00366               4.80   -11600.00
00367              -5.20   -12000.00
00368              -1.20   -12000.00
00369               4.20   -12000.00
00370              -2.20   -12200.00
00371              -2.60   -12200.00
00372               1.40   -12200.00
00373              -0.80   -12400.00
00374              -1.00   -12400.00
00375               0.00   -12600.00
00376               0.40   -12800.00
00377              -0.80   -12800.00
00378              -2.20   -12800.00
00379               1.00   -13000.00
00380               0.60   -13000.00
00381              -2.00   -13000.00
00382              -0.20   -13000.00
00383              -0.20   -13200.00
00384              -1.00   -13000.00
00385              -0.40   -13200.00
00386              -0.20   -13200.00
00387              -0.60   -13000.00
00388              -0.60   -13200.00
00389               0.20   -13200.00
00390              -0.80   -13200.00
00391              -0.60   -13200.00
00392              -0.40   -13200.00
00393              -0.20   -13200.00
00394               0.20   -13200.00
00395              -1.40   -13200.00
00396              -0.40   -13200.00
00397               0.60   -13200.00
00398              -1.00   -13200.00
00399               0.40   -13200.00
00400              -0.20   -13200.00
00401              -1.40   -13200.00
00402               0.20   -13000.00
00403               0.20   -13000.00
00404              -1.20   -13000.00
00405              -0.60   -13000.00
00406               0.40   -12800.00
00407              -0.60   -12800.00
00408              -1.40   -12800.00
00409               0.40   -12600.00
00410              -0.20   -12600.00
00411              -0.60   -12400.00
00412               0.60   -12400.00
00413              -0.60   -12400.00
00414              -1.20   -12200.00
00415               0.20   -12000.00
00416              -0.60   -12000.00
00417              -0.20   -12000.00
00418              -0.60   -11800.00
00419              -1.20   -11800.00
00420              -0.80   -11600.00
00421              -0.40   -11400.00
00422              -1.80   -11200.00
00423              -0.60   -11000.00
00424               0.40   -10800.00
00425              -1.00   -10800.00
00426              -0.20   -10800.00
00427              -0.40   -10400.00
00428              -1.40   -10400.00
00429               0.20   -10200.00
00430               0.00   -10000.00
00431              -1.40   -10000.00
00432              -0.60    -9800.00
00433              -1.00    -9800.00
00434              -1.00    -9600.00
00435              -0.60    -9200.00
00436              -1.20    -9000.00
00437              -0.60    -9000.00
00438              -0.40    -8600.00
00439              -1.00    -8400.00
00440              -0.20    -8200.00
00441              -0.40    -8200.00
00442              -1.20    -8000.00
00443               0.20    -7600.00
00444               0.00    -7400.00
00445              -1.00    -7200.00
00446              -0.60    -7200.00
00447              -0.60    -6800.00
00448              -0.40    -6400.00
00449              -0.60    -6400.00
00450              -1.20    -6200.00
00451              -0.40    -6000.00
00452              -0.20    -5800.00
00453              -1.00    -5600.00
00454              -0.40    -5400.00
00455               0.20    -5000.00
00456              -1.00    -4800.00
00457              -0.40    -4600.00
00458               0.40    -4200.00
00459              -0.80    -4000.00
00460              -1.20    -3800.00
00461              -0.40    -3600.00
00462              -0.60    -3400.00
00463              -1.00    -3200.00
00464              -0.20    -3000.00
00465              -0.40    -2800.00
00466              -0.80    -2400.00
00467              -0.20    -2400.00
00468               0.20    -2000.00
00469              -0.80    -1600.00
00470              -0.20    -1400.00
00471               0.40    -1200.00
00472              -1.00     -800.00
00473              -0.40     -800.00
00474              -0.20     -400.00
00475              -0.40     -200.00
00476               0.00        0.00
00477               0.60      400.00
00478               1.40      600.00
00479              -1.20      800.00
00480              -1.20     1000.00
00481               1.00     1200.00
00482              -0.20     1400.00
00483              -1.80     1600.00
00484               2.60     1800.00
00485              18.80     2000.00
00486              12.20     2400.00
00487             -25.00     2800.00
00488             -17.40     3200.00
00489              12.20     3600.00
00490             -10.80     3600.00
00491              25.00     3800.00
00492             -14.60     3800.00
00493             -25.00     4000.00
00494              25.00     4200.00
00495               0.60     4600.00
00496             -25.00     4800.00
00497              25.00     5200.00
00498              20.00     5400.00
00499             -25.00     5600.00
00500              25.00     5600.00
00501             -15.00     6000.00
00502               2.00     6200.00
00503              -5.40     6400.00
00504             -17.00     6800.00
00505              25.00     6800.00
00506             -25.00     7200.00
00507             -25.00     7400.00
00508              25.00     7400.00
00509             -25.00     7800.00
00510             -14.60     8000.00
00511              25.00     8200.00
00512             -25.00     8400.00
00513             -17.00     8600.00
00514              21.80     8800.00
00515              -0.60     9000.00
00516              -7.60     9200.00
00517               0.00     9400.00
00518               8.60     9600.00
00519              -1.20     9600.00
00520             -13.00     9800.00
00521               5.80    10000.00
00522              14.00    10200.00
00523             -12.40    10400.00
00524              -3.40    10400.00
00525              12.80    10600.00
00526              -7.00    10800.00
00527             -10.20    11000.00
00528              11.60    11000.00
00529               5.80    11400.00
00530             -15.00    11600.00
00531               4.60    11600.00
00532               7.60    11800.00
00533              -9.40    11800.00
00534               1.40    12000.00
00535               5.80    12000.00
00536              -2.20    12200.00
00537              -2.60    12200.00
00538               1.60    12400.00
00539               1.00    12400.00
00540              -1.80    12600.00
00541              -0.20    12600.00
00542               2.00    12800.00
00543              -1.00    12800.00
00544              -3.80    12800.00
00545               2.60    12800.00
00546               2.20    13000.00
00547              -3.00    13000.00
00548               1.00    13200.00
00549               1.00    13200.00
00550              -2.00    13200.00
00551               0.20    13200.00
00552               1.40    13200.00
00553              -0.60    13400.00
00554              -1.80    13400.00
00555               0.60    13400.00
00556               0.40    13400.00
00557              -2.60    13400.00
00558               1.00    13400.00
00559               1.40    13400.00
00560              -1.20    13600.00
00561              -0.40    13400.00
00562              -0.40    13600.00
00563              -0.20    13400.00
00564              -0.20    13400.00
00565               0.60    13400.00
00566               0.40    13400.00
00567              -2.00    13200.00
00568               0.20    13400.00
00569               0.60    13200.00
00570              -1.20    13200.00
00571              -0.60    13200.00
00572               0.80    13200.00
00573              -0.20    12800.00
00574              -1.20    13000.00
00575               0.60    12800.00
00576              -0.20    12800.00
00577              -0.40    12800.00
00578               1.00    12600.00
00579              -0.20    12600.00
00580              -0.60    12400.00
00581              -0.40    12400.00
00582               0.40    12400.00
00583               0.60    12200.00
00584              -0.60    12000.00
00585              -0.20    12000.00
00586               0.60    11800.00
00587              -0.60    11600.00
00588               0.20    11600.00
00589               0.20    11400.00
00590              -0.60    11200.00
00591              -0.20    11000.00
00592               0.60    11000.00
00593              -0.20    10800.00
00594              -0.80    10600.00
00595               0.40    10400.00
00596               0.20    10400.00
00597              -0.60    10200.00
00598               0.00    10000.00
00599              -0.20    10000.00
00600              -0.20     9600.00
00601               0.40     9600.00
00602               0.20     9400.00
00603              -0.60     9200.00
00604              -0.40     8800.00
00605               0.20     8800.00
00606              -0.20     8600.00
00607              -0.60     8400.00
00608              -0.20     8200.00
00609              -0.20     8000.00
00610              -0.20     7800.00
00611               0.20     7600.00
00612              -0.60     7400.00
00613              -0.20     7200.00
00614              -0.20     6800.00
00615               0.20     6800.00
00616              -0.20     6400.00
00617              -0.60     6200.00
00618              -0.40     6000.00
00619               0.20     5800.00
00620              -1.00     5600.00
00621              -0.40     5400.00
00622              -0.40     5200.00
00623              -0.40     4800.00
00624              -0.20     4600.00
00625              -0.40     4400.00
00626              -0.40     4200.00
00627              -0.60     4000.00
00628              -0.20     3600.00
00629               0.20     3400.00
00630              -0.40     3200.00
00631              -1.00     3200.00
00632              -0.20     2800.00
00633               0.20     2400.00
00634              -1.20     2200.00
00635              -0.60     2000.00
00636               0.00     1800.00
00637              -0.80     1600.00
00638              -0.20     1200.00
00639              -0.20     1000.00
00640              -0.40      800.00
00641               0.00      400.00
00642               0.20      400.00
00643               0.60        0.00
00644               1.00     -200.00
00645               1.20     -400.00
00646              -1.00     -600.00
00647              -1.00     -800.00
00648               0.80    -1000.00
00649              -0.40    -1200.00
00650              -1.40    -1600.00
00651               2.20    -1800.00
00652               7.40    -1800.00
00653              19.00    -2000.00
00654              -9.80    -2600.00
00655             -25.00    -3000.00
00656               3.00    -3600.00
00657               4.20    -3800.00
00658             -15.00    -4000.00
00659              25.00    -3600.00
00660             -20.60    -3800.00
00661             -25.00    -4200.00
00662              25.00    -4400.00
00663             -13.60    -4400.00
00664             -25.00    -5000.00
00665              25.00    -5000.00
00666              -2.60    -5400.00
00667             -25.00    -5600.00
00668              22.60    -5800.00
00669             -18.80    -6000.00
00670              13.80    -6400.00
00671              -6.80    -6400.00
00672              -9.20    -6800.00
00673              25.00    -6800.00
00674             -25.00    -7200.00
00675             -14.80    -7400.00
00676              25.00    -7600.00
00677             -25.00    -8000.00
00678             -16.20    -8000.00
00679              25.00    -8200.00
00680             -21.40    -8400.00
00681             -22.80    -8600.00
00682              25.00    -8800.00
00683              -3.80    -9000.00
00684             -13.20    -9200.00
00685              13.00    -9200.00
00686              -0.40    -9600.00
00687              -7.40    -9800.00
00688              -0.40    -9800.00
00689               1.40   -10000.00
00690               4.40   -10200.00
00691              -4.20   -10400.00
00692              -3.40   -10400.00
00693               5.80   -10800.00
00694              -3.40   -10800.00
00695              -6.20   -11000.00
00696               6.00   -11000.00
00697               2.60   -11400.00
00698              -8.20   -11400.00
00699               1.60   -11600.00
00700               3.80   -11600.00
00701              -6.00   -11800.00
00702              -0.40   -12000.00
00703               4.20   -12000.00
00704              -2.80   -12200.00
00705              -1.40   -12200.00
00706               1.60   -12200.00
00707              -1.00   -12400.00
00708              -1.00   -12400.00
00709               0.20   -12400.00
00710               0.40   -12600.00
00711              -1.20   -12800.00
00712              -2.20   -12800.00
00713               1.20   -13000.00
00714              -0.20   -13000.00
00715              -1.40   -13000.00
00716               0.20   -13200.00
00717              -0.60   -13200.00
00718              -0.40   -13000.00
00719               0.20   -13200.00
00720              -0.20   -13200.00
00721              -0.60   -13200.00
00722              -0.40   -13200.00
00723               0.40   -13200.00
00724              -1.00   -13200.00
00725              -0.60   -13200.00
00726               0.20   -13200.00
00727              -0.60   -13200.00
00728              -0.60   -13200.00
00729              -0.80   -13200.00
00730              -0.60   -13200.00
00731              -0.20   -13200.00
00732              -0.40   -13200.00
00733               0.60   -13200.00
00734              -0.60   -13200.00
00735              -1.40   -13200.00
00736               0.60   -13000.00
00737               0.20   -13200.00
00738              -1.20   -13000.00
00739              -0.20   -13000.00
00740               0.20   -13000.00
00741              -1.20   -12800.00
00742              -1.40   -12800.00
00743              -0.20   -12800.00
00744              -0.80   -12600.00
00745              -0.60   -12400.00
00746               0.20   -12400.00
00747              -0.60   -12200.00
00748              -0.60   -12200.00
00749              -0.60   -12000.00
00750               0.20   -12000.00
00751               0.20   -12000.00
00752              -1.40   -11800.00
00753              -0.60   -11600.00
00754              -0.40   -11600.00
00755              -1.20   -11400.00
00756              -0.60   -11200.00
00757              -0.40   -11200.00
00758              -0.80   -10800.00
00759              -1.00   -10800.00
00760              -0.40   -10600.00
00761              -0.60   -10400.00
00762              -0.60   -10400.00
00763               0.20   -10200.00
00764              -0.20   -10000.00
00765              -0.80    -9800.00
00766              -0.60    -9800.00
00767              -0.40    -9600.00
00768              -0.60    -9400.00
00769              -0.60    -9200.00
00770              -0.60    -9000.00
00771              -0.60    -8800.00
00772              -1.20    -8600.00
00773              -0.20    -8400.00
00774              -0.60    -8200.00
00775              -1.20    -8200.00
00776              -0.20    -8000.00
00777              -0.20    -7600.00
00778              -0.60    -7400.00
00779              -0.40    -7400.00
00780              -0.40    -7000.00
00781              -0.60    -6800.00
00782              -0.20    -6400.00
00783              -0.20    -6400.00
00784              -0.60    -6000.00
00785              -0.80    -6000.00
00786              -0.60    -5600.00
00787              -0.40    -5600.00
00788              -0.60    -5200.00
00789              -0.60    -5000.00
00790              -0.20    -4600.00
00791              -0.40    -4400.00
00792              -0.40    -4400.00
00793              -0.60    -4000.00
00794              -0.60    -3800.00
00795              -0.40    -3600.00
00796              -0.40    -3400.00
00797               0.20    -3200.00
00798              -0.60    -2800.00
00799              -0.80    -2600.00
00800               0.20    -2400.00
00801              -0.60    -2000.00
00802              -1.00    -1800.00
00803               0.20    -1600.00
00804              -0.60    -1400.00
00805              -1.20    -1000.00
00806              -0.20    -1000.00
00807              -0.60     -600.00
00808              -1.00     -400.00
00809               0.00     -200.00
00810              -0.20      200.00
00811               1.00      400.00
00812               1.20      600.00
00813              -1.20      800.00
00814              -0.20     1000.00
00815               0.80     1200.00
00816              -0.60     1600.00
00817              -0.60     1600.00
00818               2.60     1800.00
00819              20.00     2200.00
00820               8.60     2400.00
00821             -25.00     3000.00
00822             -13.20     3400.00
00823              10.60     3600.00
00824              -7.60     3600.00
00825              25.00     3600.00
00826             -25.00     3800.00
00827             -25.00     4000.00
00828              25.00     4200.00
00829             -21.20     4600.00
00830             -25.00     4800.00
00831              25.00     5200.00
00832               0.40     5400.00
00833             -25.00     5600.00
00834              25.00     6000.00
00835             -19.80     6000.00
00836               7.60     6200.00
00837             -13.80     6600.00
00838              -7.00     6600.00
00839              25.00     6800.00
00840             -25.00     7200.00
00841              -8.20     7600.00
00842              25.00     7600.00
00843             -25.00     7800.00
00844               0.20     8200.00
00845              25.00     8400.00
00846             -25.00     8400.00
00847              -9.60     8600.00
00848              21.40     8600.00
00849              -2.80     9000.00
00850              -7.00     9200.00
00851               1.00     9200.00
00852               8.60     9400.00
00853              -3.80     9600.00
00854             -12.80     9800.00
00855               8.80    10000.00
00856              11.00    10200.00
00857             -13.20    10400.00
00858              -0.40    10400.00
00859              11.80    10600.00
00860              -8.40    10800.00
00861              -8.20    11000.00
00862              12.40    11200.00
00863               3.00    11200.00
00864             -14.00    11600.00
00865               5.80    11600.00
00866               5.40    11800.00
00867              -9.20    11800.00
00868               2.00    11800.00
00869               5.20    12000.00
00870              -2.20    12200.00
00871              -2.80    12200.00
00872               2.40    12400.00
00873               0.40    12400.00
00874              -2.20    12400.00
00875               1.00    12800.00
00876               2.00    12600.00
00877              -2.40    12800.00
00878              -3.00    12800.00
00879               2.80    13000.00
00880               0.40    13000.00
00881              -2.60    13200.00
00882               1.40    13200.00
00883              -0.40    13400.00
00884              -2.20    13200.00
00885               0.80    13200.00
00886               1.20    13200.00
00887              -1.00    13400.00
00888              -1.00    13400.00
00889               1.20    13400.00
00890              -0.60    13400.00
00891              -1.80    13400.00
00892               1.20    13400.00
00893               0.40    13400.00
00894              -0.60    13400.00
00895              -0.40    13400.00
00896              -0.20    13400.00
00897              -0.20    13200.00
00898              -0.40    13400.00
00899               0.80    13400.00
00900               0.20    13400.00
00901              -1.80    13400.00
00902               0.40    13200.00
00903               0.60    13200.00
00904              -0.80    13200.00
00905              -0.40    13200.00
00906               0.40    13200.00
00907               0.00    13000.00
00908              -0.60    13000.00
00909               0.20    12800.00
00910               0.20    12800.00
00911               0.20    12600.00
00912               0.20    12600.00
00913              -0.20    12600.00
00914              -0.20    12400.00
00915              -1.00    12400.00
00916               0.20    12400.00
00917               1.00    12200.00
00918              -1.00    11800.00
00919              -0.20    11800.00
00920               0.40    11800.00
00921              -0.20    11800.00
00922               0.20    11600.00
00923               0.20    11200.00
00924              -0.40    11200.00
00925              -0.20    11000.00
00926               0.40    11000.00
00927              -0.40    10800.00
00928              -0.60    10800.00
00929               0.20    10400.00
00930               0.20    10400.00
00931              -0.20    10000.00
00932              -0.40    10000.00
00933              -0.40     9800.00
00934               0.40     9600.00
00935               0.60     9400.00
00936              -0.40     9200.00
00937               0.00     9200.00
00938              -0.20     8800.00
00939              -0.20     8600.00
00940              -0.20     8400.00
00941              -0.60     8400.00
00942              -0.60     8000.00
00943               0.00     7800.00
00944               0.20     7800.00
00945              -0.80     7600.00
00946              -0.40     7200.00
00947               0.00     7200.00
00948              -0.20     7000.00
00949               0.20     6600.00
00950               0.20     6400.00
00951              -0.60     6200.00
00952              -0.40     6000.00
00953               0.40     6000.00
00954              -1.00     5600.00
00955              -0.20     5400.00
00956              -0.60     5200.00
00957              -0.40     5000.00
00958              -0.20     4600.00
00959              -0.60     4400.00
00960              -0.80     4200.00
00961              -0.40     4000.00
00962              -0.20     3800.00
00963              -0.20     3400.00
00964               0.00     3200.00
00965              -0.60     3000.00
00966               0.20     2800.00
00967               0.20     2400.00
00968              -0.20     2200.00
00969              -0.80     2000.00
00970              -0.20     1600.00
00971              -0.40     1400.00
00972              -0.60     1200.00
00973              -0.40     1200.00
00974              -0.60      800.00
00975              -0.20      400.00
00976               0.20      200.00
00977               0.40        0.00
00978               1.40     -200.00
00979               1.00     -400.00
00980              -1.20     -600.00
00981               0.20    -1000.00
00982               0.40    -1000.00
00983              -0.60    -1400.00
00984              -0.40    -1600.00
00985               2.20    -1800.00
00986               8.40    -2000.00
00987              19.20    -2200.00
00988             -15.20    -2600.00
00989             -25.00    -3200.00
00990               6.20    -3600.00
00991              -0.60    -3800.00
00992              -9.80    -4000.00
00993              25.00    -3800.00
00994             -25.00    -3600.00
00995             -25.00    -4200.00
00996              25.00    -4400.00
00997             -25.00    -4600.00
00998             -25.00    -5000.00
00999              25.00    -5000.00
01000             -14.60    -5400.00
01001             -22.80    -5600.00
01002              20.60    -5800.00
01003             -20.20    -6000.00
01004              16.40    -6400.00
01005             -13.20    -6600.00
01006              -2.00    -6600.00
01007              25.00    -7000.00
01008             -25.00    -7200.00
01009              -3.80    -7400.00
01010              25.00    -7600.00
01011             -25.00    -8000.00
01012              -6.80    -8000.00
01013              25.00    -8200.00
01014             -25.00    -8400.00
01015             -17.20    -8600.00
01016              25.00    -8800.00
01017              -7.40    -9000.00
01018             -11.00    -9200.00
01019              13.60    -9400.00
01020              -2.80    -9600.00
01021              -6.80    -9600.00
01022               0.20   -10000.00
01023               1.60   -10000.00
01024               4.40   -10200.00
01025              -4.60   -10400.00
01026              -2.60   -10600.00
01027               5.80   -10800.00
01028              -3.80   -10800.00
01029              -5.20   -11000.00
01030               7.00   -11000.00
01031               1.80   -11200.00
01032              -8.00   -11400.00
01033               2.20   -11600.00
01034               3.40   -11600.00
01035              -6.60   -12000.00
01036               1.00   -12000.00
01037               3.40   -12000.00
01038              -3.80   -12200.00
01039              -0.80   -12200.00
01040               1.40   -12400.00
01041              -1.80   -12400.00
01042              -0.20   -12400.00
01043               1.00   -12600.00
01044              -0.20   -12800.00
01045              -1.20   -12800.00
01046              -0.60   -12800.00
01047               1.00   -13000.00
01048              -1.20   -13000.00
01049              -0.60   -13000.00
01050              -0.40   -13000.00
01051              -1.40   -13000.00
01052               0.00   -13000.00
01053               0.20   -13200.00
01054              -0.40   -13000.00
01055              -1.00   -13200.00
01056              -0.60   -13200.00
01057               2.20   -13200.00
01058              -1.60   -13200.00
01059              -2.80   -13200.00
01060               2.80   -13200.00
01061               0.60   -13400.00
01062              -4.40   -13200.00
01063               2.20   -13200.00
01064               0.20   -13200.00
01065              -4.60   -13200.00
01066               1.60   -13200.00
01067               2.60   -13200.00
01068              -4.40   -13200.00
01069              -1.20   -13000.00
01070               2.80   -13200.00
01071              -1.20   -13000.00
01072              -2.60   -13000.00
01073               1.40   -13000.00
01074               0.20   -12800.00
01075              -1.40   -12800.00
01076              -1.80   -12800.00
01077              -0.60   -12600.00
01078               0.20   -12600.00
01079              -0.20   -12400.00
01080              -1.00   -12400.00
01081              -0.60   -12400.00
01082              -0.60   -12200.00
01083              -1.80   -12200.00
01084               0.20   -12000.00
01085               1.20   -12000.00
01086              -1.60   -11600.00
01087              -1.40   -11600.00
01088               0.20   -11600.00
01089              -0.60   -11400.00
01090              -1.00   -11200.00
01091              -0.40   -11000.00
01092               0.20   -11000.00
01093              -1.00   -10800.00
01094              -1.80   -10600.00
01095              -0.60   -10400.00
01096               0.20   -10400.00
01097              -0.40   -10200.00
01098              -0.60   -10000.00
01099              -0.40    -9800.00
01100              -0.60    -9800.00
01101              -1.20    -9600.00
01102              -1.00    -9200.00
01103               1.20    -9200.00
01104              -0.40    -9000.00
01105              -2.00    -8800.00
01106              -0.20    -8800.00
01107               0.60    -8600.00
01108              -2.00    -8200.00
01109              -1.20    -8000.00
01110               1.00    -8000.00
01111               0.20    -7800.00
01112              -1.20    -7400.00
01113              -0.40    -7200.00
01114               0.40    -7000.00
01115              -1.60    -6800.00
01116              -1.00    -6400.00
01117               1.00    -6400.00
01118              -0.60    -6200.00
01119              -1.40    -5800.00
01120               0.40    -5600.00
01121              -0.20    -5400.00
01122              -1.40    -5200.00
01123              -0.40    -5000.00
01124               0.40    -4600.00
01125              -0.60    -4400.00
01126              -0.40    -4200.00
01127              -0.40    -4000.00
01128              -1.40    -3800.00
01129              -1.00    -3600.00
01130               0.20    -3200.00
01131              -0.60    -3200.00
01132              -0.60    -2800.00
01133              -0.20    -2600.00
01134              -0.60    -2400.00
01135              -1.20    -2200.00
01136              -0.20    -2000.00
01137               0.20    -1600.00
01138              -0.60    -1200.00
01139              -0.20    -1200.00
01140              -0.40    -1000.00
01141              -1.80     -600.00
01142              -1.00     -400.00
01143               0.20     -200.00
01144              -0.80        0.00
01145               0.60      400.00
01146               1.40      600.00
01147              -1.20      800.00
01148              -0.40     1000.00
01149               1.40     1200.00
01150               0.40     1400.00
01151              -1.20     1800.00
01152               2.20     1800.00
01153              22.60     2200.00
01154               3.00     2600.00
01155             -25.00     2800.00
01156              -7.00     3200.00
01157               9.00     3600.00
01158              -4.60     3600.00
01159              25.00     3800.00
01160             -25.00     3800.00
01161             -25.00     3800.00
01162              25.00     4400.00
01163             -25.00     4600.00
01164             -25.00     4800.00
01165              25.00     5200.00
01166             -19.20     5400.00
01167             -25.00     5600.00
01168              25.00     5800.00
01169             -24.20     6000.00
01170              11.80     6200.00
01171             -20.00     6600.00
01172               2.60     6600.00
01173              25.00     6800.00
01174             -25.00     7200.00
01175               9.80     7400.00
01176              25.00     7800.00
01177             -25.00     7800.00
01178              15.60     8200.00
01179              25.00     8200.00
01180             -25.00     8400.00
01181              -1.20     8800.00
01182              20.20     8800.00
01183              -5.80     9000.00
01184              -5.00     9200.00
01185               1.80     9200.00
01186               6.80     9400.00
01187              -4.40     9600.00
01188             -12.20    10000.00
01189              10.00    10000.00
01190               9.80    10200.00
01191             -14.60    10400.00
01192               1.40    10400.00
01193              10.60    10800.00
01194              -9.60    10800.00
01195              -7.00    11000.00
01196              14.00    11200.00
01197               1.40    11200.00
01198             -13.40    11400.00
01199               6.80    11600.00
01200               3.80    11800.00
01201              -9.20    11800.00
01202               2.60    11800.00
01203               4.80    12000.00
01204              -3.00    12200.00
01205              -3.00    12400.00
01206               2.20    12400.00
01207               0.20    12600.00
01208              -2.20    12600.00
01209               1.20    12600.00
01210               2.20    12800.00
01211              -2.40    12800.00
01212              -3.00    12800.00
01213               2.60    12800.00
01214               0.20    13000.00
01215              -2.20    13200.00
01216               1.40    13200.00
01217              -0.60    13200.00
01218              -1.40    13200.00
01219               0.40    13200.00
01220               0.40    13400.00
01221              -0.40    13400.00
01222              -1.00    13400.00
01223               0.80    13400.00
01224              -0.40    13400.00
01225              -2.00    13400.00
01226               1.20    13400.00
01227               1.00    13400.00
01228              -0.60    13400.00
01229              -0.40    13400.00
01230               0.20    13400.00
01231               0.20    13400.00
01232              -0.60    13400.00
01233               1.40    13200.00
01234              -0.60    13400.00
01235              -2.00    13400.00
01236               1.20    13200.00
01237               0.20    13200.00
01238              -1.40    13200.00
01239               0.40    13200.00
01240               0.40    13000.00
01241              -0.20    13000.00
01242               0.20    12800.00
01243               0.20    12800.00
01244              -0.40    12600.00
01245               0.60    12600.00
01246               0.20    12800.00
01247              -0.20    12400.00
01248               0.00    12600.00
01249              -0.60    12400.00
01250              -0.20    12200.00
01251               0.40    12000.00
01252              -1.20    12000.00
01253              -0.20    11800.00
01254               0.60    11800.00
01255              -0.40    11600.00
01256               0.20    11600.00
01257               0.40    11200.00
01258               0.20    11200.00
01259               0.40    11000.00
01260               0.60    11000.00
01261              -0.40    10800.00
01262              -1.00    10600.00
01263              -0.40    10400.00
01264               0.00    10400.00
01265              -0.40    10200.00
01266              -0.60    10000.00
01267              -0.60     9600.00
01268              -0.40     9600.00
01269              -0.20     9400.00
01270               0.40     9200.00
01271              -0.20     9000.00
01272              -0.60     8800.00
01273               0.20     8800.00
01274               0.60     8600.00
01275              -0.60     8400.00
01276              -1.00     8200.00
01277              -0.20     8000.00
01278               0.60     7800.00
01279              -1.00     7600.00
01280              -1.00     7200.00
01281               0.20     7200.00
01282              -0.40     7000.00
01283              -0.40     6600.00
01284               0.20     6400.00
01285              -0.60     6200.00
01286               0.00     6000.00
01287               0.40     5800.00
01288              -0.40     5600.00
01289               0.20     5400.00
01290              -0.20     5000.00
01291              -0.20     4800.00
01292               0.40     4600.00
01293              -0.80     4400.00
01294              -1.20     4200.00
01295               0.20     3800.00
01296              -0.20     3600.00
01297              -0.40     3400.00
01298              -0.20     3000.00
01299              -0.60     3000.00
01300               0.20     2800.00
01301               0.20     2400.00
01302              -0.60     2400.00
01303              -0.20     2000.00
01304               0.20     1600.00
01305              -0.60     1600.00
01306              -0.20     1200.00
01307               0.20      800.00
01308              -0.60      800.00
01309              -0.20      400.00
01310               0.60      400.00
01311               0.00        0.00
01312               1.00     -400.00
01313               1.20     -400.00
01314              -1.20     -600.00
01315              -0.20    -1000.00
01316               1.00    -1200.00
01317              -0.60    -1400.00
01318              -0.20    -1600.00
01319               2.60    -1800.00
01320               9.60    -2000.00
01321              18.40    -2400.00
01322             -18.80    -2800.00
01323             -25.00    -3200.00
01324               9.00    -3600.00
01325              -4.20    -3800.00
01326              -4.60    -3800.00
01327              25.00    -3600.00
01328             -25.00    -4000.00
01329             -24.40    -4200.00
01330              25.00    -4400.00
01331             -25.00    -4800.00
01332             -25.00    -5200.00
01333              25.00    -5000.00
01334             -25.00    -5600.00
01335             -15.00    -5600.00
01336              19.00    -5800.00
01337             -20.60    -6000.00
01338              18.60    -6400.00
01339             -17.40    -6600.00
01340               5.80    -6800.00
01341              25.00    -7000.00
01342             -25.00    -7200.00
01343               8.20    -7400.00
01344              25.00    -7600.00
01345             -25.00    -8000.00
01346               3.00    -8200.00
01347              25.00    -8200.00
01348             -25.00    -8400.00
01349             -10.40    -8800.00
01350              25.00    -8800.00
01351             -11.00    -9200.00
01352              -8.20    -9200.00
01353              13.40    -9200.00
01354              -3.80    -9600.00
01355              -5.40    -9800.00
01356              -1.00    -9800.00
01357               2.60   -10000.00
01358               4.40   -10400.00
01359              -7.00   -10400.00
01360              -1.20   -10600.00
01361               6.80   -10800.00
01362              -5.80   -10800.00
01363              -5.80   -11000.00
01364               8.60   -11200.00
01365               1.00   -11200.00
01366              -8.40   -11400.00
01367               3.40   -11600.00
01368               3.60   -11800.00
01369              -6.60   -11800.00
01370               1.20   -12000.00
01371               3.40   -12200.00
01372              -3.40   -12200.00
01373              -0.80   -12200.00
01374               0.40   -12200.00
01375              -1.40   -12400.00
01376               0.40   -12600.00
01377              -0.20   -12400.00
01378               0.20   -12800.00
01379              -0.60   -12800.00
01380              -1.60   -12800.00
01381               1.80   -12800.00
01382              -0.20   -13000.00
01383              -1.40   -13000.00
01384               0.40   -13200.00
01385              -1.00   -13000.00
01386              -1.00   -13200.00
01387              -0.20   -13200.00
01388              -0.40   -13200.00
01389              -0.60   -13200.00
01390              -0.60   -13200.00
01391               0.20   -13200.00
01392              -0.80   -13200.00
01393              -1.20   -13200.00
01394              -0.40   -13200.00
01395               0.40   -13200.00
01396              -0.60   -13200.00
01397              -1.80   -13200.00
01398               0.20   -13200.00
01399               0.20   -13200.00
01400              -1.20   -13200.00
01401               0.20   -13000.00
01402              -0.40   -13200.00
01403              -1.80   -13000.00
01404              -0.60   -13000.00
01405               0.40   -13200.00
01406              -1.40   -12800.00
01407              -0.60   -13000.00
01408               1.00   -12800.00
01409              -1.00   -12800.00
01410              -2.00   -12800.00
01411               0.20   -12800.00
01412               0.00   -12600.00
01413              -1.20   -12400.00
01414              -0.40   -12400.00
01415               0.00   -12400.00
01416              -2.00   -12000.00
01417              -0.60   -12200.00
01418               1.20   -12000.00
01419              -0.60   -12000.00
01420              -1.20   -11600.00
01421              -0.20   -11400.00
01422              -0.20   -11600.00
01423              -1.20   -11400.00
01424              -0.60   -11400.00
01425              -0.20   -11000.00
01426              -0.60   -10800.00
01427              -1.20   -10800.00
01428               0.00   -10600.00
01429              -0.60   -10600.00
01430              -1.20   -10400.00
01431               0.80   -10200.00
01432               0.20   -10000.00
01433              -1.80    -9800.00
01434              -0.40    -9600.00
01435               0.20    -9600.00
01436              -1.20    -9200.00
01437              -0.40    -9200.00
01438               0.20    -9000.00
01439              -0.80    -8800.00
01440              -0.40    -8600.00
01441              -0.20    -8400.00
01442              -0.40    -8400.00
01443              -0.60    -8000.00
01444              -0.20    -7600.00
01445               0.40    -7600.00
01446              -0.40    -7400.00
01447              -0.60    -7200.00
01448              -0.40    -6800.00
01449              -0.20    -6800.00
01450              -1.00    -6600.00
01451              -0.40    -6200.00
01452              -0.20    -6200.00
01453              -1.00    -5800.00
01454              -1.00    -5800.00
01455               0.40    -5600.00
01456              -0.40    -5200.00
01457              -1.20    -5000.00
01458               0.20    -4600.00
01459               0.40    -4600.00
01460              -1.20    -4200.00
01461              -0.60    -4000.00
01462              -0.20    -4000.00
01463              -1.00    -3600.00
01464              -0.40    -3400.00
01465              -0.40    -3200.00
01466              -1.40    -2800.00
01467              -0.40    -2600.00
01468              -0.60    -2400.00
01469              -1.00    -2200.00
01470              -0.20    -1800.00
01471              -0.60    -1600.00
01472              -0.20    -1200.00
01473              -0.20    -1000.00
01474              -0.80     -800.00
01475               0.00     -600.00
01476              -0.60     -400.00
01477              -0.60     -200.00
01478               0.00        0.00
01479               0.40      400.00
01480               1.00      600.00
01481              -1.60      800.00
01482              -1.00      800.00
01483               1.80     1200.00
01484              -1.00     1400.00
01485              -1.20     1600.00
01486               5.20     2000.00
01487              24.00     2200.00
01488              -2.40     2400.00
01489             -25.00     2800.00
01490              -3.00     3400.00
01491               5.00     3600.00
01492               2.60     3600.00
01493              25.00     3800.00
01494             -25.00     3800.00
01495             -21.40     4000.00
01496              25.00     4400.00
01497             -25.00     4600.00
01498             -25.00     5000.00
01499              25.00     5200.00
01500             -25.00     5400.00
01501             -25.00     5600.00
01502              25.00     5800.00
01503             -25.00     6000.00
01504              16.80     6400.00
01505             -25.00     6400.00
01506              14.00     6800.00
01507              25.00     7000.00
01508             -25.00     7200.00
01509              25.00     7400.00
01510              25.00     7600.00
01511             -25.00     8000.00
01512              25.00     8200.00
01513              25.00     8400.00
01514             -25.00     8600.00
01515               2.60     8600.00
01516              18.60     8800.00
01517              -6.00     9000.00
01518              -6.20     9200.00
01519               3.60     9400.00
01520               7.40     9600.00
01521              -7.00     9800.00
01522             -10.80    10000.00
01523              11.60    10000.00
01524               7.00    10200.00
01525             -14.80    10400.00
01526               3.40    10600.00
01527               9.60    10800.00
01528             -11.00    10800.00
01529              -5.20    11000.00
01530              14.60    11200.00
01531              -1.40    11200.00
01532             -13.20    11600.00
01533               9.40    11800.00
01534               1.80    11600.00
01535              -9.00    12000.00
01536               4.20    11800.00
01537               3.80    12000.00
01538              -3.60    12200.00
01539              -1.80    12400.00
01540               2.60    12400.00
01541              -0.40    12400.00
01542              -2.60    12600.00
01543               1.60    12600.00
01544               1.80    12600.00
01545              -3.60    12800.00
01546              -2.20    12800.00
01547               3.60    13000.00
01548              -0.60    13000.00
01549              -2.00    13200.00
01550               2.00    13200.00
01551              -0.60    13200.00
01552              -1.40    13200.00
01553               1.20    13200.00
01554               0.60    13200.00
01555              -1.20    13400.00
01556              -0.80    13200.00
01557               1.20    13400.00
01558              -1.00    13400.00
01559              -1.80    13400.00
01560               1.40    13400.00
01561               0.40    13400.00
01562              -0.60    13600.00
01563              -0.60    13200.00
01564               0.40    13400.00
01565               0.20    13400.00
01566              -0.40    13400.00
01567               1.40    13400.00
01568              -0.20    13400.00
01569              -1.80    13200.00
01570               1.20    13200.00
01571               0.20    13200.00
01572              -1.20    13200.00
01573               0.20    13000.00
01574               0.80    12800.00
01575              -0.40    13000.00
01576              -0.60    12800.00
01577               0.40    12800.00
01578              -0.20    12800.00
01579               0.20    12800.00
01580               0.80    12600.00
01581              -0.20    12600.00
01582              -0.20    12400.00
01583              -0.40    12400.00
01584               0.40    12200.00
01585               0.40    12200.00
01586              -1.00    12000.00
01587              -0.40    12000.00
01588              -0.20    11800.00
01589              -0.40    11800.00
01590              -0.20    11400.00
01591              -0.20    11400.00
01592              -0.40    11200.00
01593               0.00    11000.00
01594               0.40    10800.00
01595              -0.40    10800.00
01596              -0.60    10600.00
01597               0.20    10400.00
01598               0.20    10200.00
01599              -0.40    10200.00
01600              -0.60    10000.00
01601              -0.40     9800.00
01602              -0.40     9600.00
01603               0.20     9600.00
01604              -0.60     9400.00
01605              -0.60     9000.00
01606               0.20     9200.00
01607              -0.20     8800.00
01608              -0.60     8600.00
01609               0.20     8400.00
01610              -0.60     8200.00
01611              -0.60     8000.00
01612               0.60     7800.00
01613              -0.60     7600.00
01614              -1.00     7200.00
01615               0.40     7200.00
01616              -0.40     6800.00
01617              -0.20     6800.00
01618               0.20     6400.00
01619              -0.60     6200.00
01620              -0.40     6000.00
01621               0.40     5800.00
01622              -0.60     5600.00
01623              -0.20     5400.00
01624               0.00     5000.00
01625               0.20     4800.00
01626               0.20     4600.00
01627              -0.40     4400.00
01628              -0.40     4000.00
01629              -0.40     3800.00
01630              -0.20     3600.00
01631               0.20     3400.00
01632              -0.60     3200.00
01633              -0.40     3000.00
01634               0.20     2800.00
01635               0.20     2400.00
01636              -0.40     2200.00
01637              -0.20     2000.00
01638               0.20     1800.00
01639              -0.40     1400.00
01640              -0.20     1200.00
01641              -0.20      800.00
01642              -0.40      600.00
01643              -0.20      400.00
01644               0.20      200.00
01645               0.40        0.00
01646               2.00     -200.00
01647               0.40     -400.00
01648              -1.40     -600.00
01649               1.00    -1000.00
01650               0.20    -1000.00
01651              -1.40    -1400.00
01652               0.40    -1600.00
01653               2.20    -1800.00
01654              10.20    -2000.00
01655              18.00    -2200.00
01656             -23.00    -2600.00
01657             -25.00    -3200.00
01658              11.80    -3600.00
01659              -8.40    -3800.00
01660               1.80    -3800.00
01661              25.00    -3800.00
01662             -25.00    -4000.00
01663             -10.00    -4200.00
01664              25.00    -4200.00
01665             -25.00    -4800.00
01666             -21.80    -5000.00
01667              25.00    -5200.00
01668             -25.00    -5600.00
01669              -8.00    -5600.00
01670              15.80    -5800.00
01671             -18.80    -6000.00
01672              19.40    -6400.00
01673             -22.00    -6600.00
01674              13.20    -6800.00
01675              25.00    -7000.00
01676             -25.00    -7200.00
01677              18.20    -7400.00
01678              25.00    -7600.00
01679             -25.00    -8000.00
01680              11.80    -8200.00
01681              25.00    -8200.00
01682             -25.00    -8400.00
01683              -4.40    -8800.00
01684              24.40    -9000.00
01685             -13.80    -9000.00
01686              -5.00    -9400.00
01687              13.60    -9400.00
01688              -6.00    -9600.00
01689              -4.60    -9800.00
01690               0.40   -10000.00
01691               2.60   -10000.00
01692               3.40   -10400.00
01693              -6.00   -10400.00
01694               0.20   -10600.00
01695               4.40   -10800.00
01696              -6.00   -10800.00
01697              -3.00   -10800.00
01698               7.60   -11200.00
01699              -1.80   -11200.00
01700              -6.20   -11400.00
01701               5.00   -11400.00
01702               1.00   -11600.00
01703              -6.00   -11800.00
01704               3.40   -12000.00
01705               2.60   -12000.00
01706              -4.00   -12200.00
01707               0.20   -12400.00
01708               0.60   -12400.00
01709              -1.40   -12400.00
01710              -0.20   -12400.00
01711               0.20   -12600.00
01712               0.40   -12400.00
01713              -2.00   -12800.00
01714              -1.20   -12800.00
01715               2.00   -12800.00
01716              -1.40   -12800.00
01717              -0.60   -13000.00
01718               1.00   -13000.00
01719              -1.80   -13200.00
01720              -0.20   -13000.00
01721              -0.20   -13000.00
01722              -0.60   -13200.00
01723              -0.40   -13200.00
01724              -0.60   -13200.00
01725               0.20   -13200.00
01726              -0.40   -13200.00
01727              -1.20   -13200.00
01728              -0.60   -13200.00
01729               0.40   -13200.00
01730              -0.80   -13200.00
01731              -1.80   -13200.00
01732               0.40   -13200.00
01733              -0.40   -13200.00
01734              -1.40   -13200.00
01735               0.40   -13200.00
01736              -1.40   -13000.00
01737              -1.20   -13000.00
01738               1.00   -13200.00
01739              -0.60   -13000.00
01740              -1.40   -13000.00
01741              -0.60   -12800.00
01742              -0.60   -12800.00
01743              -0.60   -12800.00
01744              -0.40   -12600.00
01745              -0.60   -12800.00
01746              -0.80   -12400.00
01747               0.40   -12400.00
01748              -1.20   -12400.00
01749              -0.60   -12200.00
01750               0.00   -12200.00
01751              -0.40   -12200.00
01752               0.40   -12000.00
01753              -0.40   -12000.00
01754              -1.20   -11600.00
01755              -0.40   -11400.00
01756              -0.20   -11400.00
01757              -1.00   -11400.00
01758              -0.60   -11200.00
01759              -0.20   -11000.00
01760              -0.80   -10800.00
01761              -0.60   -10800.00
01762               0.20   -10600.00
01763              -0.60   -10400.00
01764              -0.60   -10200.00
01765               0.20   -10000.00
01766              -0.20   -10000.00
01767              -0.40    -9800.00
01768              -0.40    -9600.00
01769              -0.40    -9600.00
01770              -0.20    -9200.00
01771              -0.40    -9200.00
01772              -0.60    -9000.00
01773              -0.60    -8800.00
01774              -0.40    -8600.00
01775              -0.40    -8400.00
01776              -0.80    -8200.00
01777              -0.60    -8000.00
01778              -0.40    -7600.00
01779              -0.20    -7600.00
01780               0.20    -7200.00
01781              -0.60    -7200.00
01782              -0.60    -6800.00
01783              -0.20    -6600.00
01784              -0.40    -6600.00
01785              -0.40    -6400.00
01786              -0.60    -6000.00
01787              -0.80    -6000.00
01788              -0.60    -5800.00
01789              -1.00    -5400.00
01790              -1.00    -5200.00
01791              -0.60    -5000.00
01792              -0.60    -4600.00
01793              -0.60    -4400.00
01794              -0.20    -4200.00
01795              -0.60    -4000.00
01796              -0.40    -3800.00
01797              -0.20    -3600.00
01798              -0.20    -3200.00
01799              -0.40    -3200.00
01800              -1.20    -2800.00
01801              -0.60    -2600.00
01802              -0.20    -2400.00
01803              -1.00    -2200.00
01804              -0.40    -1800.00
01805              -0.60    -1600.00
01806              -0.60    -1400.00
01807              -0.40    -1000.00
01808              -0.40     -800.00
01809              -0.60     -600.00
01810               0.20     -200.00
01811               0.00        0.00
01812              -0.20      200.00
01813               2.00      400.00
01814               0.40      600.00
01815              -2.00      800.00
01816               0.60     1000.00
01817               0.40     1400.00
01818              -1.40     1400.00
01819               0.60     1800.00
01820               5.00     2000.00
01821              24.40     2200.00
01822              -6.60     2600.00
01823             -25.00     3000.00
01824               1.20     3400.00
01825               2.00     3600.00
01826               9.00     3600.00
01827              25.00     3600.00
01828             -25.00     4000.00
01829              -4.20     3800.00
01830              25.00     4400.00
01831             -25.00     4600.00
01832             -25.00     4800.00
01833              25.00     5400.00
01834             -25.00     5400.00
01835             -18.60     5600.00
01836              25.00     6000.00
01837             -25.00     6200.00
01838              18.20     6400.00
01839             -25.00     6400.00
01840              24.60     6800.00
01841              25.00     7000.00
01842             -25.00     7200.00
01843              25.00     7400.00
01844              25.00     7600.00
01845             -25.00     8000.00
01846              25.00     8200.00
01847              25.00     8400.00
01848             -25.00     8400.00
01849               8.20     8800.00
01850              16.60     8800.00
01851              -7.60     9000.00
01852              -6.00     9200.00
01853               5.20     9400.00
01854               6.20     9600.00
01855              -9.20     9800.00
01856              -8.60    10000.00
01857              13.20    10000.00
01858               3.80    10200.00
01859             -14.00    10400.00
01860               6.00    10400.00
01861               7.60    10800.00
01862             -11.60    10800.00
01863              -2.80    11000.00
01864              14.00    11200.00
01865              -4.40    11200.00
01866             -11.00    11400.00
01867              10.00    11600.00
01868              -0.60    11600.00
01869              -7.80    11800.00
01870               5.20    12000.00
01871               2.40    12000.00
01872              -3.60    12200.00
01873              -1.20    12400.00
01874               2.60    12400.00
01875              -0.60    12600.00
01876              -1.80    12600.00
01877               2.00    12800.00
01878               1.80    12800.00
01879              -3.60    12800.00
01880              -1.40    12800.00
01881               3.40    13200.00
01882              -1.80    13000.00
01883              -1.40    13000.00
01884               2.00    13200.00
01885              -1.40    13200.00
01886              -1.00    13200.00
01887               1.40    13400.00
01888               0.40    13200.00
01889              -0.60    13400.00
01890              -0.20    13400.00
01891               1.40    13400.00
01892              -1.20    13400.00
01893              -1.20    13400.00
01894               1.80    13400.00
01895               0.20    13400.00
01896              -0.60    13400.00
01897              -0.20    13400.00
01898              -0.20    13400.00
01899              -0.60    13400.00
01900              -0.20    13200.00
01901               1.20    13400.00
01902              -0.80    13200.00
01903              -0.60    13400.00
01904               1.20    13200.00
01905               0.20    13200.00
01906              -0.60    13200.00
01907               0.40    13000.00
01908               0.60    13200.00
01909              -0.60    13000.00
01910              -0.60    12800.00
01911               0.00    12800.00
01912              -0.20    12800.00
01913               0.00    12600.00
01914              -0.20    12600.00
01915               0.20    12600.00
01916              -0.40    12400.00
01917              -1.20    12400.00
01918               1.20    12200.00
01919               0.40    12000.00
01920              -2.00    12000.00
01921               0.60    11800.00
01922               0.60    11800.00
01923              -1.80    11600.00
01924               0.40    11600.00
01925               0.40    11200.00
01926              -1.40    11200.00
01927               0.40    11000.00
01928               0.60    11000.00
01929              -1.40    10800.00
01930              -0.40    10600.00
01931               0.60    10200.00
01932              -0.60    10200.00
01933               0.20    10200.00
01934               0.00    10000.00
01935              -1.20     9800.00
01936               0.40     9600.00
01937               0.60     9400.00
01938              -1.00     9200.00
01939              -0.20     9200.00
01940               0.60     9000.00
01941              -0.40     8600.00
01942              -0.60     8400.00
01943               0.20     8400.00
01944              -0.20     8200.00
01945              -1.00     8000.00
01946               0.40     7600.00
01947               0.20     7600.00
01948              -1.40     7200.00
01949               0.20     7000.00
01950               0.60     6800.00
01951              -0.20     6800.00
01952               0.20     6400.00
01953               0.20     6200.00
01954              -0.20     6000.00
01955              -0.40     5800.00
01956              -0.20     5600.00
01957               0.20     5400.00
01958              -0.40     5200.00
01959              -0.20     4800.00
01960               0.40     4600.00
01961              -0.60     4400.00
01962              -0.60     4200.00
01963               0.20     3800.00
01964              -0.20     3600.00
01965              -0.20     3400.00
01966              -0.20     3200.00
01967              -0.60     3000.00
01968               0.40     2800.00
01969               0.40     2400.00
01970              -0.40     2200.00
01971              -0.40     2000.00
01972               0.20     1600.00
01973              -0.60     1400.00
01974              -0.20     1200.00
01975              -0.20      800.00
01976              -0.60      800.00
01977              -0.20      400.00
01978               0.20      200.00
01979               0.60     -200.00
01980               1.20     -200.00
01981               0.40     -400.00
01982              -1.00     -800.00
01983               0.20    -1000.00
01984               0.60    -1000.00
01985              -1.00    -1400.00
01986               0.20    -1600.00
01987               2.60    -1800.00
01988              12.60    -2000.00
01989              15.00    -2400.00
01990             -25.00    -2800.00
01991             -21.80    -3400.00
01992              12.40    -3600.00
01993             -13.00    -3800.00
01994              10.00    -3800.00
01995              25.00    -3800.00
01996             -25.00    -4000.00
01997               5.20    -4200.00
01998              25.00    -4400.00
01999             -25.00    -4800.00
02000              -6.40    -5000.00
02001              25.00    -5400.00
02002             -25.00    -5600.00
02003              -1.60    -5800.00
02004              14.60    -5800.00
02005             -18.80    -6200.00
02006              18.00    -6400.00
02007             -23.00    -6600.00
02008              19.80    -6800.00
02009              22.00    -7000.00
02010             -25.00    -7200.00
02011              25.00    -7400.00
02012              25.00    -7600.00
02013             -25.00    -8000.00
02014              20.80    -8200.00
02015              25.00    -8200.00
02016             -25.00    -8400.00
02017               2.00    -8800.00
02018              22.60    -8800.00
02019             -16.60    -9200.00
02020              -1.60    -9200.00
02021              13.00    -9600.00
02022              -7.80    -9600.00
02023              -4.20    -9600.00
02024               0.60   -10000.00
02025               2.80   -10000.00
02026               3.60   -10200.00
02027              -6.20   -10400.00
02028               0.40   -10400.00
02029               4.40   -10800.00
02030              -6.00   -10800.00
02031              -2.80   -11000.00
02032               8.60   -11000.00
02033              -1.20   -11400.00
02034              -7.80   -11400.00
02035               4.60   -11600.00
02036               1.80   -11800.00
02037              -6.20   -11800.00
02038               2.60   -12000.00
02039               3.60   -12000.00
02040              -4.20   -12200.00
02041              -1.20   -12200.00
02042               1.20   -12400.00
02043              -0.20   -12400.00
02044              -1.40   -12600.00
02045               0.20   -12400.00
02046               1.20   -12600.00
02047              -2.80   -12800.00
02048              -1.40   -12800.00
02049               2.20   -12800.00
02050              -0.60   -13000.00
02051              -2.00   -13000.00
02052              -0.40   -13000.00
02053               0.00   -13200.00
02054              -1.20   -13200.00
02055              -1.20   -13200.00
02056               1.20   -13200.00
02057              -0.60   -13400.00
02058              -2.20   -13200.00
02059               1.00   -13200.00
02060               0.20   -13200.00
02061              -2.20   -13200.00
02062               0.40   -13200.00
02063               1.00   -13200.00
02064              -2.00   -13200.00
02065              -1.00   -13200.00
02066               0.20   -13200.00
02067              -1.20   -13200.00
02068              -0.20   -13200.00
02069               0.60   -13200.00
02070              -1.80   -13200.00
02071              -1.20   -13200.00
02072               0.60   -13200.00
02073              -0.20   -13000.00
02074              -1.40   -13000.00
02075               0.20   -12800.00
02076               0.80   -12800.00
02077              -1.20   -12800.00
02078              -0.80   -12800.00
02079              -0.20   -12600.00
02080              -1.20   -12400.00
02081              -0.20   -12400.00
02082              -0.20   -12400.00
02083              -1.00   -12200.00
02084              -1.20   -12200.00
02085              -0.40   -12000.00
02086               1.00   -12000.00
02087              -0.60   -12000.00
02088              -1.00   -11600.00
02089               1.00   -11600.00
02090              -0.60   -11400.00
02091              -1.40   -11200.00
02092               0.80   -11200.00
02093               0.00   -11000.00
02094              -1.80   -11000.00
02095              -0.20   -10800.00
02096              -0.20   -10800.00
02097              -2.00   -10400.00
02098              -0.60   -10200.00
02099               1.00   -10000.00
02100              -0.60   -10000.00
02101              -1.00    -9800.00
02102               0.20    -9600.00
02103               0.20    -9400.00
02104              -0.60    -9200.00
02105               0.20    -9200.00
02106               0.20    -9000.00
02107              -1.00    -8800.00
02108              -0.60    -8600.00
02109              -0.20    -8400.00
02110              -1.00    -8200.00
02111              -0.80    -8000.00
02112              -0.20    -7800.00
02113              -0.40    -7600.00
02114              -1.00    -7400.00
02115              -0.60    -7200.00
02116              -0.40    -7000.00
02117              -0.60    -6600.00
02118              -0.20    -6400.00
02119               0.20    -6400.00
02120              -0.60    -6000.00
02121              -1.20    -5800.00
02122              -0.20    -5600.00
02123              -0.60    -5400.00
02124              -1.20    -5200.00
02125              -0.40    -5000.00
02126              -0.40    -4600.00
02127              -0.60    -4400.00
02128              -0.60    -4200.00
02129              -0.60    -4000.00
02130              -0.40    -3600.00
02131              -0.80    -3600.00
02132               0.00    -3200.00
02133              -0.40    -3000.00
02134              -0.80    -2800.00
02135              -0.60    -2400.00
02136              -0.40    -2200.00
02137              -0.40    -2000.00
02138              -0.40    -1800.00
02139              -0.60    -1600.00
02140              -0.40    -1200.00
02141               0.20    -1000.00
02142              -1.00     -800.00
02143              -0.40     -600.00
02144               0.20     -200.00
02145              -0.60        0.00
02146               0.40      200.00
02147               2.00      400.00
02148              -0.40      600.00
02149              -1.20      800.00
02150               0.60     1200.00
02151               0.40     1200.00
02152              -0.60     1600.00
02153               1.00     1800.00
02154               5.80     2000.00
02155              25.00     2200.00
02156             -12.20     2800.00
02157             -25.00     3200.00
02158               5.20     3600.00
02159              -0.60     3600.00
02160              15.00     3800.00
02161              25.00     3800.00
02162             -25.00     4000.00
02163              13.20     4000.00
02164              25.00     4400.00
02165             -25.00     4600.00
02166              -6.40     4800.00
02167              25.00     5200.00
02168             -25.00     5400.00
02169              -3.60     5600.00
02170              25.00     6000.00
02171             -25.00     6000.00
02172              19.80     6400.00
02173             -25.00     6600.00
02174              25.00     6800.00
02175              25.00     7000.00
02176             -25.00     7200.00
02177              25.00     7200.00
02178              25.00     7600.00
02179             -25.00     7800.00
02180              25.00     8200.00
02181              23.20     8200.00
02182             -25.00     8600.00
02183              13.00     8600.00
02184              14.00     8800.00
02185              -8.20     9000.00
02186              -5.00     9200.00
02187               6.00     9400.00
02188               5.20     9600.00
02189             -10.20     9600.00
02190              -7.40    10000.00
02191              13.80    10200.00
02192               2.00    10200.00
02193             -13.40    10400.00
02194               7.40    10600.00
02195               5.80    10600.00
02196             -11.80    10800.00
02197              -0.80    11200.00
02198              14.00    11200.00
02199              -6.00    11200.00
02200              -9.40    11400.00
02201              10.60    11600.00
02202              -2.20    11800.00
02203              -7.00    11800.00
02204               5.40    12000.00
02205               2.00    12000.00
02206              -3.80    12200.00
02207              -1.20    12400.00
02208               2.60    12400.00
02209              -1.20    12600.00
02210              -1.40    12600.00
02211               2.60    12800.00
02212               1.40    12800.00
02213              -3.60    12800.00
02214              -0.60    12800.00
02215               3.80    13000.00
02216              -1.40    13000.00
02217              -1.20    13200.00
02218               1.40    13200.00
02219              -1.40    13200.00
02220              -1.00    13400.00
02221               1.00    13400.00
02222               0.40    13400.00
02223              -0.60    13400.00
02224              -0.20    13400.00
02225               1.40    13400.00
02226              -1.00    13400.00
02227              -0.60    13400.00
02228               1.80    13400.00
02229               0.40    13600.00
02230              -0.60    13400.00
02231              -0.60    13400.00
02232               0.20    13400.00
02233               0.00    13400.00
02234              -0.40    13400.00
02235               1.20    13400.00
02236              -1.00    13400.00
02237              -1.40    13200.00
02238               1.20    13200.00
02239               0.20    13200.00
02240              -0.60    13200.00
02241               0.20    13000.00
02242               0.40    13000.00
02243              -0.40    13000.00
02244              -0.60    12800.00
02245              -0.40    12800.00
02246               0.20    12800.00
02247               0.20    12600.00
02248              -0.60    12600.00
02249              -0.40    12400.00
02250               0.20    12400.00
02251              -1.20    12400.00
02252               0.80    12000.00
02253               0.60    12200.00
02254              -1.80    12000.00
02255              -0.20    11800.00
02256               0.60    11800.00
02257              -0.60    11600.00
02258              -0.20    11400.00
02259               0.20    11200.00
02260              -0.20    11200.00
02261              -0.40    11000.00
02262               0.20    10800.00
02263              -0.20    10800.00
02264              -0.60    10600.00
02265               0.20    10400.00
02266              -0.20    10200.00
02267              -0.20    10000.00
02268              -0.60    10000.00
02269              -1.20     9800.00
02270               0.60     9600.00
02271               0.40     9400.00
02272              -1.20     9200.00
02273               0.00     9000.00
02274               0.60     8800.00
02275              -0.40     8600.00
02276              -0.40     8400.00
02277               0.60     8400.00
02278              -0.40     8000.00
02279              -0.60     7800.00
02280               0.60     7800.00
02281              -0.40     7600.00
02282              -0.60     7200.00
02283               0.20     7200.00
02284              -0.40     7000.00
02285              -0.40     6600.00
02286              -0.20     6400.00
02287               0.00     6200.00
02288               0.40     6000.00
02289              -0.20     5600.00
02290               0.00     5600.00
02291               0.40     5200.00
02292              -0.60     5000.00
02293               0.20     4800.00
02294               1.00     4600.00
02295              -1.20     4200.00
02296              -1.00     4000.00
02297               0.60     3800.00
02298              -0.60     3600.00
02299              -1.20     3200.00
02300               0.80     3000.00
02301              -0.20     2800.00
02302              -0.60     2600.00
02303               1.60     2400.00
02304              -1.40     2200.00
02305              -0.40     2000.00
02306               1.40     1600.00
02307              -1.40     1400.00
02308              -0.20     1200.00
02309               0.40      800.00
02310              -2.00      600.00
02311               0.00      400.00
02312               0.20      200.00
02313               0.20     -200.00
02314               2.00     -400.00
02315              -1.00     -400.00
02316              -1.20     -800.00
02317               1.40    -1000.00
02318              -0.60    -1200.00
02319              -0.80    -1400.00
02320               1.80    -1600.00
02321               2.20    -2000.00
02322              14.00    -2000.00
02323              13.00    -2400.00
02324             -25.00    -2800.00
02325             -18.80    -3200.00
02326              13.00    -3800.00
02327             -15.80    -3800.00
02328              17.20    -4000.00
02329              25.00    -3800.00
02330             -25.00    -4000.00
02331              19.60    -4000.00
02332              25.00    -4400.00
02333             -25.00    -4800.00
02334               8.60    -5000.00
02335              25.00    -5200.00
02336             -25.00    -5600.00
02337               5.00    -5600.00
02338               7.80    -5800.00
02339             -13.00    -6200.00
02340              17.60    -6400.00
02341             -25.00    -6600.00
02342              25.00    -6800.00
02343              15.20    -7000.00
02344             -25.00    -7400.00
02345              25.00    -7400.00
02346              25.00    -7600.00
02347             -25.00    -8000.00
02348              25.00    -8200.00
02349              24.60    -8200.00
02350             -25.00    -8400.00
02351               6.80    -8800.00
02352              20.20    -9000.00
02353             -16.60    -9200.00
02354               0.60    -9200.00
02355              11.60    -9600.00
02356              -7.60    -9600.00
02357              -3.40    -9800.00
02358               0.40   -10000.00
02359               3.40   -10000.00
02360               1.80   -10200.00
02361              -6.40   -10400.00
02362               2.20   -10600.00
02363               3.40   -10800.00
02364              -6.60   -10800.00
02365              -0.60   -11000.00
02366               7.20   -11200.00
02367              -3.40   -11200.00
02368              -5.20   -11400.00
02369               5.40   -11600.00
02370              -1.00   -11600.00
02371              -4.40   -12000.00
02372               3.60   -12000.00
02373               0.20   -12000.00
02374              -2.40   -12200.00
02375               0.20   -12200.00
02376              -1.20   -12200.00
02377              -0.60   -12400.00
02378               0.40   -12600.00
02379              -1.20   -12600.00
02380               0.40   -12600.00
02381              -0.80   -12800.00
02382              -1.40   -12800.00
02383               1.00   -12800.00
02384              -0.20   -13000.00
02385              -1.20   -13200.00
02386              -0.60   -13000.00
02387               0.40   -13200.00
02388              -0.60   -13000.00
02389              -2.20   -13200.00
02390               0.40   -13000.00
02391              -1.00   -13200.00
02392              -1.40   -13200.00
02393               0.40   -13200.00
02394              -1.00   -13200.00
02395              -1.00   -13200.00
02396               0.00   -13200.00
02397               0.40   -13200.00
02398              -0.80   -13200.00
02399              -0.60   -13200.00
02400               0.40   -13200.00
02401              -0.60   -13200.00
02402              -0.40   -13200.00
02403              -0.20   -13200.00
02404              -2.00   -13000.00
02405              -0.60   -13200.00
02406              -0.20   -13000.00
02407              -0.60   -13000.00
02408              -0.60   -13000.00
02409              -0.20   -12800.00
02410              -0.20   -12800.00
02411              -0.60   -12800.00
02412              -0.40   -12800.00
02413              -0.20   -12600.00
02414              -0.40   -12600.00
02415               0.20   -12400.00
02416              -1.00   -12400.00
02417              -0.40   -12200.00
02418              -0.60   -12200.00
02419              -1.20   -12200.00
02420               0.60   -12000.00
02421              -0.60   -12000.00
02422              -1.40   -11600.00
02423              -0.20   -11600.00
02424              -0.20   -11600.00
02425              -1.00   -11200.00
02426              -0.20   -11000.00
02427               0.20   -11000.00
02428              -0.60   -10800.00
02429              -0.40   -10800.00
02430              -0.20   -10600.00
02431              -1.20   -10600.00
02432              -0.40   -10200.00
02433               0.00   -10200.00
02434              -1.00   -10000.00
02435              -0.40    -9800.00
02436              -1.00    -9600.00
02437              -1.00    -9600.00
02438              -0.20    -9200.00
02439              -0.40    -9200.00
02440              -0.80    -9000.00
02441              -0.40    -8800.00
02442              -0.60    -8400.00
02443              -0.60    -8400.00
02444              -0.40    -8200.00
02445              -1.00    -8000.00
02446              -0.20    -7600.00
02447               0.00    -7400.00
02448              -1.00    -7400.00
02449              -1.00    -7200.00
02450              -0.40    -6800.00
02451              -0.40    -6800.00
02452              -0.60    -6600.00
02453              -0.40    -6200.00
02454              -0.60    -6000.00
02455              -0.60    -5800.00
02456              -0.60    -5600.00
02457              -0.20    -5200.00
02458              -0.60    -5200.00
02459              -1.00    -4800.00
02460               0.20    -4600.00
02461               0.20    -4600.00
02462              -1.00    -4200.00
02463              -0.60    -4000.00
02464               0.20    -3600.00
02465              -0.60    -3600.00
02466              -0.40    -3200.00
02467              -0.20    -3200.00
02468              -0.60    -2800.00
02469              -1.00    -2400.00
02470              -0.20    -2400.00
02471              -0.20    -2000.00
02472              -0.60    -1800.00
02473              -0.20    -1600.00
02474              -0.20    -1200.00
02475              -0.60    -1000.00
02476              -0.20     -800.00
02477              -0.40     -400.00
02478              -0.40     -200.00
02479               0.20        0.00
02480               0.40      400.00
02481               1.80      400.00
02482              -0.20      800.00
02483              -1.20      800.00
02484               0.40     1200.00
02485               0.40     1400.00
02486              -1.20     1600.00
02487               0.60     1800.00
02488               7.80     2000.00
02489              25.00     2200.00
02490             -18.00     2600.00
02491             -25.00     3200.00
02492               9.00     3400.00
02493              -5.00     3600.00
02494              22.60     3600.00
02495              25.00     3600.00
02496             -25.00     3800.00
02497              25.00     4000.00
02498              25.00     4400.00
02499             -25.00     4800.00
02500              14.80     5200.00
02501              25.00     5400.00
02502             -25.00     5400.00
02503               9.00     5600.00
02504              25.00     6000.00
02505             -24.20     6000.00
02506              19.40     6400.00
02507             -25.00     6800.00
02508              25.00     6800.00
02509              20.20     7000.00
02510             -25.00     7200.00
02511              25.00     7600.00
02512              22.80     7600.00
02513             -25.00     8000.00
02514              25.00     8200.00
02515              12.60     8400.00
02516             -25.00     8600.00
02517              16.40     8800.00
02518              11.60     8800.00
02519              -8.60     9000.00
02520              -3.80     9400.00
02521               6.80     9600.00
02522               4.60     9600.00
02523             -10.80     9800.00
02524              -5.40     9800.00
02525              14.60    10200.00
02526              -0.80    10400.00
02527             -13.00    10400.00
02528               9.00    10600.00
02529               3.80    10800.00
02530             -12.60    11000.00
02531               1.40    11200.00
02532              13.80    11200.00
02533              -8.60    11400.00
02534              -7.40    11600.00
02535              11.40    11600.00
02536              -3.60    11800.00
02537              -5.80    12000.00
02538               6.00    12000.00
02539               1.40    12000.00
02540              -4.20    12000.00
02541              -0.40    12400.00
02542               2.60    12400.00
02543              -1.60    12400.00
02544              -1.40    12600.00
02545               2.60    12800.00
02546               0.60    12800.00
02547              -3.60    12800.00
02548               0.20    12800.00
02549               3.40    13000.00
02550              -2.00    13200.00
02551              -0.40    13200.00
02552               1.80    13200.00
02553              -1.60    13200.00
02554              -0.60    13200.00
02555               1.20    13200.00
02556               0.20    13400.00
02557              -1.20    13400.00
02558               0.20    13400.00
02559               1.20    13400.00
02560              -1.80    13400.00
02561              -0.60    13400.00
02562               1.20    13600.00
02563               0.20    13400.00
02564              -0.40    13400.00
02565              -1.20    13400.00
02566               0.40    13400.00
02567               0.20    13400.00
02568              -0.80    13400.00
02569               1.20    13400.00
02570              -0.60    13200.00
02571              -1.20    13200.00
02572               1.00    13200.00
02573               0.20    13200.00
02574              -1.20    13200.00
02575              -0.20    13000.00
02576               0.60    13200.00
02577              -1.20    13000.00
02578              -0.60    12800.00
02579               0.40    12800.00
02580              -0.40    12600.00
02581               0.00    12800.00
02582               0.20    12600.00
02583              -0.40    12400.00
02584              -0.40    12400.00
02585              -0.40    12400.00
02586               0.60    12000.00
02587              -0.20    12000.00
02588              -1.00    12000.00
02589              -0.20    12000.00
02590              -0.20    11600.00
02591              -0.60    11600.00
02592              -0.40    11400.00
02593              -0.20    11200.00
02594              -0.40    11200.00
02595               0.20    11000.00
02596               0.40    10800.00
02597              -0.40    10600.00
02598              -0.40    10600.00
02599               0.20    10400.00
02600               0.20    10200.00
02601              -0.20    10000.00
02602              -0.80    10000.00
02603               0.20     9800.00
02604               0.20     9600.00
02605              -1.00     9400.00
02606              -0.20     9200.00
02607              -0.20     9200.00
02608              -1.00     8800.00
02609               0.60     8800.00
02610              -0.20     8600.00
02611              -0.60     8400.00
02612               0.40     8200.00
02613               0.40     7800.00
02614               0.20     7600.00
02615              -0.40     7600.00
02616              -0.20     7200.00
02617              -0.20     7000.00
02618              -0.60     6800.00
02619              -0.20     6800.00
02620              -0.20     6400.00
02621              -1.00     6200.00
02622               0.20     6000.00
02623              -0.20     5600.00
02624              -0.40     5600.00
02625               0.00     5400.00
02626               0.40     5000.00
02627               0.00     4800.00
02628               0.20     4600.00
02629              -0.20     4400.00
02630              -0.40     4000.00
02631              -0.60     3600.00
02632              -0.40     3600.00
02633               0.20     3200.00
02634              -1.20     3000.00
02635              -0.60     3000.00
02636               0.40     2800.00
02637              -0.40     2400.00
02638              -1.00     2200.00
02639               0.40     1800.00
02640              -0.20     1600.00
02641              -0.60     1400.00
02642              -0.20     1000.00
02643              -0.20      800.00
02644              -0.60      600.00
02645               0.20      400.00
02646               0.20        0.00
02647               0.20     -200.00
02648               1.40     -400.00
02649              -0.40     -600.00
02650              -1.20     -800.00
02651               0.40    -1000.00
02652               0.20    -1000.00
02653              -1.20    -1600.00
02654               0.40    -1800.00
02655               3.60    -1800.00
02656              15.40    -2000.00
02657              10.00    -2400.00
02658             -25.00    -2800.00
02659             -15.40    -3200.00
02660              13.80    -3600.00
02661             -18.40    -4000.00
02662              24.20    -3800.00
02663              25.00    -3800.00
02664             -25.00    -4000.00
02665              25.00    -4200.00
02666              25.00    -4400.00
02667             -25.00    -4800.00
02668              21.00    -5000.00
02669              25.00    -5200.00
02670             -25.00    -5400.00
02671               9.40    -5800.00
02672               3.00    -6000.00
02673              -8.40    -6200.00
02674              15.60    -6400.00
02675             -25.00    -6600.00
02676              25.00    -6800.00
02677               6.80    -7200.00
02678             -25.00    -7200.00
02679              25.00    -7600.00
02680              14.60    -7800.00
02681             -25.00    -8000.00
02682              25.00    -8200.00
02683              17.80    -8400.00
02684             -25.00    -8400.00
02685              12.20    -8800.00
02686              15.80    -9000.00
02687             -17.80    -9200.00
02688               3.80    -9400.00
02689               9.80    -9600.00
02690              -8.20    -9600.00
02691              -2.00    -9800.00
02692               0.40    -9800.00
02693               3.80   -10000.00
02694               1.00   -10400.00
02695              -6.60   -10400.00
02696               3.60   -10600.00
02697               2.20   -10800.00
02698              -7.60   -10800.00
02699               0.20   -11200.00
02700               7.00   -11400.00
02701              -5.00   -11400.00
02702              -4.60   -11400.00
02703               5.60   -11600.00
02704              -1.80   -11800.00
02705              -4.40   -12000.00
02706               3.80   -12000.00
02707               0.80   -12200.00
02708              -3.60   -12200.00
02709               0.60   -12400.00
02710               0.20   -12400.00
02711              -1.80   -12400.00
02712              -0.80   -12400.00
02713               0.20   -12800.00
02714              -0.20   -12600.00
02715              -2.60   -12800.00
02716              -0.20   -12800.00
02717               1.20   -13000.00
02718              -1.40   -13000.00
02719              -0.40   -13200.00
02720              -0.20   -13200.00
02721              -0.60   -13200.00
02722              -0.40   -13000.00
02723              -0.40   -13200.00
02724              -0.20   -13200.00
02725              -1.00   -13200.00
02726              -0.60   -13200.00
02727              -0.20   -13200.00
02728              -1.20   -13200.00
02729              -0.60   -13200.00
02730               0.20   -13200.00
02731              -0.20   -13200.00
02732              -1.20   -13200.00
02733              -0.60   -13200.00
02734               0.40   -13200.00
02735              -0.40   -13200.00
02736               0.20   -13200.00
02737               0.20   -13200.00
02738              -1.80   -13200.00
02739              -0.60   -13200.00
02740               0.40   -13000.00
02741              -1.00   -13000.00
02742              -0.80   -12800.00
02743               0.20   -12800.00
02744              -0.20   -13000.00
02745              -1.20   -12800.00
02746              -0.20   -12800.00
02747              -0.20   -12800.00
02748              -0.60   -12400.00
02749               0.60   -12400.00
02750              -0.60   -12400.00
02751              -1.20   -12200.00
02752               0.20   -12200.00
02753              -0.20   -12000.00
02754              -0.60   -12000.00
02755              -0.60   -11800.00
02756              -0.60   -11600.00
02757              -0.80   -11600.00
02758              -0.20   -11400.00
02759              -0.60   -11400.00
02760              -1.00   -11000.00
02761               0.00   -11000.00
02762              -0.60   -10800.00
02763              -0.60   -10600.00
02764              -0.20   -10600.00
02765              -1.40   -10600.00
02766              -0.40   -10400.00
02767               0.20   -10000.00
02768              -1.20    -9800.00
02769              -0.60    -9800.00
02770              -0.40    -9600.00
02771              -1.20    -9600.00
02772              -0.60    -9200.00
02773               0.20    -9200.00
02774              -1.00    -9000.00
02775              -1.60    -8800.00
02776               0.60    -8400.00
02777              -0.60    -8400.00
02778              -2.00    -8200.00
02779               0.60    -8000.00
02780              -0.20    -8000.00
02781              -1.40    -7600.00
02782               0.40    -7400.00
02783              -0.60    -7200.00
02784              -1.80    -7000.00
02785               0.40    -6600.00
02786              -0.40    -6400.00
02787              -1.20    -6200.00
02788               0.20    -6000.00
02789              -0.60    -5800.00
02790              -1.20    -5600.00
02791              -0.40    -5200.00
02792              -0.60    -5200.00
02793              -1.20    -5000.00
02794               0.20    -4600.00
02795              -0.40    -4600.00
02796              -1.00    -4200.00
02797              -0.40    -4000.00
02798              -0.40    -3800.00
02799              -0.40    -3600.00
02800               0.20    -3200.00
02801              -0.20    -3000.00
02802              -0.40    -2800.00
02803              -0.60    -2600.00
02804              -0.40    -2400.00
02805              -0.20    -2000.00
02806              -1.00    -1800.00
02807              -0.60    -1600.00
02808              -0.20    -1200.00
02809              -0.60    -1000.00
02810              -0.20     -800.00
02811              -0.40     -400.00
02812              -0.20     -200.00
02813               0.20     -200.00
02814               0.40      200.00
02815               2.00      400.00
02816               0.20      600.00
02817              -1.20      800.00
02818               0.60     1200.00
02819               0.40     1200.00
02820              -1.20     1600.00
02821               0.40     1800.00
02822               9.20     2000.00
02823              24.60     2400.00
02824             -23.40     2600.00
02825             -25.00     3200.00
02826              11.20     3400.00
02827              -7.80     3600.00
02828              25.00     3600.00
02829              25.00     3800.00
02830             -25.00     3800.00
02831              25.00     4200.00
02832              25.00     4400.00
02833             -25.00     4800.00
02834              25.00     5200.00
02835              25.00     5400.00
02836             -25.00     5400.00
02837              19.40     5600.00
02838              18.20     6000.00
02839             -21.20     6000.00
02840              17.00     6400.00
02841             -25.00     6600.00
02842              25.00     6600.00
02843               6.00     7000.00
02844             -25.00     7200.00
02845              25.00     7600.00
02846               6.00     7800.00
02847             -25.00     8000.00
02848              25.00     8400.00
02849               1.20     8400.00
02850             -25.00     8400.00
02851              19.40     8800.00
02852               8.40     8800.00
02853              -8.60     9000.00
02854              -2.80     9200.00
02855               7.60     9400.00
02856               2.80     9600.00
02857             -11.40     9800.00
02858              -2.60    10000.00
02859              14.80    10200.00
02860              -3.40    10400.00
02861             -11.00    10400.00
02862              10.40    10400.00
02863               2.00    10800.00
02864             -12.40    11000.00
02865               3.00    11000.00
02866              13.00    11000.00
02867             -10.20    11200.00
02868              -5.60    11600.00
02869              10.60    11600.00
02870              -5.20    11800.00
02871              -4.40    11800.00
02872               6.20    12000.00
02873               0.40    12200.00
02874              -4.00    12000.00
02875               0.20    12400.00
02876               2.60    12400.00
02877              -1.80    12600.00
02878              -0.60    12600.00
02879               2.80    12600.00
02880               0.20    12800.00
02881              -3.80    12800.00
02882               0.40    12800.00
02883               2.80    13000.00
02884              -2.00    13200.00
02885              -0.60    13200.00
02886               1.40    13200.00
02887              -1.80    13200.00
02888              -0.40    13200.00
02889               1.40    13200.00
02890               0.20    13400.00
02891              -1.40    13400.00
02892               0.60    13400.00
02893               1.00    13400.00
02894              -2.00    13400.00
02895               0.00    13200.00
02896               1.20    13400.00
02897              -0.60    13400.00
02898              -0.60    13400.00
02899              -1.20    13400.00
02900              -0.20    13400.00
02901               0.20    13400.00
02902              -0.60    13200.00
02903               1.20    13200.00
02904              -1.20    13400.00
02905              -1.00    13200.00
02906               1.40    13200.00
02907              -0.20    13200.00
02908              -0.60    13200.00
02909               0.40    13200.00
02910               0.40    13000.00
02911              -1.00    12800.00
02912              -0.40    12800.00
02913              -0.20    12800.00
02914              -0.80    12800.00
02915               0.20    12600.00
02916               0.20    12600.00
02917              -0.60    12400.00
02918              -0.40    12400.00
02919               0.20    12400.00
02920               0.60    12200.00
02921              -0.20    12000.00
02922              -0.20    12000.00
02923               0.20    11800.00
02924               0.00    11800.00
02925               0.20    11600.00
02926              -0.40    11400.00
02927              -0.60    11200.00
02928               0.20    11200.00
02929              -0.20    11000.00
02930              -0.60    10800.00
02931               0.20    10800.00
02932              -0.40    10600.00
02933               0.20    10400.00
02934               0.20    10200.00
02935              -0.20    10200.00
02936               0.00    10000.00
02937               0.40     9800.00
02938              -0.60     9600.00
02939               0.40     9400.00
02940               0.00     9200.00
02941              -1.40     9200.00
02942               0.40     8800.00
02943               0.20     8800.00
02944              -1.80     8400.00
02945              -0.20     8400.00
02946               0.40     8200.00
02947              -1.20     7800.00
02948               0.60     7600.00
02949               0.60     7400.00
02950              -1.20     7200.00
02951               0.20     7000.00
02952               1.00     6800.00
02953              -0.60     6600.00
02954              -0.40     6400.00
02955              -0.20     6000.00
02956              -0.20     6000.00
02957              -1.20     5600.00
02958              -0.40     5600.00
02959              -0.20     5200.00
02960              -0.40     5000.00
02961              -0.20     4800.00
02962               0.20     4400.00
02963              -0.40     4200.00
02964              -0.60     4000.00
02965              -0.40     3600.00
02966               0.00     3600.00
02967              -0.20     3200.00
02968              -1.00     3000.00
02969              -0.40     2800.00
02970               0.20     2600.00
02971              -0.60     2400.00
02972              -0.60     2000.00
02973               0.20     2000.00
02974              -0.60     1600.00
02975              -0.60     1400.00
02976               0.00     1000.00
02977              -0.60      800.00
02978              -0.60      600.00
02979              -0.40      400.00
02980              -0.20        0.00
02981               0.40     -200.00
02982               1.80     -400.00
02983              -0.60     -600.00
02984              -1.20     -800.00
02985               1.40    -1000.00
02986               0.20    -1200.00
02987              -2.20    -1400.00
02988               1.80    -1600.00
02989               6.00    -1800.00
02990              14.20    -2000.00
02991               4.60    -2400.00
02992             -25.00    -2800.00
02993             -11.80    -3400.00
02994              10.00    -3800.00
02995             -16.40    -4000.00
02996              25.00    -3600.00
02997              22.20    -3600.00
02998             -25.00    -4000.00
02999              25.00    -4200.00
03000              25.00    -4400.00
03001             -25.00    -4800.00
03002              25.00    -5200.00
03003              25.00    -5400.00
03004             -25.00    -5600.00
03005              16.20    -5600.00
03006              -2.60    -6000.00
03007              -4.40    -6200.00
03008              12.40    -6400.00
03009             -25.00    -6600.00
03010              25.00    -6800.00
03011              -1.60    -7000.00
03012             -25.00    -7200.00
03013              25.00    -7400.00
03014               5.00    -7800.00
03015             -25.00    -8000.00
03016              25.00    -8200.00
03017              12.60    -8200.00
03018             -25.00    -8400.00
03019              15.80    -8800.00
03020              13.80    -8800.00
03021             -19.40    -9200.00
03022               6.00    -9200.00
03023               8.40    -9400.00
03024              -9.00    -9600.00
03025              -2.20    -9800.00
03026               0.20   -10000.00
03027               4.00   -10000.00
03028               1.00   -10400.00
03029              -6.00   -10400.00
03030               3.60   -10600.00
03031               1.40   -10800.00
03032              -6.80   -10800.00
03033               1.00   -11000.00
03034               6.40   -11200.00
03035              -4.40   -11400.00
03036              -3.80   -11400.00
03037               3.80   -11600.00
03038              -2.80   -11800.00
03039              -3.00   -12000.00
03040               3.40   -12000.00
03041              -0.60   -12200.00
03042              -2.20   -12200.00
03043               1.20   -12200.00
03044              -1.80   -12400.00
03045              -0.60   -12400.00
03046               1.40   -12400.00
03047              -0.40   -12600.00
03048              -1.00   -12400.00
03049              -1.20   -12800.00
03050              -0.40   -12800.00
03051               0.00   -12800.00
03052              -0.80   -13000.00
03053               0.40   -13000.00
03054              -0.80   -13000.00
03055              -1.20   -13200.00
03056               0.60   -13000.00
03057              -0.60   -13200.00
03058              -0.60   -13000.00
03059               0.20   -13200.00
03060               0.00   -13200.00
03061              -0.60   -13200.00
03062              -1.00   -13200.00
03063              -0.20   -13200.00
03064               0.00   -13400.00
03065              -0.40   -13200.00
03066              -1.40   -13200.00
03067              -1.00   -13200.00
03068               0.40   -13200.00
03069              -0.60   -13200.00
03070               0.20   -13200.00
03071               0.20   -13200.00
03072              -1.40   -13200.00
03073              -0.60   -13000.00
03074               0.40   -13200.00
03075              -0.40   -13000.00
03076              -0.60   -12800.00
03077               0.20   -13000.00
03078              -0.60   -12800.00
03079              -1.40   -12600.00
03080              -0.20   -12800.00
03081              -0.60   -12600.00
03082              -0.20   -12600.00
03083               0.20   -12400.00
03084              -1.00   -12400.00
03085              -0.60   -12200.00
03086              -0.40   -12200.00
03087              -1.00   -12000.00
03088               0.20   -11800.00
03089              -0.60   -12000.00
03090              -1.40   -11600.00
03091              -0.40   -11400.00
03092              -0.40   -11400.00
03093              -1.00   -11000.00
03094              -0.40   -11200.00
03095              -0.20   -11000.00
03096              -1.00   -10800.00
03097              -0.20   -10800.00
03098              -0.20   -10600.00
03099              -1.20   -10400.00
03100              -0.40   -10400.00
03101              -0.60   -10000.00
03102              -1.00   -10000.00
03103              -0.60    -9800.00
03104              -0.60    -9600.00
03105              -0.40    -9400.00
03106              -0.60    -9200.00
03107              -0.40    -9200.00
03108              -0.20    -8800.00
03109              -0.60    -8800.00
03110              -0.40    -8400.00
03111              -0.60    -8400.00
03112              -1.20    -8200.00
03113              -0.60    -8000.00
03114               0.20    -7600.00
03115              -0.20    -7400.00
03116              -0.60    -7200.00
03117              -1.20    -7200.00
03118              -0.60    -6800.00
03119              -0.20    -6800.00
03120              -0.80    -6600.00
03121               0.00    -6200.00
03122              -0.20    -6000.00
03123              -0.80    -6000.00
03124               0.20    -5600.00
03125              -0.40    -5400.00
03126              -1.00    -5200.00
03127              -0.40    -4800.00
03128              -0.20    -4600.00
03129              -0.60    -4400.00
03130              -0.40    -4200.00
03131              -0.60    -4000.00
03132              -1.20    -3600.00
03133               0.20    -3600.00
03134               0.20    -3200.00
03135              -1.00    -3000.00
03136               0.40    -2600.00
03137              -0.20    -2400.00
03138              -0.60    -2200.00
03139               0.20    -2000.00
03140              -1.00    -1800.00
03141              -0.60    -1600.00
03142               0.40    -1200.00
03143              -1.00    -1000.00
03144              -0.60     -800.00
03145              -0.40     -400.00
03146              -0.60     -200.00
03147              -0.20        0.00
03148               0.40      200.00
03149               2.60      400.00
03150              -0.60      600.00
03151              -1.40     1000.00
03152               2.00     1200.00
03153               0.20     1400.00
03154              -1.80     1600.00
03155               1.80     1800.00
03156              10.80     2000.00
03157              22.80     2400.00
03158             -25.00     2800.00
03159             -25.00     3000.00
03160              12.60     3400.00
03161             -10.20     3600.00
03162              25.00     3800.00
03163              25.00     3800.00
03164             -25.00     3800.00
03165              25.00     4200.00
03166              25.00     4400.00
03167             -25.00     4800.00
03168              25.00     5000.00
03169              25.00     5200.00
03170             -25.00     5400.00
03171              25.00     5800.00
03172              10.00     6000.00
03173             -16.60     6200.00
03174              13.00     6200.00
03175             -25.00     6600.00
03176              25.00     6800.00
03177              -9.60     7000.00
03178             -25.00     7200.00
03179              25.00     7600.00
03180             -10.80     7800.00
03181             -25.00     8000.00
03182              25.00     8200.00
03183              -9.40     8400.00
03184             -25.00     8600.00
03185              21.80     8800.00
03186               5.20     8800.00
03187              -8.80     9000.00
03188              -1.80     9200.00
03189               7.60     9600.00
03190               2.00     9600.00
03191             -11.80     9800.00
03192              -1.20    10000.00
03193              14.80    10200.00
03194              -5.40    10200.00
03195              -9.60    10400.00
03196              11.40    10600.00
03197              -0.20    10800.00
03198             -12.20    11000.00
03199               6.00    11200.00
03200              11.40    11200.00
03201             -11.60    11600.00
03202              -2.60    11600.00
03203              10.60    11600.00
03204              -6.80    11800.00
03205              -3.00    11800.00
03206               6.00    12000.00
03207              -0.40    12000.00
03208              -3.20    12400.00
03209               0.40    12200.00
03210               2.00    12400.00
03211              -1.80    12400.00
03212              -0.60    12600.00
03213               2.60    12800.00
03214               0.40    12800.00
03215              -3.80    12800.00
03216               0.80    12800.00
03217               2.80    13000.00
03218              -2.60    13000.00
03219              -0.20    13200.00
03220               1.00    13200.00
03221              -1.80    13400.00
03222              -0.60    13200.00
03223               0.80    13400.00
03224              -0.40    13400.00
03225              -1.40    13400.00
03226               0.20    13400.00
03227               1.00    13400.00
03228              -1.80    13400.00
03229              -0.20    13400.00
03230               1.80    13600.00
03231              -0.40    13400.00
03232              -0.60    13400.00
03233              -0.40    13200.00
03234               0.20    13400.00
03235              -0.60    13400.00
03236              -0.20    13400.00
03237               0.80    13400.00
03238              -1.60    13400.00
03239              -1.00    13200.00
03240               1.20    13200.00
03241              -0.40    13200.00
03242              -1.00    13200.00
03243               0.60    13200.00
03244               1.00    13000.00
03245              -1.20    13000.00
03246               0.00    12800.00
03247               0.40    12800.00
03248              -1.00    12600.00
03249               0.20    12600.00
03250              -0.20    12600.00
03251              -1.00    12400.00
03252              -0.60    12400.00
03253              -0.20    12400.00
03254               0.40    12200.00
03255              -0.20    12000.00
03256              -0.60    12000.00
03257               0.20    11800.00
03258               0.40    11800.00
03259               0.20    11600.00
03260              -0.20    11400.00
03261              -0.60    11400.00
03262               0.60    11200.00
03263              -0.20    11000.00
03264              -0.60    10800.00
03265              -0.40    10800.00
03266               0.20    10400.00
03267              -0.20    10400.00
03268              -0.80    10400.00
03269               1.20    10000.00
03270              -0.40    10000.00
03271              -1.40     9600.00
03272               1.20     9600.00
03273               1.00     9400.00
03274              -1.20     9200.00
03275              -0.60     9200.00
03276               2.00     8800.00
03277              -0.80     8800.00
03278              -1.60     8600.00
03279               0.40     8200.00
03280               0.40     8200.00
03281              -0.80     7800.00
03282              -0.60     7600.00
03283               0.40     7200.00
03284               0.20     7400.00
03285              -2.20     7000.00
03286               0.60     6800.00
03287               1.20     6600.00
03288              -2.20     6200.00
03289              -0.60     6200.00
03290               1.80     5800.00
03291              -1.20     5600.00
03292              -0.60     5400.00
03293              -0.60     5200.00
03294              -0.40     4800.00
03295               0.40     4800.00
03296              -0.80     4400.00
03297              -1.00     4400.00
03298               0.60     4000.00
03299              -1.00     3600.00
03300              -1.20     3600.00
03301               0.60     3200.00
03302              -0.60     3000.00
03303              -0.60     2800.00
03304               0.20     2600.00
03305              -0.40     2200.00
03306              -0.60     2000.00
03307               0.20     1800.00
03308              -0.20     1600.00
03309              -0.20     1400.00
03310               0.20     1000.00
03311              -0.60      800.00
03312              -1.20      600.00
03313               0.60      200.00
03314               0.40        0.00
03315              -0.20     -200.00
03316               2.20     -400.00
03317              -0.40     -400.00
03318              -2.20     -800.00
03319               0.60    -1200.00
03320               1.20    -1000.00
03321              -2.20    -1600.00
03322               1.40    -1600.00
03323               6.60    -2000.00
03324              16.40    -2000.00
03325               2.20    -2400.00
03326             -25.00    -3000.00
03327              -9.00    -3600.00
03328              11.40    -3600.00
03329             -19.60    -4000.00
03330              25.00    -3600.00
03331              16.20    -3600.00
03332             -25.00    -4200.00
03333              25.00    -4400.00
03334              25.00    -4600.00
03335             -25.00    -4800.00
03336              25.00    -5000.00
03337              25.00    -5400.00
03338             -25.00    -5600.00
03339              18.20    -5800.00
03340              -6.60    -6000.00
03341               0.20    -6400.00
03342               8.60    -6400.00
03343             -25.00    -6800.00
03344              25.00    -6800.00
03345             -13.00    -7200.00
03346             -25.00    -7200.00
03347              25.00    -7600.00
03348              -7.40    -8000.00
03349             -25.00    -8000.00
03350              25.00    -8400.00
03351               2.00    -8400.00
03352             -25.00    -8400.00
03353              20.60    -8800.00
03354               8.60    -9000.00
03355             -18.00    -9200.00
03356               8.40    -9200.00
03357               6.00    -9600.00
03358              -9.20    -9600.00
03359              -1.60    -9800.00
03360               0.80   -10000.00
03361               4.00   -10000.00
03362              -1.00   -10400.00
03363              -6.00   -10600.00
03364               4.60   -10800.00
03365               0.40   -10600.00
03366              -6.80   -11000.00
03367               2.60   -11000.00
03368               6.20   -11200.00
03369              -6.20   -11400.00
03370              -2.80   -11400.00
03371               5.40   -11600.00
03372              -3.60   -11600.00
03373              -3.00   -12000.00
03374               4.20   -12000.00
03375              -0.60   -12200.00
03376              -3.00   -12200.00
03377               1.00   -12200.00
03378              -0.20   -12400.00
03379              -0.60   -12400.00
03380               0.00   -12400.00
03381               0.20   -12800.00
03382              -0.40   -12800.00
03383              -2.20   -12800.00
03384               0.20   -13000.00
03385               1.20   -12800.00
03386              -1.40   -13000.00
03387              -0.60   -13000.00
03388              -0.20   -13000.00
03389              -0.40   -13000.00
03390              -0.60   -13200.00
03391              -0.60   -13200.00
03392               0.40   -13200.00
03393              -1.00   -13200.00
03394              -0.60   -13400.00
03395               0.40   -13200.00
03396              -1.00   -13200.00
03397              -0.40   -13200.00
03398               0.40   -13200.00
03399               0.00   -13200.00
03400              -1.20   -13200.00
03401              -0.60   -13200.00
03402               0.60   -13200.00
03403              -0.40   -13200.00
03404              -0.40   -13200.00
03405              -0.20   -13000.00
03406              -1.20   -13000.00
03407              -0.60   -13000.00
03408               0.00   -13000.00
03409              -0.40   -13000.00
03410              -1.00   -13000.00
03411              -0.20   -13000.00
03412              -0.20   -12800.00
03413              -1.40   -12800.00
03414              -0.40   -12600.00
03415              -0.20   -12600.00
03416              -0.20   -12600.00
03417               0.20   -12400.00
03418              -1.20   -12400.00
03419              -0.60   -12200.00
03420              -0.20   -12200.00
03421              -1.20   -12000.00
03422              -0.60   -12000.00
03423              -1.00   -11600.00
03424              -1.20   -11800.00
03425              -0.40   -11600.00
03426              -1.00   -11400.00
03427              -0.60   -11200.00
03428              -0.60   -11000.00
03429              -0.40   -10800.00
03430              -0.40   -10800.00
03431              -0.60   -10600.00
03432              -0.60   -10400.00
03433              -0.60   -10400.00
03434              -0.60   -10200.00
03435              -0.60   -10000.00
03436              -0.60    -9800.00
03437              -1.20    -9800.00
03438              -1.20    -9600.00
03439              -0.60    -9400.00
03440              -0.40    -9200.00
03441              -0.60    -9000.00
03442              -0.40    -9000.00
03443              -0.60    -8800.00
03444              -0.20    -8400.00
03445              -0.40    -8200.00
03446              -0.60    -8200.00
03447              -0.20    -8000.00
03448              -0.20    -7800.00
03449              -0.60    -7400.00
03450              -0.60    -7400.00
03451              -1.00    -7000.00
03452              -1.20    -6800.00
03453              -0.40    -6800.00
03454              -0.20    -6400.00
03455              -0.60    -6200.00
03456              -0.60    -6000.00
03457              -0.20    -5800.00
03458              -0.40    -5600.00
03459              -0.40    -5200.00
03460              -0.20    -5000.00
03461              -0.40    -4600.00
03462              -0.40    -4600.00
03463              -0.40    -4400.00
03464              -0.60    -4200.00
03465              -0.80    -4000.00
03466              -0.60    -3600.00
03467              -0.20    -3400.00
03468              -0.20    -3000.00
03469              -0.60    -2800.00
03470              -0.60    -2600.00
03471              -0.60    -2400.00
03472              -0.20    -2200.00
03473              -0.60    -2000.00
03474              -0.20    -1800.00
03475              -0.40    -1600.00
03476              -0.40    -1200.00
03477              -0.40    -1000.00
03478              -0.60     -800.00
03479              -0.60     -600.00
03480              -0.60     -200.00
03481              -0.20        0.00
03482               0.20      400.00
03483               1.40      600.00
03484              -1.20      600.00
03485              -0.80      800.00
03486               0.60     1200.00
03487              -0.40     1400.00
03488              -1.00     1600.00
03489               1.40     1800.00
03490              13.00     2000.00
03491              21.00     2400.00
03492             -25.00     2800.00
03493             -25.00     3200.00
03494              13.20     3600.00
03495             -11.80     3600.00
03496              25.00     3800.00
03497              13.80     3800.00
03498             -25.00     3800.00
03499              25.00     4200.00
03500              25.00     4400.00
03501             -25.00     4800.00
03502              25.00     5200.00
03503              25.00     5400.00
03504             -25.00     5600.00
03505              25.00     6000.00
03506               2.60     6000.00
03507             -11.60     6000.00
03508               8.40     6400.00
03509             -25.00     6600.00
03510              25.00     6800.00
03511             -25.00     7000.00
03512             -25.00     7200.00
03513              25.00     7600.00
03514             -25.00     7800.00
03515             -25.00     8000.00
03516              25.00     8200.00
03517             -19.00     8400.00
03518             -25.00     8600.00
03519              23.00     8600.00
03520               3.00     9000.00
03521              -8.60     9200.00
03522              -0.60     9200.00
03523               8.40     9600.00
03524               0.80     9600.00
03525             -11.80    10000.00
03526               1.20    10000.00
03527              14.00    10200.00
03528              -7.20    10400.00
03529              -7.80    10400.00
03530              11.60    10600.00
03531              -2.20    10800.00
03532             -11.60    11000.00
03533               7.40    11000.00
03534              10.20    11200.00
03535             -12.60    11400.00
03536              -0.60    11600.00
03537              10.20    11800.00
03538              -7.60    11800.00
03539              -1.80    12000.00
03540               6.60    12000.00
03541              -1.20    12200.00
03542              -3.80    12200.00
03543               1.00    12200.00
03544               1.20    12400.00
03545              -2.60    12400.00
03546               0.00    12600.00
03547               2.20    12600.00
03548              -1.00    12800.00
03549              -3.60    12800.00
03550               1.60    13000.00
03551               2.40    12800.00
03552              -2.60    13200.00
03553               0.40    13200.00
03554               1.40    13200.00
03555              -2.20    13200.00
03556              -0.40    13200.00
03557               1.20    13400.00
03558              -0.40    13400.00
03559              -1.80    13400.00
03560               0.40    13400.00
03561               0.60    13400.00
03562              -2.20    13400.00
03563               0.20    13400.00
03564               1.40    13400.00
03565              -0.20    13400.00
03566              -0.20    13400.00
03567              -0.40    13400.00
03568               0.20    13600.00
03569              -0.40    13600.00
03570               0.20    13400.00
03571               1.00    13400.00
03572              -1.80    13400.00
03573              -0.60    13200.00
03574               1.20    13200.00
03575              -0.60    13200.00
03576              -1.00    13200.00
03577               1.00    13000.00
03578               0.60    13000.00
03579              -1.20    12800.00
03580               0.40    13000.00
03581               0.20    12800.00
03582              -0.60    12600.00
03583               0.80    12600.00
03584              -0.20    12600.00
03585              -0.40    12400.00
03586              -0.60    12400.00
03587              -0.40    12400.00
03588               1.00    12000.00
03589              -0.40    12000.00
03590              -0.60    11800.00
03591               0.40    12000.00
03592              -0.20    11800.00
03593              -0.40    11600.00
03594               0.40    11400.00
03595               0.20    11200.00
03596              -0.40    11200.00
03597               0.20    11000.00
03598               0.20    10800.00
03599              -0.80    10800.00
03600              -0.20    10400.00
03601               1.00    10400.00
03602               0.00    10200.00
03603              -0.60    10000.00
03604              -0.40    10000.00
03605              -0.40     9800.00
03606               0.40     9400.00
03607              -0.40     9400.00
03608              -0.60     9200.00
03609              -0.40     9200.00
03610               0.20     8800.00
03611              -0.40     8800.00
03612              -0.40     8400.00
03613              -0.20     8400.00
03614              -0.60     8000.00
03615               0.40     7800.00
03616               0.40     7600.00
03617              -1.80     7400.00
03618               0.20     7200.00
03619               0.40     7000.00
03620              -1.00     6800.00
03621               0.00     6600.00
03622              -0.20     6400.00
03623              -1.40     6000.00
03624               0.20     6000.00
03625              -0.40     5800.00
03626              -0.60     5400.00
03627               0.40     5200.00
03628              -0.20     4800.00
03629              -1.20     4600.00
03630               1.00     4400.00
03631              -0.60     4200.00
03632              -1.20     4000.00
03633               1.00     3800.00
03634               0.20     3600.00
03635              -1.20     3200.00
03636              -0.40     3000.00
03637               0.20     2800.00
03638              -1.80     2400.00
03639               0.20     2400.00
03640               0.20     2000.00
03641              -1.20     1800.00
03642               0.20     1600.00
03643              -0.20     1400.00
03644              -1.00     1000.00
03645               0.20      800.00
03646              -0.20      600.00
03647               0.20      400.00
03648               1.20      200.00
03649               0.60     -200.00
03650               0.40     -400.00
03651              -0.60     -800.00
03652              -0.80    -1000.00
03653               0.40    -1000.00
03654               0.60    -1200.00
03655              -1.20    -1400.00
03656               0.40    -1800.00
03657               6.00    -1800.00
03658              18.60    -2000.00
03659              -1.20    -2400.00
03660             -25.00    -3000.00
03661              -4.60    -3600.00
03662              10.00    -3800.00
03663             -20.20    -4000.00
03664              25.00    -3600.00
03665               6.20    -3600.00
03666             -25.00    -4000.00
03667              25.00    -4200.00
03668              20.20    -4600.00
03669             -25.00    -4800.00
03670              25.00    -5000.00
03671              24.40    -5200.00
03672             -25.00    -5600.00
03673              19.60    -5800.00
03674             -11.40    -6000.00
03675               5.20    -6400.00
03676               3.80    -6400.00
03677             -21.80    -6600.00
03678              25.00    -7000.00
03679             -22.60    -7200.00
03680             -25.00    -7200.00
03681              25.00    -7600.00
03682             -18.00    -7800.00
03683             -25.00    -8000.00
03684              25.00    -8200.00
03685              -5.80    -8400.00
03686             -25.00    -8800.00
03687              23.80    -8800.00
03688               4.40    -9000.00
03689             -17.40    -9200.00
03690              11.00    -9200.00
03691               3.60    -9600.00
03692              -9.20    -9600.00
03693              -0.20    -9800.00
03694               0.40   -10000.00
03695               4.20   -10000.00
03696              -1.20   -10400.00
03697              -5.60   -10400.00
03698               5.20   -10800.00
03699              -0.40   -10800.00
03700              -7.40   -11000.00
03701               3.80   -11000.00
03702               5.40   -11200.00
03703              -7.00   -11400.00
03704              -0.80   -11400.00
03705               5.40   -11600.00
03706              -4.60   -11800.00
03707              -1.60   -12000.00
03708               4.40   -12000.00
03709              -2.00   -12200.00
03710              -2.20   -12200.00
03711               1.40   -12200.00
03712              -1.00   -12400.00
03713              -0.40   -12400.00
03714               0.20   -12600.00
03715              -0.20   -12600.00
03716              -0.40   -12800.00
03717              -2.20   -12800.00
03718               0.60   -13000.00
03719               0.60   -12800.00
03720              -1.80   -13000.00
03721               0.20   -13000.00
03722              -0.40   -13200.00
03723              -0.60   -13200.00
03724               0.40   -13200.00
03725              -0.60   -13200.00
03726              -0.60   -13200.00
03727              -0.20   -13200.00
03728              -0.40   -13200.00
03729              -0.60   -13200.00
03730              -0.40   -13200.00
03731              -0.60   -13200.00
03732              -0.20   -13200.00
03733               0.20   -13200.00
03734              -1.20   -13200.00
03735              -0.60   -13200.00
03736               0.40   -13200.00
03737              -0.60   -13200.00
03738               0.20   -13200.00
03739              -0.20   -13200.00
03740              -1.40   -13200.00
03741               0.00   -13000.00
03742               0.20   -13000.00
03743              -1.20   -13000.00
03744              -1.00   -13000.00
03745              -0.20   -13000.00
03746              -1.00   -12800.00
03747              -1.20   -12800.00
03748              -0.40   -12800.00
03749              -0.60   -12600.00
03750               0.20   -12400.00
03751               0.20   -12400.00
03752              -0.60   -12400.00
03753              -0.60   -12000.00
03754              -0.60   -12200.00
03755              -0.20   -12000.00
03756              -0.20   -12000.00
03757              -1.40   -11800.00
03758              -1.00   -11600.00
03759              -0.40   -11600.00
03760              -1.20   -11400.00
03761              -1.00   -11400.00
03762              -0.40   -11000.00
03763              -0.80   -11000.00
03764              -0.60   -10800.00
03765               0.20   -10600.00
03766              -0.40   -10600.00
03767              -1.20   -10400.00
03768               0.20   -10400.00
03769               0.40   -10000.00
03770              -1.00   -10000.00
03771              -0.60    -9600.00
03772              -0.60    -9600.00
03773              -0.80    -9400.00
03774              -1.00    -9200.00
03775              -0.60    -9000.00
03776              -0.40    -8800.00
03777              -0.60    -8800.00
03778              -0.60    -8400.00
03779               0.20    -8400.00
03780              -0.20    -8200.00
03781              -0.80    -8000.00
03782               0.00    -7600.00
03783               0.40    -7600.00
03784              -0.60    -7200.00
03785              -1.20    -7000.00
03786               0.20    -6800.00
03787              -0.40    -6600.00
03788              -0.60    -6400.00
03789              -0.20    -6200.00
03790              -0.60    -6000.00
03791              -0.60    -5800.00
03792              -0.60    -5600.00
03793              -0.60    -5400.00
03794              -0.40    -5000.00
03795              -0.60    -4800.00
03796              -0.20    -4600.00
03797               0.40    -4200.00
03798              -1.00    -4200.00
03799              -0.60    -4000.00
03800               0.20    -3600.00
03801              -0.60    -3400.00
03802              -0.40    -3200.00
03803              -0.20    -2800.00
03804              -1.00    -2800.00
03805              -0.60    -2400.00
03806              -0.40    -2200.00
03807              -0.60    -2000.00
03808              -0.60    -1600.00
03809              -0.60    -1600.00
03810              -0.60    -1200.00
03811              -0.60    -1000.00
03812              -0.60     -600.00
03813              -0.60     -400.00
03814              -0.20     -200.00
03815              -0.20        0.00
03816               0.60      400.00
03817               1.80      400.00
03818              -1.60      600.00
03819              -0.60      800.00
03820               1.00     1200.00
03821              -0.60     1400.00
03822              -1.00     1400.00
03823               1.40     1800.00
03824              15.40     2000.00
03825              18.00     2400.00
03826             -25.00     2800.00
03827             -23.80     3200.00
03828              13.40     3600.00
03829             -12.60     3600.00
03830              25.00     3600.00
03831               2.20     3800.00
03832             -25.00     4000.00
03833              25.00     4400.00
03834              25.00     4400.00
03835             -25.00     4800.00
03836              25.00     5000.00
03837              25.00     5400.00
03838             -25.00     5400.00
03839              25.00     5800.00
03840              -5.20     6000.00
03841              -6.20     6200.00
03842               2.60     6600.00
03843             -23.80     6600.00
03844              25.00     6800.00
03845             -25.00     7200.00
03846             -25.00     7200.00
03847              25.00     7600.00
03848             -25.00     8000.00
03849             -25.00     8200.00
03850              25.00     8000.00
03851             -25.00     8400.00
03852             -23.80     8600.00
03853              23.80     8800.00
03854               0.40     9000.00
03855              -8.60     9200.00
03856               0.40     9400.00
03857               8.20     9400.00
03858              -1.00     9600.00
03859             -11.80    10000.00
03860               3.80    10000.00
03861              13.20    10200.00
03862              -9.20    10400.00
03863              -5.00    10400.00
03864              11.60    10800.00
03865              -4.60    10800.00
03866             -10.40    11000.00
03867               8.80    11200.00
03868               7.60    11200.00
03869             -13.60    11200.00
03870               1.40    11400.00
03871               8.40    11600.00
03872              -8.40    11800.00
03873              -0.60    11800.00
03874               6.00    12200.00
03875              -1.20    12000.00
03876              -3.60    12400.00
03877               1.40    12200.00
03878               1.40    12400.00
03879              -2.80    12600.00
03880               0.20    12600.00
03881               2.60    12600.00
03882              -1.80    12800.00
03883              -3.80    12800.00
03884               2.20    12800.00
03885               1.40    13000.00
03886              -2.60    13200.00
03887               1.20    13000.00
03888               0.20    13200.00
03889              -2.00    13200.00
03890               1.00    13200.00
03891               0.40    13400.00
03892              -0.20    13400.00
03893              -0.60    13400.00
03894               0.20    13400.00
03895               0.40    13400.00
03896              -1.00    13400.00
03897               0.20    13400.00
03898               0.00    13400.00
03899               0.40    13200.00
03900               0.40    13400.00
03901              -2.20    13400.00
03902               0.80    13400.00
03903               1.00    13400.00
03904              -1.40    13200.00
03905               0.60    13400.00
03906               0.40    13200.00
03907              -1.20    13200.00
03908               0.20    13200.00
03909               1.20    13200.00
03910              -1.00    13200.00
03911              -0.60    13000.00
03912               1.00    13000.00
03913              -0.20    13000.00
03914              -0.60    12800.00
03915              -0.20    12800.00
03916               0.40    12600.00
03917               0.40    12600.00
03918              -0.60    12600.00
03919               0.20    12400.00
03920               0.00    12400.00
03921              -0.60    12400.00
03922               1.00    12000.00
03923              -0.20    12000.00
03924              -0.60    12000.00
03925               1.40    11800.00
03926              -0.40    11800.00
03927              -0.60    11400.00
03928               0.40    11200.00
03929              -0.20    11200.00
03930              -0.60    11200.00
03931               1.00    10800.00
03932               0.20    10800.00
03933              -2.40    10600.00
03934              -0.60    10400.00
03935               1.60    10400.00
03936              -0.60    10200.00
03937              -1.20    10000.00
03938               1.40     9800.00
03939              -0.20     9800.00
03940              -1.20     9400.00
03941               0.60     9400.00
03942               0.40     9200.00
03943              -1.20     9000.00
03944              -0.20     8800.00
03945               0.40     8600.00
03946              -1.20     8600.00
03947              -1.40     8000.00
03948               0.40     8200.00
03949               1.00     7800.00
03950              -1.40     7600.00
03951              -1.00     7400.00
03952               1.20     7200.00
03953              -0.60     7000.00
03954              -1.00     6800.00
03955               1.80     6400.00
03956              -0.40     6200.00
03957              -1.80     6000.00
03958               0.60     6000.00
03959              -0.40     5600.00
03960              -1.20     5400.00
03961              -0.40     5000.00
03962               0.40     5000.00
03963              -0.60     4600.00
03964              -0.60     4400.00
03965               0.00     4200.00
03966              -0.60     3800.00
03967              -0.40     3800.00
03968               1.20     3400.00
03969              -0.60     3200.00
03970              -1.40     3000.00
03971               1.00     2800.00
03972               0.20     2400.00
03973              -1.80     2400.00
03974               1.00     2000.00
03975              -0.20     1800.00
03976              -1.40     1600.00
03977               0.20     1200.00
03978               0.20     1200.00
03979              -0.60      800.00
03980              -0.60      400.00
03981               0.40      200.00
03982               0.60        0.00
03983               0.20     -200.00
03984               2.20     -400.00
03985              -0.40     -800.00
03986              -1.80     -800.00
03987               1.20    -1200.00
03988               0.40    -1200.00
03989              -2.00    -1600.00
03990               2.00    -1800.00
03991               6.60    -1800.00
03992              18.40    -2200.00
03993              -5.20    -2600.00
03994             -25.00    -3200.00
03995              -0.80    -3600.00
03996               7.40    -3800.00
03997             -19.20    -3800.00
03998              25.00    -3800.00
03999              -6.00    -3800.00
04000             -25.00    -4200.00
04001              25.00    -4400.00
04002               5.80    -4600.00
04003             -25.00    -5000.00
04004              25.00    -5000.00
04005              12.20    -5400.00
04006             -25.00    -5600.00
04007              21.80    -5800.00
04008             -15.00    -6000.00
04009               9.00    -6400.00
04010              -1.20    -6400.00
04011             -17.20    -6600.00
04012              25.00    -7000.00
04013             -25.00    -7200.00
04014             -25.00    -7400.00
04015              25.00    -7600.00
04016             -25.00    -7800.00
04017             -25.00    -8200.00
04018              25.00    -8200.00
04019             -12.60    -8400.00
04020             -25.00    -8600.00
04021              25.00    -9000.00
04022               1.00    -9000.00
04023             -16.40    -9000.00
04024              12.20    -9400.00
04025               2.40    -9600.00
04026              -8.60    -9600.00
04027              -0.60    -9800.00
04028               1.80   -10000.00
04029               4.20   -10200.00
04030              -3.00   -10400.00
04031              -4.00   -10600.00
04032               5.80   -10600.00
04033              -2.00   -10800.00
04034              -6.20   -11000.00
04035               5.20   -11200.00
04036               3.80   -11400.00
04037              -7.40   -11400.00
04038               0.20   -11400.00
04039               4.40   -11600.00
04040              -5.20   -12000.00
04041              -1.20   -12000.00
04042               4.20   -12200.00
04043              -2.20   -12000.00
04044              -1.80   -12200.00
04045               1.60   -12200.00
04046              -0.60   -12400.00
04047              -0.60   -12400.00
04048               0.20   -12600.00
04049               0.60   -12600.00
04050              -0.60   -12800.00
04051              -2.20   -12800.00
04052               1.00   -13000.00
04053               0.20   -13000.00
04054              -1.80   -13000.00
04055              -0.20   -13000.00
04056              -0.40   -13200.00
04057              -0.60   -13000.00
04058              -0.20   -13200.00
04059              -0.20   -13200.00
04060              -0.20   -13200.00
04061              -0.60   -13200.00
04062               0.40   -13200.00
04063              -0.20   -13200.00
04064              -1.20   -13400.00
04065              -0.20   -13200.00
04066              -0.20   -13200.00
04067              -0.60   -13200.00
04068              -1.40   -13200.00
04069              -0.60   -13200.00
04070               0.20   -13200.00
04071              -1.00   -13200.00
04072               0.20   -13200.00
04073              -0.60   -13200.00
04074              -1.40   -13200.00
04075              -0.20   -13000.00
04076               0.40   -13000.00
04077              -1.40   -13000.00
04078              -1.00   -13000.00
04079               0.60   -13000.00
04080              -1.00   -12800.00
04081              -2.00   -12800.00
04082               0.00   -12600.00
04083              -0.40   -12600.00
04084              -1.00   -12400.00
04085               0.20   -12400.00
04086              -0.60   -12200.00
04087              -1.00   -12200.00
04088              -0.60   -12000.00
04089               0.20   -12000.00
04090              -0.20   -12000.00
04091              -1.60   -11600.00
04092              -0.40   -11600.00
04093               0.20   -11600.00
04094              -1.00   -11400.00
04095              -0.60   -11200.00
04096               0.20   -11000.00
04097              -0.40   -11000.00
04098              -1.20   -10800.00
04099              -0.20   -10600.00
04100              -0.60   -10600.00
04101              -1.20   -10400.00
04102               0.20   -10000.00
04103               0.00   -10000.00
04104              -0.60   -10000.00
04105              -0.40    -9800.00
04106              -1.00    -9600.00
04107              -0.20    -9400.00
04108               0.00    -9200.00
04109              -1.00    -9000.00
04110              -0.40    -8800.00
04111              -0.40    -8600.00
04112              -1.00    -8600.00
04113              -0.40    -8200.00
04114              -0.40    -8200.00
04115              -0.80    -8000.00
04116              -0.40    -7600.00
04117               0.20    -7400.00
04118              -1.00    -7200.00
04119              -0.60    -7200.00
04120              -0.20    -6800.00
04121              -0.60    -6600.00
04122              -0.40    -6400.00
04123               0.00    -6200.00
04124              -0.60    -6000.00
04125              -0.20    -5800.00
04126              -0.20    -5600.00
04127              -0.60    -5200.00
04128              -0.60    -5000.00
04129              -0.40    -4800.00
04130              -0.40    -4600.00
04131              -0.60    -4400.00
04132              -1.20    -4000.00
04133              -0.60    -4000.00
04134              -0.60    -3600.00
04135              -0.60    -3400.00
04136              -0.20    -3200.00
04137              -0.40    -3000.00
04138              -0.60    -2600.00
04139              -0.20    -2600.00
04140              -0.20    -2200.00
04141              -0.40    -2000.00
04142              -0.60    -1600.00
04143              -0.60    -1400.00
04144              -0.40    -1200.00
04145              -0.60     -800.00
04146              -1.00     -600.00
04147              -0.60     -400.00
04148              -0.60     -200.00
04149              -0.40        0.00
04150               1.20      200.00
04151               1.20      600.00
04152              -1.20      600.00
04153               0.20     1000.00
04154               0.60     1200.00
04155               0.00     1400.00
04156              -0.40     1600.00
04157               2.00     1800.00
04158              17.80     2000.00
04159              14.20     2400.00
04160             -25.00     2800.00
04161             -19.60     3400.00
04162              12.60     3600.00
04163             -10.80     3600.00
04164              25.00     3600.00
04165             -11.60     3800.00
04166             -25.00     3800.00
04167              25.00     4400.00
04168               5.80     4600.00
04169             -25.00     4800.00
04170              25.00     5200.00
04171              24.60     5400.00
04172             -25.00     5400.00
04173              25.00     6000.00
04174             -12.60     6000.00
04175              -0.60     6200.00
04176              -3.60     6400.00
04177             -17.00     6600.00
04178              25.00     6800.00
04179             -25.00     7000.00
04180             -25.00     7200.00
04181              25.00     7600.00
04182             -25.00     7800.00
04183             -16.40     8000.00
04184              25.00     8400.00
04185             -25.00     8400.00
04186             -17.40     8600.00
04187              23.80     8800.00
04188              -1.00     9000.00
04189              -9.00     9200.00
04190               0.40     9400.00
04191               9.20     9400.00
04192              -3.20     9600.00
04193             -13.40     9800.00
04194               6.00    10000.00
04195              11.60    10200.00
04196              -9.20    10200.00
04197              -1.80    10400.00
04198               9.80    10800.00
04199              -3.80    11000.00
04200             -10.60    10800.00
04201               6.80    11200.00
04202               6.60    11200.00
04203             -12.60    11400.00
04204               3.80    11600.00
04205               6.40    11600.00
04206              -6.80    11800.00
04207              -0.40    12000.00
04208               3.40    12000.00
04209              -0.20    12000.00
04210              -3.80    12400.00
04211               2.20    12400.00
04212               0.40    12400.00
04213              -3.00    12600.00
04214               0.40    12600.00
04215               2.80    12800.00
04216              -1.60    12800.00
04217              -3.00    12800.00
04218               3.40    13000.00
04219               0.40    13000.00
04220              -3.00    13000.00
04221               0.40    13000.00
04222               1.80    13200.00
04223              -1.40    13200.00
04224              -1.20    13200.00
04225               1.80    13200.00
04226              -1.00    13400.00
04227              -1.80    13400.00
04228               2.00    13400.00
04229               0.80    13400.00
04230              -2.20    13400.00
04231               0.40    13400.00
04232               0.40    13400.00
04233              -0.40    13400.00
04234               0.40    13400.00
04235              -0.20    13400.00
04236               0.20    13400.00
04237               0.00    13400.00
04238               0.20    13400.00
04239              -0.40    13200.00
04240              -1.40    13400.00
04241               0.60    13200.00
04242               0.40    13200.00
04243              -0.60    13200.00
04244              -0.20    13200.00
04245               0.60    13200.00
04246               0.60    13000.00
04247              -0.40    12800.00
04248               0.00    12800.00
04249               0.20    12800.00
04250              -0.60    12600.00
04251               0.20    12600.00
04252              -0.20    12600.00
04253              -0.20    12400.00
04254              -0.60    12400.00
04255              -0.20    12400.00
04256               0.60    12000.00
04257              -0.40    12000.00
04258              -0.60    12000.00
04259               0.40    11800.00
04260              -0.20    11800.00
04261               0.00    11600.00
04262              -0.20    11400.00
04263              -0.20    11200.00
04264               0.20    11000.00
04265               0.40    11000.00
04266              -0.60    10800.00
04267              -1.20    10600.00
04268               0.60    10400.00
04269              -1.00    10400.00
04270              -0.60    10200.00
04271               1.20    10000.00
04272              -1.00    10000.00
04273              -1.40     9600.00
04274               1.40     9600.00
04275               0.60     9400.00
04276              -1.80     9200.00
04277               0.80     9000.00
04278               1.00     8800.00
04279              -1.80     8600.00
04280              -0.40     8600.00
04281               0.40     8400.00
04282              -1.00     8000.00
04283              -0.60     7800.00
04284               1.00     7400.00
04285              -1.20     7400.00
04286              -1.80     7200.00
04287               1.20     7000.00
04288               0.20     6800.00
04289              -0.40     6400.00
04290               0.40     6200.00
04291              -0.40     6000.00
04292              -0.20     6000.00
04293              -0.40     5600.00
04294              -0.20     5400.00
04295              -0.60     5200.00
04296               0.20     4800.00
04297               0.20     4600.00
04298              -0.60     4400.00
04299              -0.20     4200.00
04300              -0.60     4000.00
04301              -0.40     3600.00
04302               1.00     3600.00
04303              -0.60     3200.00
04304              -1.00     3000.00
04305               1.00     2800.00
04306              -0.20     2400.00
04307              -0.60     2200.00
04308               0.40     2000.00
04309              -0.20     1800.00
04310              -0.60     1600.00
04311               0.20     1200.00
04312               0.00     1000.00
04313              -0.80      800.00
04314              -0.20      600.00
04315               0.20      200.00
04316               0.00        0.00
04317               1.00     -200.00
04318               1.20     -400.00
04319              -1.20     -800.00
04320              -0.40     -800.00
04321               0.60    -1000.00
04322              -0.40    -1200.00
04323              -0.60    -1600.00
04324               1.80    -1800.00
04325               7.00    -1800.00
04326              19.40    -2200.00
04327             -10.00    -2600.00
04328             -25.00    -3000.00
04329               2.60    -3600.00
04330               3.80    -3800.00
04331             -15.60    -4000.00
04332              25.00    -3600.00
04333             -18.80    -3800.00
04334             -25.00    -4000.00
04335              25.00    -4400.00
04336             -10.20    -4600.00
04337             -25.00    -5000.00
04338              25.00    -5200.00
04339              -0.20    -5400.00
04340             -25.00    -5600.00
04341              21.80    -5800.00
04342             -18.00    -6000.00
04343              13.00    -6400.00
04344              -6.20    -6400.00
04345             -11.40    -6600.00
04346              25.00    -7200.00
04347             -25.00    -7200.00
04348             -17.40    -7200.00
04349              25.00    -7600.00
04350             -25.00    -7800.00
04351             -17.80    -8200.00
04352              25.00    -8200.00
04353             -19.60    -8400.00
04354             -23.00    -8600.00
04355              25.00    -9000.00
04356              -3.00    -9000.00
04357             -13.20    -9200.00
04358              12.40    -9400.00
04359              -0.60    -9600.00
04360              -7.20    -9600.00
04361              -0.20    -9800.00
04362               0.40   -10000.00
04363               4.40   -10200.00
04364              -3.40   -10400.00
04365              -3.80   -10600.00
04366               5.80   -10800.00
04367              -2.20   -10800.00
04368              -6.00   -10800.00
04369               6.00   -11200.00
04370               3.40   -11400.00
04371              -7.40   -11400.00
04372               1.00   -11600.00
04373               4.20   -11600.00
04374              -5.40   -11800.00
04375              -0.60   -11800.00
04376               4.20   -12000.00
04377              -2.80   -12200.00
04378              -2.00   -12200.00
04379               1.20   -12200.00
04380              -0.60   -12400.00
04381              -0.60   -12400.00
04382               0.20   -12600.00
04383               0.60   -12600.00
04384              -0.60   -12800.00
04385              -2.00   -12800.00
04386               1.40   -13000.00
04387              -0.20   -13000.00
04388              -1.80   -13000.00
04389              -0.20   -13200.00
04390              -0.60   -13200.00
04391              -1.00   -13200.00
04392              -0.40   -13000.00
04393              -0.60   -13200.00
04394              -0.60   -13200.00
04395              -1.00   -13200.00
04396              -0.40   -13200.00
04397              -0.40   -13200.00
04398              -0.60   -13200.00
04399              -0.20   -13200.00
04400               0.20   -13200.00
04401              -0.60   -13200.00
04402              -1.20   -13400.00
04403              -0.60   -13200.00
04404              -0.20   -13400.00
04405              -0.80   -13200.00
04406              -0.20   -13200.00
04407              -0.60   -13200.00
04408              -1.40   -13000.00
04409              -0.20   -13200.00
04410              -0.20   -13000.00
04411              -1.00   -13000.00
04412              -1.00   -13000.00
04413               0.20   -12800.00
04414              -1.00   -12800.00
04415              -1.20   -12800.00
04416               0.20   -12600.00
04417              -0.60   -12800.00
04418              -0.20   -12400.00
04419              -0.20   -12400.00
04420              -0.60   -12400.00
04421              -1.00   -12200.00
04422              -0.40   -12200.00
04423              -0.20   -12000.00
04424              -0.60   -12000.00
04425              -1.20   -11800.00
04426              -0.60   -11600.00
04427              -0.60   -11600.00
04428              -0.60   -11400.00
04429              -0.20   -11000.00
04430              -0.60   -11200.00
04431               0.00   -10800.00
04432              -0.40   -10800.00
04433              -0.40   -10600.00
04434              -0.20   -10600.00
04435              -0.60   -10400.00
04436              -0.20   -10200.00
04437              -0.20   -10000.00
04438              -0.60   -10000.00
04439              -1.00    -9600.00
04440              -0.60    -9600.00
04441              -0.40    -9600.00
04442              -0.60    -9200.00
04443              -0.40    -9000.00
04444              -0.40    -8800.00
04445              -0.60    -8800.00
04446              -0.20    -8400.00
04447               0.20    -8200.00
04448              -0.60    -8000.00
04449              -0.40    -7800.00
04450               0.40    -7600.00
04451              -0.40    -7400.00
04452              -0.80    -7200.00
04453              -0.60    -6800.00
04454              -0.60    -6800.00
04455              -0.60    -6600.00
04456              -0.20    -6400.00
04457              -1.00    -6200.00
04458              -1.00    -6000.00
04459              -0.60    -5600.00
04460               0.20    -5400.00
04461              -0.60    -5200.00
04462              -0.60    -5000.00
04463              -0.40    -4800.00
04464               0.20    -4600.00
04465              -0.60    -4400.00
04466              -1.00    -4200.00
04467              -1.20    -3800.00
04468              -0.40    -3600.00
04469              -0.20    -3400.00
04470              -1.40    -3200.00
04471              -1.00    -2800.00
04472               0.40    -2600.00
04473              -0.60    -2400.00
04474              -1.20    -2200.00
04475               0.40    -2000.00
04476              -0.20    -1600.00
04477              -1.00    -1600.00
04478               0.40    -1200.00
04479              -0.40     -800.00
04480              -1.20     -600.00
04481              -0.40     -400.00
04482              -0.20     -200.00
04483              -0.40        0.00
04484               0.60      400.00
04485               1.20      600.00
04486              -1.20      600.00
04487              -0.60     1000.00
04488               1.00     1200.00
04489               0.20     1400.00
04490              -0.60     1800.00
04491               2.60     2000.00
04492              20.40     2000.00
04493              10.00     2400.00
04494             -25.00     2800.00
04495             -13.60     3200.00
04496              11.60     3600.00
04497              -9.20     3600.00
04498              25.00     3600.00
04499             -25.00     3800.00
04500             -25.00     4000.00
04501              25.00     4000.00
04502             -14.20     4400.00
04503             -25.00     4800.00
04504              25.00     5000.00
04505               7.00     5400.00
04506             -25.00     5400.00
04507              25.00     5800.00
04508             -18.00     6000.00
04509               4.20     6200.00
04510              -9.80     6400.00
04511              -8.60     6600.00
04512              25.00     6800.00
04513             -25.00     7200.00
04514             -11.20     7400.00
04515              25.00     7600.00
04516             -25.00     7800.00
04517              -2.20     8000.00
04518              25.00     8200.00
04519             -25.00     8400.00
04520             -10.20     8600.00
04521              21.80     8800.00
04522              -3.60     9200.00
04523              -7.20     9200.00
04524               2.00     9200.00
04525               7.00     9600.00
04526              -3.20     9600.00
04527             -11.40    10000.00
04528               6.60    10000.00
04529              10.60    10200.00
04530             -11.80    10400.00
04531              -1.80    10400.00
04532              10.80    10800.00
04533              -7.00    10800.00
04534              -8.40    11000.00
04535              11.00    11200.00
04536               4.20    11200.00
04537             -13.80    11400.00
04538               5.00    11600.00
04539               5.80    11600.00
04540              -8.60    11800.00
04541               1.40    12000.00
04542               4.60    12000.00
04543              -2.20    12200.00
04544              -2.80    12200.00
04545               1.60    12400.00
04546               0.60    12600.00
04547              -2.60    12400.00
04548               0.40    12600.00
04549               2.60    12800.00
04550              -2.20    12600.00
04551              -3.40    12800.00
04552               3.00    13000.00
04553               0.60    13200.00
04554              -2.60    13000.00
04555               1.80    13200.00
04556              -0.20    13200.00
04557              -1.60    13200.00
04558               0.60    13200.00
04559               0.60    13400.00
04560              -0.60    13400.00
04561              -1.20    13400.00
04562               0.60    13400.00
04563               0.20    13400.00
04564              -2.00    13400.00
04565               1.00    13400.00
04566               1.00    13400.00
04567              -0.60    13400.00
04568               0.20    13400.00
04569              -0.40    13400.00
04570               0.60    13400.00
04571              -0.20    13400.00
04572               0.40    13400.00
04573               0.60    13400.00
04574              -1.20    13200.00
04575              -0.40    13200.00
04576               1.20    13200.00
04577              -1.00    13000.00
04578              -0.80    13200.00
04579               1.40    13000.00
04580              -0.40    12800.00
04581              -1.20    13000.00
04582               1.20    12800.00
04583              -0.20    12800.00
04584              -0.60    12600.00
04585               1.20    12600.00
04586              -0.40    12600.00
04587              -0.80    12400.00
04588              -0.40    12400.00
04589              -0.20    12200.00
04590               0.20    12200.00
04591              -0.60    12000.00
04592              -0.60    11800.00
04593               0.20    11800.00
04594              -0.20    11600.00
04595              -0.40    11600.00
04596               0.20    11400.00
04597               0.40    11200.00
04598              -0.60    11000.00
04599              -0.20    11000.00
04600               0.20    10800.00
04601              -1.00    10800.00
04602              -0.40    10400.00
04603               0.40    10400.00
04604              -0.60    10200.00
04605              -1.00    10000.00
04606              -0.40     9800.00
04607               0.20     9600.00
04608              -0.20     9400.00
04609              -0.20     9200.00
04610              -0.20     9200.00
04611              -0.20     9200.00
04612              -0.20     8600.00
04613              -0.20     8600.00
04614              -0.20     8400.00
04615              -0.40     8200.00
04616              -0.20     8200.00
04617               0.40     7600.00
04618              -0.20     7600.00
04619              -0.60     7400.00
04620               0.00     7200.00
04621              -0.20     6800.00
04622              -0.20     6800.00
04623               0.00     6400.00
04624              -0.60     6400.00
04625              -0.20     6000.00
04626               0.60     5800.00
04627              -0.60     5600.00
04628              -0.20     5400.00
04629              -0.20     5200.00
04630              -0.20     4800.00
04631              -0.20     4600.00
04632              -0.20     4400.00
04633              -0.60     4200.00
04634              -0.20     4000.00
04635               0.20     3600.00
04636               0.20     3400.00
04637              -0.20     3000.00
04638              -1.00     3000.00
04639               0.00     2800.00
04640               0.20     2400.00
04641              -0.40     2200.00
04642              -0.60     2000.00
04643               0.20     1800.00
04644              -0.20     1600.00
04645              -0.60     1200.00
04646              -0.40     1200.00
04647               0.20      600.00
04648              -0.40      400.00
04649              -0.20      400.00
04650               0.40        0.00
04651               1.00     -200.00
04652               0.40     -400.00
04653              -1.20     -800.00
04654              -0.20    -1000.00
04655               0.20    -1200.00
04656              -1.00    -1200.00
04657              -0.60    -1600.00
04658               1.80    -1800.00
04659               7.80    -2000.00
04660              19.40    -2400.00
04661             -13.80    -2600.00
04662             -25.00    -3200.00
04663               5.60    -3600.00
04664               0.60    -3600.00
04665             -11.80    -3600.00
04666              25.00    -3600.00
04667             -25.00    -4000.00
04668             -25.00    -4000.00
04669              25.00    -4200.00
04670             -25.00    -4800.00
04671             -25.00    -5000.00
04672              25.00    -5200.00
04673             -11.40    -5400.00
04674             -24.40    -5600.00
04675              21.20    -5800.00
04676             -19.40    -6000.00
04677              16.20    -6400.00
04678             -11.60    -6600.00
04679              -3.80    -6800.00
04680              25.00    -7200.00
04681             -25.00    -7200.00
04682              -6.80    -7400.00
04683              25.00    -7600.00
04684             -25.00    -7800.00
04685              -8.80    -8200.00
04686              25.00    -8400.00
04687             -25.00    -8400.00
04688             -18.20    -8800.00
04689              25.00    -8800.00
04690              -6.60    -9000.00
04691             -10.80    -9200.00
04692              13.80    -9400.00
04693              -2.20    -9600.00
04694              -6.60    -9600.00
04695               0.00    -9800.00
04696               1.00   -10000.00
04697               4.40   -10200.00
04698              -4.20   -10400.00
04699              -3.00   -10600.00
04700               5.80   -10600.00
04701              -3.00   -10800.00
04702              -5.80   -11000.00
04703               6.40   -11200.00
04704               2.20   -11400.00
04705              -7.40   -11400.00
04706               2.00   -11600.00
04707               3.60   -11800.00
04708              -5.80   -11800.00
04709               0.20   -12000.00
04710               3.60   -12000.00
04711              -2.40   -12200.00
04712              -2.00   -12200.00
04713               0.60   -12400.00
04714              -0.20   -12400.00
04715              -1.00   -12400.00
04716              -0.60   -12600.00
04717               1.20   -12800.00
04718              -1.40   -12800.00
04719              -2.60   -13000.00
04720               2.00   -12800.00
04721              -0.20   -13000.00
04722              -2.00   -13000.00
04723               0.40   -13200.00
04724              -0.60   -13200.00
04725              -1.00   -13200.00
04726              -0.20   -13200.00
04727              -0.40   -13200.00
04728              -1.00   -13200.00
04729              -0.60   -13200.00
04730              -0.20   -13400.00
04731              -1.00   -13200.00
04732              -1.00   -13400.00
04733              -0.40   -13200.00
04734              -0.40   -13200.00
04735              -0.40   -13200.00
04736              -1.40   -13200.00
04737              -0.40   -13200.00
04738               0.20   -13200.00
04739              -1.00   -13200.00
04740               0.20   -13200.00
04741              -0.60   -13200.00
04742              -1.20   -13200.00
04743              -0.20   -13200.00
04744               0.40   -13000.00
04745              -1.20   -13000.00
04746              -0.60   -13000.00
04747               0.40   -12800.00
04748              -1.00   -12800.00
04749              -1.20   -12800.00
04750               0.00   -12800.00
04751              -0.60   -12800.00
04752              -0.20   -12400.00
04753              -0.20   -12400.00
04754              -0.40   -12400.00
04755              -0.60   -12200.00
04756              -0.40   -12200.00
04757               0.40   -12000.00
04758              -0.40   -12000.00
04759              -1.00   -11800.00
04760              -0.40   -11600.00
04761              -0.80   -11600.00
04762              -0.60   -11400.00
04763              -0.60   -11400.00
04764              -0.60   -11000.00
04765              -0.20   -11000.00
04766              -0.60   -10600.00
04767              -0.60   -10600.00
04768               0.00   -10600.00
04769              -0.40   -10400.00
04770              -0.20   -10200.00
04771               0.40   -10000.00
04772              -0.60    -9800.00
04773              -1.20    -9800.00
04774               0.20    -9600.00
04775              -0.40    -9600.00
04776              -1.00    -9200.00
04777              -0.20    -9000.00
04778              -1.00    -9000.00
04779              -1.40    -8600.00
04780               0.20    -8400.00
04781              -0.60    -8200.00
04782              -0.80    -8000.00
04783               0.40    -8000.00
04784              -0.40    -7600.00
04785              -0.40    -7400.00
04786              -0.20    -7200.00
04787              -1.00    -7000.00
04788              -0.60    -6800.00
04789               0.20    -6400.00
04790              -0.80    -6400.00
04791              -1.00    -6000.00
04792              -0.60    -5800.00
04793              -0.60    -5800.00
04794              -1.00    -5600.00
04795              -0.40    -5200.00
04796              -0.40    -5000.00
04797              -0.60    -4600.00
04798              -0.20    -4400.00
04799              -0.40    -4200.00
04800              -0.60    -4200.00
04801              -0.60    -3800.00
04802              -0.40    -3600.00
04803              -0.40    -3400.00
04804              -0.60    -3000.00
04805              -0.60    -2800.00
04806              -0.60    -2600.00
04807              -0.40    -2400.00
04808              -0.60    -2000.00
04809              -0.20    -2000.00
04810              -0.20    -1800.00
04811              -0.60    -1200.00
04812              -0.40    -1200.00
04813              -0.20     -800.00
04814              -1.20     -600.00
04815              -0.60     -400.00
04816               0.60     -200.00
04817              -0.20        0.00
04818               0.40      200.00
04819               1.80      400.00
04820              -2.00      800.00
04821              -0.60     1000.00
04822               1.80     1200.00
04823              -0.40     1400.00
04824              -0.60     1600.00
04825               2.80     1800.00
04826              21.80     2000.00
04827               5.20     2400.00
04828             -25.00     2800.00
04829              -8.40     3200.00
04830               9.20     3600.00
04831              -5.00     3600.00
04832              25.00     3800.00
04833             -25.00     3800.00
04834             -25.00     4000.00
04835              25.00     4200.00
04836             -25.00     4600.00
04837             -25.00     4800.00
04838              25.00     5200.00
04839             -15.00     5600.00
04840             -25.00     5600.00
04841              25.00     6000.00
04842             -24.40     6000.00
04843              11.60     6200.00
04844             -17.80     6400.00
04845              -0.20     6800.00
04846              25.00     6800.00
04847             -25.00     7200.00
04848               4.40     7200.00
04849              25.00     7600.00
04850             -25.00     8000.00
04851              11.00     8000.00
04852              25.00     8200.00
04853             -25.00     8400.00
04854              -4.60     8600.00
04855              22.00     8800.00
04856              -6.00     9000.00
04857              -7.60     9200.00
04858               3.60     9400.00
04859               7.00     9600.00
04860              -5.80     9600.00
04861             -10.80    10000.00
04862               9.60    10000.00
04863               9.00    10200.00
04864             -13.20    10400.00
04865               0.80    10400.00
04866              10.00    10800.00
04867              -9.20    10800.00
04868              -7.00    11000.00
04869              12.80    11200.00
04870               1.40    11200.00
04871             -14.00    11600.00
04872               6.80    11600.00
04873               4.20    11800.00
04874              -9.20    11800.00
04875               2.80    12000.00
04876               5.20    12000.00
04877              -2.80    12200.00
04878              -2.60    12200.00
04879               2.60    12400.00
04880               0.20    12400.00
04881              -2.40    12600.00
04882               1.20    12600.00
04883               1.80    12800.00
04884              -2.80    12800.00
04885              -2.60    12800.00
04886               3.40    12800.00
04887              -0.20    13200.00
04888              -2.20    13000.00
04889               2.00    13200.00
04890              -1.00    13200.00
04891              -2.20    13400.00
04892               3.00    13400.00
04893               1.20    13200.00
04894              -3.60    13400.00
04895               0.40    13400.00
04896               3.80    13400.00
04897              -4.20    13400.00
04898              -1.20    13400.00
04899               5.00    13400.00
04900              -3.80    13400.00
04901              -1.20    13400.00
04902               3.40    13400.00
04903              -1.80    13400.00
04904              -2.00    13400.00
04905               2.00    13400.00
04906               2.00    13400.00
04907              -2.60    13200.00
04908              -1.00    13200.00
04909               2.20    13200.00
04910              -0.40    13200.00
04911              -1.80    13200.00
04912              -1.00    13200.00
04913               1.40    13000.00
04914               0.40    13000.00
04915              -2.00    13000.00
04916               0.40    12800.00
04917               0.40    12800.00
04918              -2.00    12600.00
04919               0.20    12600.00
04920               2.40    12600.00
04921              -0.80    12400.00
04922              -2.60    12200.00
04923               1.20    12400.00
04924               0.60    12000.00
04925              -2.60    12000.00
04926               1.40    12000.00
04927               1.20    11800.00
04928              -2.40    11600.00
04929               0.20    11400.00
04930               0.20    11400.00
04931              -0.60    11200.00
04932               1.00    11200.00
04933               0.20    10800.00
04934              -1.20    10800.00
04935              -0.60    10800.00
04936              -0.20    10400.00
04937               0.20    10400.00
04938              -0.20    10200.00
04939               1.00    10000.00
04940              -0.40    10000.00
04941              -1.40     9600.00
04942               0.60     9400.00
04943               0.40     9400.00
04944              -1.80     9200.00
04945               0.20     9000.00
04946               1.40     8800.00
04947              -1.00     8600.00
04948              -1.80     8400.00
04949               1.00     8400.00
04950               0.40     8000.00
04951              -1.20     7600.00
04952               0.40     7600.00
04953               0.60     7400.00
04954              -1.00     7200.00
04955              -0.60     6800.00
04956               1.20     6800.00
04957              -0.20     6400.00
04958              -1.20     6400.00
04959               0.60     6000.00
04960               0.40     6000.00
04961              -1.00     5600.00
04962               0.20     5400.00
04963              -0.60     5200.00
04964              -0.40     4800.00
04965               0.20     4400.00
04966              -0.20     4400.00
04967              -0.20     4000.00
04968               0.20     3800.00
04969              -0.20     3600.00
04970               0.20     3400.00
04971              -0.20     3200.00
04972              -0.40     3000.00
04973               0.60     2800.00
04974               0.40     2400.00
04975              -0.60     2200.00
04976              -0.60     2000.00
04977              -0.60     1800.00
04978              -0.60     1400.00
04979              -0.20     1200.00
04980              -0.20      800.00
04981              -0.40      600.00
04982              -0.40      400.00
04983               0.20      200.00
04984               0.40        0.00
04985               1.40     -200.00
04986               1.00     -600.00
04987              -1.20     -800.00
04988               0.20    -1000.00
04989               1.00    -1000.00
04990              -1.40    -1400.00
04991              -0.60    -1600.00
04992               2.20    -1800.00
04993               8.40    -2000.00
04994              18.00    -2200.00
04995             -17.40    -2600.00
04996             -25.00    -3200.00
04997               8.40    -3600.00
04998              -3.40    -4000.00
04999              -6.20    -3800.00
05000              25.00    -3800.00
