Unit:(mV)
                     CH1         CH2
Frequency              ?  97.921 kHz
00001             -11.80    -2600.00
00002              -6.00    -2600.00
00003               9.80    -2600.00
00004              -3.40    -2800.00
00005             -11.00    -2600.00
00006               6.60    -2800.00
00007               2.80    -2800.00
00008             -12.20    -2800.00
00009               1.80    -2800.00
00010               5.80    -3000.00
00011              -7.60    -3000.00
00012              -4.60    -2800.00
00013               5.20    -3200.00
00014              -1.80    -3200.00
00015              -7.20    -3200.00
00016               2.00    -3200.00
00017               2.20    -3200.00
00018              -6.80    -3200.00
00019              -1.80    -3200.00
00020               3.40    -3400.00
00021              -4.00    -3400.00
00022              -4.60    -3400.00
00023               1.40    -3400.00
00024              -0.60    -3400.00
00025              -4.40    -3400.00
00026              -1.20    -3400.00
00027               1.00    -3600.00
00028              -3.40    -3600.00
00029              -2.80    -3600.00
00030               0.20    -3600.00
00031              -1.60    -3600.00
00032              -3.00    -3600.00
00033              -1.40    -3600.00
00034              -1.20    -3800.00
00035              -2.60    -3600.00
00036              -2.00    -3600.00
00037              -1.60    -3800.00
00038              -2.20    -3600.00
00039              -2.20    -4000.00
00040              -2.00    -3800.00
00041              -2.00    -4000.00
00042              -2.00    -4000.00
00043              -2.20    -4000.00
00044              -2.60    -4000.00
00045              -1.40    -4000.00
00046              -2.00    -4200.00
00047              -2.40    -4200.00
00048              -2.00    -4200.00
00049              -2.80    -4200.00
00050              -2.20    -4200.00
00051              -2.20    -4200.00
00052              -2.00    -4400.00
00053              -2.40    -4200.00
00054              -3.00    -4200.00
00055              -2.20    -4400.00
00056              -1.80    -4400.00
00057              -2.20    -4400.00
00058              -2.60    -4400.00
00059              -2.80    -4400.00
00060              -2.60    -4400.00
00061              -2.20    -4400.00
00062              -2.80    -4600.00
00063              -2.60    -4600.00
00064              -2.00    -4400.00
00065              -2.80    -4400.00
00066              -3.40    -4600.00
00067              -2.20    -4400.00
00068              -2.20    -4600.00
00069              -4.00    -4400.00
00070              -1.80    -4800.00
00071              -1.00    -4600.00
00072              -4.40    -4800.00
00073              -3.80    -4800.00
00074              -1.60    -4600.00
00075              -3.00    -4800.00
00076              -3.60    -5000.00
00077              -1.40    -5000.00
00078              -2.80    -4800.00
00079              -3.80    -4800.00
00080              -2.80    -5000.00
00081              -3.00    -4800.00
00082              -3.80    -5000.00
00083              -2.80    -5000.00
00084              -2.40    -5000.00
00085              -3.40    -5000.00
00086              -3.20    -5000.00
00087              -3.00    -5200.00
00088              -3.80    -5000.00
00089              -3.40    -5400.00
00090              -3.00    -5000.00
00091              -3.00    -5200.00
00092              -3.40    -5200.00
00093              -3.80    -5200.00
00094              -3.20    -5400.00
00095              -3.40    -5200.00
00096              -3.80    -5400.00
00097              -3.00    -5200.00
00098              -3.80    -5400.00
00099              -4.20    -5600.00
00100              -3.80    -5600.00
00101              -3.60    -5400.00
00102              -4.20    -5600.00
00103              -3.80    -5400.00
00104              -4.20    -5400.00
00105              -3.60    -5600.00
00106              -4.40    -5600.00
00107              -4.40    -5600.00
00108              -3.80    -5600.00
00109              -4.60    -5600.00
00110              -4.60    -5600.00
00111              -4.20    -5600.00
00112              -4.60    -5600.00
00113              -5.00    -5600.00
00114              -4.60    -5600.00
00115              -4.20    -5600.00
00116              -5.20    -5600.00
00117              -5.20    -5600.00
00118              -4.40    -5800.00
00119              -5.00    -5800.00
00120              -5.20    -5800.00
00121              -5.00    -5600.00
00122              -4.60    -5800.00
00123              -5.20    -5800.00
00124              -5.40    -5800.00
00125              -5.00    -5800.00
00126              -5.60    -5800.00
00127              -5.80    -5800.00
00128              -5.40    -6000.00
00129              -5.60    -5800.00
00130              -6.00    -6000.00
00131              -5.60    -6000.00
00132              -5.80    -5800.00
00133              -6.00    -5800.00
00134              -6.20    -6000.00
00135              -6.00    -5800.00
00136              -6.00    -5800.00
00137              -6.20    -5800.00
00138              -6.00    -6000.00
00139              -6.20    -6000.00
00140              -6.80    -6000.00
00141              -6.20    -6000.00
00142              -6.80    -6000.00
00143              -7.00    -6000.00
00144              -6.20    -6000.00
00145              -7.00    -6000.00
00146              -7.60    -6000.00
00147              -6.20    -6000.00
00148              -7.20    -6000.00
00149              -7.60    -6200.00
00150              -7.00    -6000.00
00151              -7.60    -6000.00
00152              -7.60    -6000.00
00153              -7.60    -6000.00
00154              -7.60    -6000.00
00155              -7.60    -6200.00
00156              -8.60    -6200.00
00157              -8.40    -6400.00
00158              -7.60    -6200.00
00159              -8.20    -6000.00
00160              -9.40    -6000.00
00161              -8.60    -6200.00
00162              -7.60    -6400.00
00163             -10.00    -6400.00
00164              -9.80    -6200.00
00165              -7.80    -6000.00
00166              -9.20    -6200.00
00167             -10.80    -6000.00
00168              -9.20    -6200.00
00169              -8.60    -6200.00
00170             -10.80    -6200.00
00171             -10.20    -6400.00
00172              -9.00    -6200.00
00173             -11.00    -6400.00
00174             -11.40    -6200.00
00175              -9.80    -6200.00
00176             -10.60    -6400.00
00177             -11.20    -6400.00
00178             -10.60    -6200.00
00179             -10.80    -6400.00
00180             -11.40    -6400.00
00181             -10.80    -6200.00
00182             -11.40    -6400.00
00183             -11.80    -6200.00
00184             -11.00    -6400.00
00185             -11.40    -6200.00
00186             -11.80    -6200.00
00187             -11.60    -6400.00
00188             -11.60    -6400.00
00189             -12.00    -6200.00
00190             -11.60    -6200.00
00191             -11.60    -6200.00
00192             -11.60    -6400.00
00193             -10.80    -6400.00
00194             -10.80    -6200.00
00195             -10.80    -6200.00
00196             -10.80    -6400.00
00197             -10.00    -6200.00
00198             -10.40    -6000.00
00199             -10.20    -6200.00
00200              -9.80    -6200.00
00201              -9.40    -6000.00
00202              -9.80    -6200.00
00203              -9.40    -6200.00
00204              -9.20    -6000.00
00205              -8.80    -6200.00
00206              -8.60    -6200.00
00207              -9.20    -6200.00
00208              -8.60    -6000.00
00209              -8.20    -6200.00
00210              -8.60    -6200.00
00211              -8.40    -6200.00
00212              -8.00    -6200.00
00213              -8.20    -6000.00
00214              -7.80    -6000.00
00215              -7.60    -6000.00
00216              -7.40    -6000.00
00217              -7.40    -6000.00
00218              -7.00    -6000.00
00219              -7.40    -6000.00
00220              -7.20    -6000.00
00221              -6.80    -6000.00
00222              -6.60    -6000.00
00223              -7.40    -6000.00
00224              -7.00    -6200.00
00225              -6.00    -6000.00
00226              -6.80    -6000.00
00227              -7.00    -6000.00
00228              -5.60    -6000.00
00229              -6.00    -6000.00
00230              -6.80    -6000.00
00231              -5.80    -5800.00
00232              -5.80    -6000.00
00233              -6.60    -6000.00
00234              -6.20    -6000.00
00235              -5.20    -6000.00
00236              -6.20    -5800.00
00237              -6.20    -6000.00
00238              -5.00    -6000.00
00239              -6.00    -6000.00
00240              -6.00    -5800.00
00241              -5.20    -6000.00
00242              -4.60    -5800.00
00243              -6.00    -6000.00
00244              -5.40    -5800.00
00245              -4.60    -5800.00
00246              -5.40    -5800.00
00247              -5.40    -5800.00
00248              -5.00    -6000.00
00249              -5.00    -5800.00
00250              -5.20    -5800.00
00251              -5.20    -5600.00
00252              -4.20    -5800.00
00253              -4.60    -5600.00
00254              -5.20    -5800.00
00255              -4.40    -5600.00
00256              -4.20    -5600.00
00257              -5.40    -5600.00
00258              -4.40    -5600.00
00259              -3.60    -5600.00
00260              -4.60    -5600.00
00261              -4.40    -5600.00
00262              -3.80    -5600.00
00263              -4.40    -5600.00
00264              -4.20    -5600.00
00265              -4.20    -5600.00
00266              -4.00    -5600.00
00267              -3.80    -5600.00
00268              -4.20    -5400.00
00269              -4.20    -5200.00
00270              -3.80    -5600.00
00271              -3.80    -5600.00
00272              -3.80    -5200.00
00273              -3.60    -5400.00
00274              -3.60    -5600.00
00275              -2.80    -5400.00
00276              -3.40    -5200.00
00277              -3.60    -5200.00
00278              -3.00    -5200.00
00279              -3.60    -5200.00
00280              -3.40    -5200.00
00281              -3.60    -5000.00
00282              -3.00    -5000.00
00283              -3.80    -5200.00
00284              -3.80    -5000.00
00285              -2.80    -5000.00
00286              -3.00    -5000.00
00287              -3.60    -5000.00
00288              -2.80    -5000.00
00289              -2.20    -5000.00
00290              -3.40    -4600.00
00291              -3.40    -5000.00
00292              -2.80    -4800.00
00293              -2.80    -4800.00
00294              -3.00    -4600.00
00295              -2.60    -4800.00
00296              -2.60    -4600.00
00297              -2.80    -4800.00
00298              -3.00    -4800.00
00299              -2.20    -4600.00
00300              -2.80    -4600.00
00301              -3.00    -4600.00
00302              -2.80    -4600.00
00303              -2.80    -4600.00
00304              -2.80    -4600.00
00305              -2.60    -4400.00
00306              -2.60    -4600.00
00307              -2.80    -4400.00
00308              -2.20    -4400.00
00309              -2.60    -4400.00
00310              -2.60    -4600.00
00311              -2.20    -4400.00
00312              -2.60    -4400.00
00313              -2.60    -4400.00
00314              -2.20    -4400.00
00315              -2.40    -4400.00
00316              -2.80    -4400.00
00317              -2.60    -4200.00
00318              -2.60    -4200.00
00319              -2.00    -4200.00
00320              -2.20    -4200.00
00321              -2.60    -4200.00
00322              -2.00    -4200.00
00323              -2.20    -4200.00
00324              -2.60    -4000.00
00325              -2.20    -4000.00
00326              -1.80    -4000.00
00327              -2.20    -4000.00
00328              -2.20    -4000.00
00329              -1.80    -4000.00
00330              -2.00    -4000.00
00331              -2.20    -4000.00
00332              -2.20    -4000.00
00333              -2.00    -4000.00
00334              -2.20    -3800.00
00335              -2.00    -3600.00
00336              -1.80    -3800.00
00337              -1.80    -3800.00
00338              -1.80    -3600.00
00339              -1.80    -3600.00
00340              -1.80    -3600.00
00341              -1.60    -3600.00
00342              -1.80    -3600.00
00343              -1.80    -3600.00
00344              -2.00    -3600.00
00345              -2.00    -3400.00
00346              -1.80    -3400.00
00347              -1.40    -3400.00
00348              -1.80    -3200.00
00349              -1.80    -3400.00
00350              -1.40    -3400.00
00351              -1.40    -3200.00
00352              -1.80    -3200.00
00353              -1.40    -3400.00
00354              -1.40    -3200.00
00355              -1.40    -3200.00
00356              -1.40    -3200.00
00357              -1.40    -3200.00
00358              -1.40    -3000.00
00359              -1.60    -2800.00
00360              -1.40    -3000.00
00361              -1.60    -3000.00
00362              -1.20    -2800.00
00363              -1.40    -2800.00
00364              -1.20    -2800.00
00365              -1.20    -2800.00
00366              -1.40    -2800.00
00367              -1.20    -2800.00
00368              -1.40    -2600.00
00369              -1.40    -2800.00
00370              -1.40    -2600.00
00371              -1.20    -2600.00
00372              -1.40    -2600.00
00373              -1.60    -2600.00
00374              -1.40    -2600.00
00375              -1.20    -2600.00
00376              -1.80    -2400.00
00377              -1.20    -2400.00
00378              -1.20    -2400.00
00379              -1.60    -2400.00
00380              -1.40    -2200.00
00381              -1.20    -2200.00
00382              -1.20    -2200.00
00383              -1.20    -2200.00
00384              -1.20    -2000.00
00385              -1.20    -2000.00
00386              -1.20    -2000.00
00387              -1.20    -2000.00
00388              -1.20    -2000.00
00389              -1.20    -1800.00
00390              -1.20    -2000.00
00391              -1.20    -2000.00
00392              -1.20    -2000.00
00393              -1.20    -2000.00
00394              -1.00    -1800.00
00395              -1.00    -1600.00
00396              -1.20    -1800.00
00397              -0.60    -1800.00
00398              -1.00    -1600.00
00399              -0.80    -1600.00
00400              -0.60    -1800.00
00401              -1.00    -1600.00
00402              -1.00    -1600.00
00403              -0.60    -1600.00
00404              -1.00    -1600.00
00405              -0.80    -1200.00
00406              -1.00    -1400.00
00407              -0.60    -1200.00
00408              -0.80    -1200.00
00409              -0.60    -1200.00
00410              -0.60    -1200.00
00411              -0.60    -1200.00
00412              -0.60    -1000.00
00413              -0.40    -1000.00
00414              -0.60    -1200.00
00415              -0.60    -1200.00
00416              -0.60    -1000.00
00417              -0.40     -800.00
00418              -0.60     -800.00
00419              -0.60     -800.00
00420              -0.60    -1000.00
00421              -0.60     -800.00
00422              -0.60     -800.00
00423              -0.60     -800.00
00424              -0.60     -600.00
00425              -0.60     -600.00
00426              -0.60     -600.00
00427              -0.60     -600.00
00428              -0.40     -400.00
00429              -0.60     -400.00
00430              -0.60     -600.00
00431              -0.40     -400.00
00432              -0.60     -400.00
00433              -0.60     -400.00
00434              -0.60     -200.00
00435              -0.40     -400.00
00436              -0.60     -200.00
00437              -1.00     -200.00
00438              -0.40     -200.00
00439              -0.40     -200.00
00440              -1.20        0.00
00441              -0.40        0.00
00442               0.20        0.00
00443              -0.40        0.00
00444              -0.60        0.00
00445               0.20        0.00
00446               0.40      200.00
00447              -0.40        0.00
00448              -0.80      200.00
00449              -0.20      200.00
00450               1.00      200.00
00451               3.40      400.00
00452              13.40      400.00
00453              -7.40      600.00
00454             -25.00      400.00
00455              -9.80      400.00
00456              25.00      400.00
00457              13.80      600.00
00458             -25.00      600.00
00459              25.00      600.00
00460              25.00      800.00
00461             -25.00      400.00
00462             -25.00      800.00
00463              25.00      800.00
00464              25.00      800.00
00465             -25.00      800.00
00466              25.00      800.00
00467              25.00     1200.00
00468             -25.00      800.00
00469             -25.00     1200.00
00470              25.00      800.00
00471               5.20     1000.00
00472             -25.00     1200.00
00473              25.00     1200.00
00474              25.00     1200.00
00475             -25.00     1400.00
00476             -25.00     1400.00
00477              25.00     1000.00
00478              12.40     1400.00
00479             -25.00     1400.00
00480              20.20     1400.00
00481              25.00     1400.00
00482             -25.00     1800.00
00483             -25.00     1400.00
00484              25.00     1400.00
00485              -8.20     1800.00
00486             -25.00     1600.00
00487              25.00     1800.00
00488              25.00     1800.00
00489             -25.00     1800.00
00490              14.00     1800.00
00491              25.00     1800.00
00492             -25.00     2000.00
00493             -19.40     1800.00
00494              25.00     2000.00
00495              -4.80     2000.00
00496             -25.00     2000.00
00497              21.00     2000.00
00498              13.40     2200.00
00499             -22.80     2200.00
00500               1.80     2000.00
00501              18.40     2200.00
00502              -9.40     2000.00
00503             -10.00     2400.00
00504              14.00     2400.00
00505               4.20     2400.00
00506             -13.00     2400.00
00507               3.00     2400.00
00508              12.40     2400.00
00509              -8.20     2400.00
00510              -6.00     2400.00
00511              12.20     2600.00
00512               0.40     2600.00
00513             -10.00     2600.00
00514               6.80     2800.00
00515               6.80     2600.00
00516              -8.60     2800.00
00517               0.40     2800.00
00518               9.20     2800.00
00519              -3.40     2800.00
00520              -4.20     3000.00
00521               6.60     3000.00
00522               2.20     3000.00
00523              -5.00     3000.00
00524               3.00     3000.00
00525               5.00     3000.00
00526              -2.80     3000.00
00527               0.20     3000.00
00528               4.20     3200.00
00529              -0.20     3200.00
00530              -2.20     3200.00
00531               3.60     3200.00
00532               2.60     3200.00
00533              -1.80     3200.00
00534               1.40     3400.00
00535               3.60     3400.00
00536               0.20     3400.00
00537              -0.60     3400.00
00538               3.60     3600.00
00539               1.80     3400.00
00540              -0.60     3600.00
00541               2.20     3600.00
00542               2.60     3600.00
00543               0.20     3600.00
00544               0.60     3600.00
00545               2.00     3600.00
00546               1.40     3600.00
00547               1.20     3800.00
00548               1.80     3800.00
00549               1.40     3800.00
00550               1.00     3800.00
00551               1.40     3800.00
00552               2.00     3800.00
00553               1.40     4000.00
00554               1.60     4000.00
00555               2.20     4000.00
00556               2.00     4000.00
00557              -0.20     4000.00
00558               2.40     4000.00
00559               3.00     4000.00
00560              -0.60     4000.00
00561               2.00     4000.00
00562               3.40     4200.00
00563              -0.20     4200.00
00564               1.00     4200.00
00565               3.80     4400.00
00566               1.80     4400.00
00567               0.40     4400.00
00568               3.00     4200.00
00569               2.60     4400.00
00570               0.20     4400.00
00571               2.60     4400.00
00572               3.60     4600.00
00573               1.00     4400.00
00574               1.20     4600.00
00575               3.40     4600.00
00576               1.40     4600.00
00577               1.20     4400.00
00578               3.40     4600.00
00579               2.40     4600.00
00580               1.40     4600.00
00581               2.80     4800.00
00582               2.80     4800.00
00583               1.80     4800.00
00584               2.20     4600.00
00585               3.40     4800.00
00586               2.00     4800.00
00587               1.80     4800.00
00588               3.00     4800.00
00589               3.40     4800.00
00590               2.20     4800.00
00591               2.60     5000.00
00592               3.60     4800.00
00593               2.40     4800.00
00594               2.00     5000.00
00595               3.80     4800.00
00596               2.60     5200.00
00597               2.00     5200.00
00598               4.40     5200.00
00599               3.00     5200.00
00600               2.40     5200.00
00601               3.80     5000.00
00602               4.00     5200.00
00603               2.80     5200.00
00604               3.40     5200.00
00605               4.40     5400.00
00606               2.60     5200.00
00607               2.60     5200.00
00608               5.00     5400.00
00609               3.60     5200.00
00610               2.60     5400.00
00611               5.00     5400.00
00612               4.20     5400.00
00613               3.00     5400.00
00614               3.80     5400.00
00615               5.40     5400.00
00616               3.40     5400.00
00617               3.60     5600.00
00618               5.40     5600.00
00619               3.40     5600.00
00620               3.60     5600.00
00621               4.80     5600.00
00622               4.60     5600.00
00623               3.80     5600.00
00624               4.20     5600.00
00625               5.40     5600.00
00626               4.20     5600.00
00627               3.40     5600.00
00628               5.20     5600.00
00629               5.40     5600.00
00630               3.60     5600.00
00631               4.60     5600.00
00632               5.80     5600.00
00633               4.40     5800.00
00634               4.00     6000.00
00635               5.80     5800.00
00636               5.20     5600.00
00637               4.40     5600.00
00638               5.60     5800.00
00639               5.80     6000.00
00640               5.20     5800.00
00641               5.00     6000.00
00642               5.80     5800.00
00643               5.80     6000.00
00644               5.60     5800.00
00645               6.00     6000.00
00646               6.20     5800.00
00647               5.80     6000.00
00648               5.80     6000.00
00649               6.60     6000.00
00650               6.20     6000.00
00651               6.00     6000.00
00652               6.60     6000.00
00653               7.40     6000.00
00654               6.40     6000.00
00655               6.60     6000.00
00656               7.20     6000.00
00657               7.40     6000.00
00658               6.80     6000.00
00659               7.00     6000.00
00660               7.60     6000.00
00661               7.60     6000.00
00662               7.20     6200.00
00663               7.80     6000.00
00664               7.80     6200.00
00665               8.00     6000.00
00666               8.20     6200.00
00667               8.40     6200.00
00668               8.20     6000.00
00669               8.20     6200.00
00670               8.60     6200.00
00671               8.40     6000.00
00672               8.60     6200.00
00673               9.00     6200.00
00674               9.00     6400.00
00675               9.00     6200.00
00676               9.40     6000.00
00677               9.80     6200.00
00678               9.80     6200.00
00679               9.60     6200.00
00680              10.00     6200.00
00681               9.80     6000.00
00682               9.80     6200.00
00683              10.20     6200.00
00684              10.20     6200.00
00685              10.60     6200.00
00686              10.60     6200.00
00687              10.60     6200.00
00688              10.60     6200.00
00689              10.80     6200.00
00690              11.00     6200.00
00691              11.00     6200.00
00692              11.00     6200.00
00693              11.40     6200.00
00694              11.40     6200.00
00695              11.40     6200.00
00696              11.40     6200.00
00697              11.40     6200.00
00698              11.40     6000.00
00699              11.40     6200.00
00700              11.40     6200.00
00701              11.40     6200.00
00702              10.80     6000.00
00703              11.00     6200.00
00704              10.60     6200.00
00705              10.60     6200.00
00706              10.60     6200.00
00707              10.00     6200.00
00708              10.00     6000.00
00709              10.00     6200.00
00710               9.80     6200.00
00711               9.40     6200.00
00712               9.00     6200.00
00713               9.00     6200.00
00714               9.20     6200.00
00715               8.60     6000.00
00716               8.40     6200.00
00717               8.60     6000.00
00718               8.60     6200.00
00719               8.40     6200.00
00720               8.20     6000.00
00721               7.60     6000.00
00722               7.60     6000.00
00723               8.00     6200.00
00724               7.80     6000.00
00725               7.40     6000.00
00726               7.00     6200.00
00727               7.60     6000.00
00728               7.40     6000.00
00729               6.80     6000.00
00730               7.20     6000.00
00731               6.80     6000.00
00732               6.60     6000.00
00733               7.00     6000.00
00734               6.80     6000.00
00735               6.20     6000.00
00736               6.80     6000.00
00737               6.20     6000.00
00738               6.20     6000.00
00739               6.60     6000.00
00740               5.80     6000.00
00741               6.00     6000.00
00742               6.40     6000.00
00743               5.20     6000.00
00744               6.00     5800.00
00745               6.00     6000.00
00746               5.00     5800.00
00747               6.00     5800.00
00748               6.20     5800.00
00749               4.40     5800.00
00750               5.00     6000.00
00751               6.00     5800.00
00752               4.40     5600.00
00753               4.60     5600.00
00754               6.40     5800.00
00755               4.80     5800.00
00756               4.20     5600.00
00757               5.80     5600.00
00758               4.80     5600.00
00759               3.60     5600.00
00760               5.00     5600.00
00761               5.00     5600.00
00762               3.60     5600.00
00763               4.20     5600.00
00764               5.00     5600.00
00765               4.20     5600.00
00766               3.80     5600.00
00767               4.60     5600.00
00768               4.20     5600.00
00769               3.60     5600.00
00770               4.20     5400.00
00771               3.80     5600.00
00772               4.00     5600.00
00773               3.80     5400.00
00774               3.60     5600.00
00775               3.60     5600.00
00776               3.40     5400.00
00777               3.60     5400.00
00778               4.20     5400.00
00779               2.60     5400.00
00780               3.80     5400.00
00781               3.80     5400.00
00782               2.60     5400.00
00783               3.80     5200.00
00784               4.20     5400.00
00785               2.60     5200.00
00786               2.80     5200.00
00787               4.20     5200.00
00788               3.00     5200.00
00789               3.00     5200.00
00790               3.20     5200.00
00791               3.20     5000.00
00792               3.00     5200.00
00793               2.80     5000.00
00794               2.60     5200.00
00795               3.40     5000.00
00796               3.00     4800.00
00797               2.60     5200.00
00798               3.00     5000.00
00799               3.00     5000.00
00800               2.20     4800.00
00801               2.80     4800.00
00802               3.40     4800.00
00803               2.60     4800.00
00804               2.60     4800.00
00805               2.60     4600.00
00806               2.20     4800.00
00807               2.60     4800.00
00808               2.80     4600.00
00809               2.00     4600.00
00810               2.20     4600.00
00811               2.80     4600.00
00812               2.60     4600.00
00813               2.00     4600.00
00814               2.60     4600.00
00815               2.60     4600.00
00816               2.00     4400.00
00817               2.20     4600.00
00818               2.00     4400.00
00819               2.00     4400.00
00820               2.00     4400.00
00821               1.80     4400.00
00822               2.00     4400.00
00823               2.00     4400.00
00824               1.80     4400.00
00825               2.00     4200.00
00826               1.80     4400.00
00827               1.80     4200.00
00828               2.00     4200.00
00829               1.40     4200.00
00830               1.80     4000.00
00831               2.00     4200.00
00832               1.40     4000.00
00833               1.60     4000.00
00834               1.80     4000.00
00835               1.40     4000.00
00836               1.40     4000.00
00837               1.60     4000.00
00838               1.20     4000.00
00839               1.20     3800.00
00840               1.40     4000.00
00841               1.40     3800.00
00842               1.40     3800.00
00843               1.40     3800.00
00844               1.20     3600.00
00845               1.40     3800.00
00846               1.40     3800.00
00847               1.20     3600.00
00848               1.40     3800.00
00849               1.40     3600.00
00850               1.00     3600.00
00851               1.20     3400.00
00852               1.00     3600.00
00853               1.00     3400.00
00854               1.20     3200.00
00855               1.00     3600.00
00856               1.20     3400.00
00857               1.20     3400.00
00858               1.20     3400.00
00859               1.20     3200.00
00860               1.00     3200.00
00861               1.00     3200.00
00862               1.20     3200.00
00863               1.20     3200.00
00864               0.40     3200.00
00865               1.60     3000.00
00866               1.00     3200.00
00867               0.20     3200.00
00868               1.40     3000.00
00869               1.00     2800.00
00870               0.40     3000.00
00871               1.20     3000.00
00872               1.00     2800.00
00873               0.80     2800.00
00874               0.60     2800.00
00875               1.00     2800.00
00876               1.00     2800.00
00877               0.60     2800.00
00878               1.00     2800.00
00879               1.00     2800.00
00880               1.00     2600.00
00881               0.40     2800.00
00882               0.40     2400.00
00883               1.00     2400.00
00884               0.40     2400.00
00885               0.20     2400.00
00886               1.00     2400.00
00887               0.40     2400.00
00888               0.40     2200.00
00889               1.00     2200.00
00890               0.20     2200.00
00891               0.40     2200.00
00892               0.40     2200.00
00893               0.40     2000.00
00894               0.40     2000.00
00895               0.40     2000.00
00896               0.20     2000.00
00897               0.20     2000.00
00898               0.40     1800.00
00899               0.20     2000.00
00900               0.20     1800.00
00901               0.20     2000.00
00902               0.00     2000.00
00903               0.40     1800.00
00904               0.20     1800.00
00905               0.20     1800.00
00906               0.40     1800.00
00907               0.20     1600.00
00908               0.20     1600.00
00909               0.20     1600.00
00910              -0.20     1600.00
00911              -0.20     1400.00
00912               0.20     1400.00
00913               0.20     1400.00
00914              -0.20     1400.00
00915               0.40     1400.00
00916               0.00     1400.00
00917              -0.20     1200.00
00918              -0.20     1200.00
00919              -0.40     1200.00
00920              -0.20     1200.00
00921               0.20     1000.00
00922               0.20     1200.00
00923              -0.20     1000.00
00924               0.20      800.00
00925               0.20      800.00
00926              -0.60      800.00
00927              -0.20      800.00
00928               0.20      800.00
00929              -0.40      800.00
00930              -0.40      800.00
00931               0.40      800.00
00932              -0.40      600.00
00933              -0.60      600.00
00934               0.20      600.00
00935              -0.20      600.00
00936              -0.40      600.00
00937               0.20      600.00
00938               0.20      400.00
00939              -0.60      400.00
00940               0.40      400.00
00941              -0.20      400.00
00942              -1.00      400.00
00943               0.20      400.00
00944              -0.20      400.00
00945              -0.60      200.00
00946              -0.40        0.00
00947               0.40      200.00
00948              -0.60        0.00
00949              -1.00        0.00
00950               0.40        0.00
00951              -0.60        0.00
00952              -1.20        0.00
00953              -0.40        0.00
00954               0.40     -200.00
00955              -0.40     -200.00
00956              -1.20        0.00
00957               0.40     -200.00
00958               0.20     -400.00
00959              -2.20     -400.00
00960              -0.40     -200.00
00961               6.20     -400.00
00962              19.40     -400.00
00963             -18.60     -400.00
00964             -25.00     -400.00
00965              20.20     -400.00
00966              25.00     -600.00
00967             -21.00     -600.00
00968             -25.00     -400.00
00969              25.00     -800.00
00970              25.00     -400.00
00971             -25.00    -1000.00
00972             -25.00     -600.00
00973              25.00    -1000.00
00974              25.00    -1000.00
00975             -25.00     -800.00
00976              25.00    -1000.00
00977              25.00     -800.00
00978             -25.00    -1000.00
00979             -25.00    -1000.00
00980              25.00    -1200.00
00981               7.60    -1000.00
00982             -25.00    -1000.00
00983              25.00    -1400.00
00984              25.00    -1200.00
00985             -25.00    -1200.00
00986             -12.20    -1400.00
00987              25.00    -1600.00
00988              -7.00    -1400.00
00989             -25.00    -1600.00
00990              25.00    -1600.00
00991              25.00    -1400.00
00992             -25.00    -1400.00
00993             -25.00    -1600.00
00994              25.00    -1800.00
00995             -21.40    -1600.00
00996             -25.00    -1800.00
00997              25.00    -1800.00
00998              25.00    -1600.00
00999             -25.00    -1800.00
01000              25.00    -1800.00
01001              25.00    -2000.00
01002             -25.00    -2000.00
01003              -6.00    -2000.00
01004              25.00    -1800.00
01005             -15.00    -2000.00
01006             -25.00    -2000.00
01007              25.00    -2000.00
01008              12.80    -2000.00
01009             -25.00    -2200.00
01010               4.80    -2400.00
01011              22.20    -2400.00
01012             -19.60    -2200.00
01013              -9.00    -2400.00
01014              17.40    -2400.00
01015              -2.60    -2400.00
01016             -15.80    -2400.00
01017               5.80    -2400.00
01018              10.20    -2600.00
01019             -15.80    -2400.00
01020              -3.80    -2600.00
01021              14.00    -2800.00
01022              -9.00    -2600.00
01023             -10.20    -2600.00
01024               9.00    -2600.00
01025               0.80    -2600.00
01026             -12.80    -2800.00
01027               3.40    -2800.00
01028               7.00    -2800.00
01029             -11.40    -2800.00
01030              -2.20    -3000.00
01031               7.40    -3000.00
01032              -6.00    -3200.00
01033              -6.80    -3000.00
01034               4.20    -3200.00
01035               0.40    -3200.00
01036              -7.40    -3200.00
01037              -0.40    -3200.00
01038               2.80    -3200.00
01039              -5.40    -3200.00
01040              -3.60    -3400.00
01041               2.60    -3400.00
01042              -2.60    -3400.00
01043              -4.60    -3400.00
01044               0.40    -3400.00
01045               0.20    -3400.00
01046              -4.40    -3400.00
01047              -2.00    -3400.00
01048               1.00    -3600.00
01049              -2.80    -3400.00
01050              -3.00    -3600.00
01051              -0.40    -3400.00
01052              -1.20    -3600.00
01053              -3.20    -3800.00
01054              -2.00    -3600.00
01055              -1.00    -3800.00
01056              -2.80    -3600.00
01057              -2.00    -4000.00
01058              -1.20    -3800.00
01059              -2.20    -3800.00
01060              -2.60    -3800.00
01061              -1.20    -4000.00
01062              -2.20    -4000.00
01063              -2.20    -4000.00
01064              -0.60    -4000.00
01065              -2.80    -4000.00
01066              -2.00    -4200.00
01067              -1.40    -4000.00
01068              -2.60    -4000.00
01069              -2.20    -4000.00
01070              -2.00    -4200.00
01071              -1.80    -4200.00
01072              -2.60    -4200.00
01073              -2.40    -4200.00
01074              -2.00    -4400.00
01075              -2.20    -4400.00
01076              -2.40    -4400.00
01077              -2.20    -4400.00
01078              -2.00    -4400.00
01079              -2.80    -4400.00
01080              -2.60    -4400.00
01081              -2.00    -4400.00
01082              -2.80    -4400.00
01083              -3.40    -4600.00
01084              -2.80    -4600.00
01085              -2.20    -4600.00
01086              -2.80    -4600.00
01087              -2.80    -4800.00
01088              -2.20    -4600.00
01089              -2.60    -4800.00
01090              -3.40    -4600.00
01091              -2.60    -4800.00
01092              -2.80    -4600.00
01093              -3.60    -4600.00
01094              -2.40    -4800.00
01095              -2.20    -4800.00
01096              -3.60    -4600.00
01097              -3.00    -4600.00
01098              -2.80    -5000.00
01099              -3.20    -5000.00
01100              -3.40    -5000.00
01101              -3.00    -5000.00
01102              -3.00    -5000.00
01103              -3.40    -5000.00
01104              -3.00    -5000.00
01105              -3.00    -5200.00
01106              -3.40    -4800.00
01107              -3.60    -5000.00
01108              -2.80    -5000.00
01109              -3.40    -5200.00
01110              -3.60    -5200.00
01111              -3.40    -5200.00
01112              -3.00    -5200.00
01113              -4.20    -5200.00
01114              -3.40    -5200.00
01115              -3.40    -5400.00
01116              -4.40    -5200.00
01117              -3.60    -5200.00
01118              -2.80    -5200.00
01119              -4.40    -5200.00
01120              -3.80    -5400.00
01121              -3.40    -5600.00
01122              -4.00    -5400.00
01123              -4.20    -5600.00
01124              -3.40    -5400.00
01125              -4.60    -5600.00
01126              -3.80    -5400.00
01127              -3.40    -5400.00
01128              -4.60    -5600.00
01129              -4.40    -5600.00
01130              -3.80    -5600.00
01131              -4.60    -5600.00
01132              -4.80    -5600.00
01133              -4.20    -5600.00
01134              -4.00    -5800.00
01135              -4.60    -5800.00
01136              -4.40    -5600.00
01137              -4.40    -5600.00
01138              -4.60    -5600.00
01139              -4.40    -5800.00
01140              -5.20    -5600.00
01141              -4.60    -5800.00
01142              -4.60    -5600.00
01143              -5.60    -5800.00
01144              -5.20    -5800.00
01145              -4.20    -5800.00
01146              -6.60    -5800.00
01147              -5.80    -5800.00
01148              -4.60    -5800.00
01149              -6.20    -6000.00
01150              -5.40    -5800.00
01151              -5.60    -6000.00
01152              -5.40    -6000.00
01153              -6.00    -6000.00
01154              -7.00    -6000.00
01155              -3.80    -5800.00
01156              -7.00    -6000.00
01157              -7.40    -6000.00
01158              -5.40    -6000.00
01159              -5.00    -6000.00
01160              -8.60    -6000.00
01161              -7.00    -6000.00
01162              -4.60    -6000.00
01163              -7.00    -6000.00
01164              -8.60    -6000.00
01165              -6.00    -6000.00
01166              -6.80    -6000.00
01167              -7.00    -6000.00
01168              -8.00    -6000.00
01169              -6.60    -6000.00
01170              -7.00    -6000.00
01171              -9.20    -6000.00
01172              -7.00    -6000.00
01173              -6.00    -6000.00
01174              -9.20    -6200.00
01175              -8.40    -6000.00
01176              -6.60    -6000.00
01177              -8.40    -6000.00
01178              -9.40    -6000.00
01179              -8.40    -6000.00
01180              -7.80    -6200.00
01181              -8.60    -6000.00
01182              -8.40    -6200.00
01183              -8.60    -6200.00
01184              -9.40    -6000.00
01185              -9.20    -6200.00
01186              -9.20    -6200.00
01187              -9.20    -6000.00
01188              -9.40    -6200.00
01189              -9.40    -6200.00
01190              -9.40    -6000.00
01191              -9.60    -6200.00
01192             -10.20    -6000.00
01193             -10.80    -6000.00
01194             -10.00    -6200.00
01195              -9.20    -6200.00
01196             -10.40    -6200.00
01197             -11.00    -6000.00
01198             -10.20    -6200.00
01199             -10.80    -6200.00
01200             -11.40    -6200.00
01201             -11.00    -6200.00
01202             -10.80    -6000.00
01203             -11.00    -6200.00
01204             -11.40    -6200.00
01205             -11.60    -6400.00
01206             -11.60    -6200.00
01207             -11.60    -6400.00
01208             -11.60    -6400.00
01209             -11.60    -6200.00
01210             -11.40    -6400.00
01211             -11.60    -6400.00
01212             -12.20    -6400.00
01213             -11.80    -6400.00
01214             -10.60    -6200.00
01215             -11.00    -6200.00
01216             -11.40    -6400.00
01217             -10.20    -6200.00
01218             -10.00    -6400.00
01219             -11.00    -6200.00
01220             -10.60    -6200.00
01221              -9.40    -6400.00
01222             -10.20    -6200.00
01223             -10.20    -6000.00
01224              -8.80    -6000.00
01225              -8.60    -6000.00
01226              -9.80    -6200.00
01227              -9.00    -6000.00
01228              -9.00    -6200.00
01229              -8.40    -6200.00
01230              -8.60    -6000.00
01231              -7.80    -6200.00
01232              -8.80    -6200.00
01233              -7.80    -6000.00
01234              -8.40    -6000.00
01235              -8.60    -6000.00
01236              -7.80    -6000.00
01237              -7.20    -6000.00
01238              -7.60    -6000.00
01239              -7.00    -6000.00
01240              -6.60    -6200.00
01241              -8.40    -6000.00
01242              -7.80    -6000.00
01243              -5.40    -6000.00
01244              -6.60    -6000.00
01245              -8.60    -6000.00
01246              -7.00    -6000.00
01247              -5.00    -6000.00
01248              -6.40    -6000.00
01249              -7.40    -6000.00
01250              -6.20    -6000.00
01251              -5.40    -6000.00
01252              -7.00    -6000.00
01253              -6.40    -6000.00
01254              -5.00    -6000.00
01255              -5.40    -6000.00
01256              -6.40    -6000.00
01257              -6.00    -5800.00
01258              -5.20    -5800.00
01259              -6.00    -6000.00
01260              -6.00    -5800.00
01261              -4.80    -5800.00
01262              -5.00    -5800.00
01263              -5.80    -6000.00
01264              -5.80    -6000.00
01265              -5.00    -5800.00
01266              -5.00    -5800.00
01267              -4.60    -5800.00
01268              -5.00    -5800.00
01269              -5.00    -5800.00
01270              -5.20    -5800.00
01271              -5.20    -5600.00
01272              -5.00    -5600.00
01273              -4.40    -5800.00
01274              -4.40    -5800.00
01275              -4.00    -5800.00
01276              -4.60    -5600.00
01277              -4.40    -5600.00
01278              -4.40    -5600.00
01279              -4.80    -5600.00
01280              -4.40    -5600.00
01281              -4.40    -5600.00
01282              -4.20    -5600.00
01283              -4.20    -5600.00
01284              -4.60    -5600.00
01285              -4.40    -5600.00
01286              -3.80    -5600.00
01287              -4.20    -5600.00
01288              -4.40    -5400.00
01289              -3.80    -5600.00
01290              -3.80    -5600.00
01291              -4.00    -5200.00
01292              -4.20    -5200.00
01293              -3.00    -5400.00
01294              -3.80    -5400.00
01295              -4.60    -5200.00
01296              -2.80    -5200.00
01297              -3.60    -5200.00
01298              -4.60    -5200.00
01299              -3.00    -5200.00
01300              -2.80    -5400.00
01301              -4.60    -5200.00
01302              -3.80    -5200.00
01303              -2.60    -5200.00
01304              -4.00    -5000.00
01305              -3.60    -5000.00
01306              -2.20    -5000.00
01307              -3.60    -5000.00
01308              -3.60    -5000.00
01309              -2.40    -4800.00
01310              -3.20    -5000.00
01311              -3.60    -4800.00
01312              -2.60    -4800.00
01313              -2.60    -5000.00
01314              -3.60    -4800.00
01315              -2.80    -4600.00
01316              -2.60    -5000.00
01317              -3.00    -4600.00
01318              -2.80    -4800.00
01319              -2.60    -4600.00
01320              -2.60    -4800.00
01321              -2.80    -4600.00
01322              -2.60    -4600.00
01323              -2.80    -4600.00
01324              -2.80    -4600.00
01325              -2.80    -4600.00
01326              -2.40    -4600.00
01327              -2.40    -4600.00
01328              -2.60    -4400.00
01329              -2.60    -4400.00
01330              -2.20    -4400.00
01331              -2.40    -4400.00
01332              -2.80    -4400.00
01333              -2.20    -4400.00
01334              -2.40    -4400.00
01335              -2.80    -4400.00
01336              -2.00    -4400.00
01337              -2.00    -4200.00
01338              -2.60    -4400.00
01339              -2.20    -4400.00
01340              -2.20    -4400.00
01341              -2.40    -4200.00
01342              -2.20    -4200.00
01343              -2.20    -4200.00
01344              -2.20    -4000.00
01345              -2.60    -4200.00
01346              -2.20    -4000.00
01347              -2.20    -4200.00
01348              -2.20    -4000.00
01349              -2.20    -4000.00
01350              -2.00    -4000.00
01351              -2.00    -4000.00
01352              -2.00    -4000.00
01353              -2.20    -4000.00
01354              -2.00    -4000.00
01355              -2.00    -3800.00
01356              -2.20    -4000.00
01357              -2.00    -3600.00
01358              -2.00    -3800.00
01359              -2.20    -3800.00
01360              -1.80    -3600.00
01361              -1.80    -3600.00
01362              -2.20    -3600.00
01363              -1.40    -3600.00
01364              -2.00    -3600.00
01365              -2.20    -3400.00
01366              -1.20    -3400.00
01367              -1.80    -3600.00
01368              -2.20    -3400.00
01369              -1.00    -3400.00
01370              -2.00    -3400.00
01371              -1.80    -3400.00
01372              -1.20    -3200.00
01373              -2.00    -3200.00
01374              -1.40    -3400.00
01375              -2.00    -3200.00
01376              -1.80    -3200.00
01377              -1.80    -3200.00
01378              -1.20    -3200.00
01379              -1.40    -3200.00
01380              -2.00    -3000.00
01381              -1.20    -3000.00
01382              -1.80    -2800.00
01383              -1.40    -2800.00
01384              -1.20    -2800.00
01385              -1.20    -2800.00
01386              -1.40    -2800.00
01387              -1.60    -2800.00
01388              -1.00    -2800.00
01389              -1.40    -2600.00
01390              -1.40    -2600.00
01391              -0.60    -2600.00
01392              -1.20    -2600.00
01393              -1.80    -2600.00
01394              -1.00    -2600.00
01395              -0.80    -2400.00
01396              -1.80    -2400.00
01397              -1.20    -2400.00
01398              -1.00    -2400.00
01399              -1.00    -2400.00
01400              -1.00    -2400.00
01401              -1.00    -2400.00
01402              -1.00    -2400.00
01403              -1.40    -2400.00
01404              -1.00    -2200.00
01405              -1.00    -2200.00
01406              -1.20    -2000.00
01407              -1.20    -2000.00
01408              -1.20    -2200.00
01409              -1.40    -2000.00
01410              -1.20    -2000.00
01411              -1.00    -2000.00
01412              -1.40    -2000.00
01413              -1.00    -1800.00
01414              -0.60    -1800.00
01415              -1.20    -1800.00
01416              -1.20    -1800.00
01417              -1.20    -1800.00
01418              -1.20    -1800.00
01419              -1.00    -1800.00
01420              -1.00    -1600.00
01421              -1.20    -1600.00
01422              -1.20    -1600.00
01423              -1.20    -1600.00
01424              -1.20    -1200.00
01425              -1.20    -1400.00
01426              -1.20    -1600.00
01427              -0.80    -1200.00
01428              -1.20    -1200.00
01429              -1.00    -1200.00
01430              -0.60    -1400.00
01431              -1.00    -1400.00
01432              -1.00    -1200.00
01433              -0.60    -1000.00
01434              -1.00    -1200.00
01435              -1.00    -1000.00
01436              -0.60    -1000.00
01437              -0.60    -1000.00
01438              -0.60    -1000.00
01439              -0.60    -1000.00
01440              -0.60    -1000.00
01441              -0.80     -800.00
01442              -0.60     -800.00
01443              -0.60     -800.00
01444              -0.60     -800.00
01445              -0.60     -600.00
01446              -0.60     -600.00
01447              -0.60     -400.00
01448              -0.60     -400.00
01449              -0.60     -600.00
01450              -0.40     -400.00
01451              -0.60     -400.00
01452              -0.60     -400.00
01453              -0.40     -400.00
01454              -0.60     -400.00
01455              -0.60     -200.00
01456              -0.40     -200.00
01457              -0.40     -200.00
01458              -0.60     -200.00
01459              -0.40     -200.00
01460              -0.20        0.00
01461              -0.40     -200.00
01462              -0.60        0.00
01463               0.00        0.00
01464               0.20        0.00
01465              -0.40        0.00
01466               0.20        0.00
01467               0.60        0.00
01468              -0.20      200.00
01469              -1.20      200.00
01470              -0.20      200.00
01471               0.40      400.00
01472               2.20      400.00
01473              12.60      400.00
01474              -0.60      400.00
01475             -25.00      200.00
01476             -24.20      400.00
01477              25.00      400.00
01478              25.00      600.00
01479             -25.00      400.00
01480             -15.80      600.00
01481              25.00      800.00
01482              -3.40      600.00
01483             -25.00      800.00
01484              25.00      400.00
01485              25.00     1000.00
01486             -25.00      800.00
01487             -19.80      800.00
01488              25.00      800.00
01489             -25.00      800.00
01490             -25.00     1200.00
01491              25.00      800.00
01492              25.00     1000.00
01493             -25.00     1200.00
01494              11.60     1200.00
01495              25.00     1200.00
01496             -25.00     1200.00
01497             -25.00     1400.00
01498              25.00     1200.00
01499              25.00     1400.00
01500             -25.00     1600.00
01501              -8.60     1400.00
01502              25.00     1400.00
01503             -25.00     1800.00
01504             -25.00     1400.00
01505              25.00     1400.00
01506              22.00     1800.00
01507             -25.00     1600.00
01508              25.00     1800.00
01509              25.00     1800.00
01510             -25.00     1800.00
01511              -9.60     1800.00
01512              25.00     2000.00
01513             -21.20     2000.00
01514             -25.00     1800.00
01515              25.00     2000.00
01516              11.60     2000.00
01517             -25.00     2000.00
01518              11.40     2000.00
01519              21.80     2200.00
01520             -19.60     2200.00
01521              -6.40     2200.00
01522              20.20     2200.00
01523              -2.80     2400.00
01524             -13.80     2200.00
01525              10.80     2400.00
01526               8.40     2200.00
01527             -11.80     2400.00
01528              -1.40     2400.00
01529              13.20     2400.00
01530              -3.00     2400.00
01531              -9.00     2600.00
01532               9.40     2400.00
01533               4.40     2600.00
01534              -9.20     2600.00
01535               3.00     2800.00
01536               8.60     2800.00
01537              -5.80     2800.00
01538              -2.20     2800.00
01539               8.80     2800.00
01540              -1.40     3000.00
01541              -5.20     2800.00
01542               5.40     2800.00
01543               3.40     3000.00
01544              -4.60     2800.00
01545               1.40     3000.00
01546               5.20     3200.00
01547              -1.80     3000.00
01548              -1.40     3200.00
01549               3.60     3200.00
01550               1.80     3000.00
01551              -2.00     3200.00
01552               1.40     3200.00
01553               3.60     3200.00
01554              -0.60     3200.00
01555              -0.40     3400.00
01556               3.00     3400.00
01557               1.00     3400.00
01558              -0.60     3400.00
01559               2.60     3600.00
01560               1.20     3600.00
01561               0.20     3600.00
01562               1.80     3600.00
01563               0.60     3600.00
01564               1.20     3600.00
01565               2.20     3600.00
01566               0.20     3600.00
01567               0.60     3600.00
01568               3.40     3800.00
01569               1.20     3800.00
01570              -0.20     3800.00
01571               2.60     3800.00
01572               2.00     3800.00
01573               0.40     4000.00
01574               1.80     3800.00
01575               2.80     4000.00
01576               1.20     4000.00
01577               1.20     4000.00
01578               2.00     4000.00
01579               2.20     4000.00
01580               1.20     4000.00
01581               1.40     4000.00
01582               3.00     4200.00
01583               2.40     4000.00
01584               1.00     4200.00
01585               1.80     4200.00
01586               2.60     4400.00
01587               1.00     4400.00
01588               1.80     4200.00
01589               3.00     4400.00
01590               2.00     4200.00
01591               1.80     4400.00
01592               2.40     4400.00
01593               2.00     4600.00
01594               1.40     4400.00
01595               1.80     4400.00
01596               3.00     4600.00
01597               2.60     4600.00
01598               2.40     4600.00
01599               2.60     4400.00
01600               1.40     4400.00
01601               2.60     4800.00
01602               3.00     4600.00
01603               1.00     4600.00
01604               2.00     4600.00
01605               3.80     4800.00
01606               2.60     4800.00
01607               1.20     4800.00
01608               2.80     4800.00
01609               2.80     4800.00
01610               2.00     4800.00
01611               2.20     4800.00
01612               3.40     5000.00
01613               3.40     4800.00
01614               2.60     4800.00
01615               2.20     4800.00
01616               3.40     4800.00
01617               2.60     5000.00
01618               2.20     5000.00
01619               3.40     5200.00
01620               3.00     5000.00
01621               2.60     5200.00
01622               3.40     5200.00
01623               3.20     5200.00
01624               2.60     5000.00
01625               3.40     5200.00
01626               3.60     5200.00
01627               2.80     5400.00
01628               3.60     5400.00
01629               4.20     5400.00
01630               3.40     5400.00
01631               3.40     5400.00
01632               3.80     5400.00
01633               3.80     5400.00
01634               3.40     5400.00
01635               3.80     5400.00
01636               3.80     5400.00
01637               3.40     5400.00
01638               4.20     5600.00
01639               4.20     5600.00
01640               3.60     5600.00
01641               3.80     5400.00
01642               4.40     5400.00
01643               4.40     5400.00
01644               4.40     5600.00
01645               4.60     5600.00
01646               5.00     5600.00
01647               4.20     5600.00
01648               4.40     5600.00
01649               5.00     5600.00
01650               5.00     5600.00
01651               4.20     5600.00
01652               5.20     5600.00
01653               5.20     5600.00
01654               4.80     5600.00
01655               5.00     5800.00
01656               5.80     5800.00
01657               5.00     5600.00
01658               5.80     5800.00
01659               5.80     5800.00
01660               5.00     5800.00
01661               5.40     5800.00
01662               6.20     5800.00
01663               5.60     6000.00
01664               5.80     6000.00
01665               6.00     6000.00
01666               5.80     5800.00
01667               5.40     6000.00
01668               6.00     6000.00
01669               6.00     6000.00
01670               6.00     6000.00
01671               6.20     6000.00
01672               6.60     6000.00
01673               6.20     6000.00
01674               6.40     6000.00
01675               6.80     6000.00
01676               6.80     6000.00
01677               6.60     6000.00
01678               7.00     6000.00
01679               7.00     6000.00
01680               7.40     6000.00
01681               7.00     6000.00
01682               7.40     6000.00
01683               7.00     6000.00
01684               7.00     6200.00
01685               7.20     6200.00
01686               7.80     6000.00
01687               8.20     6200.00
01688               8.20     6000.00
01689               9.00     6200.00
01690               9.40     6000.00
01691               8.40     6200.00
01692               8.40     6200.00
01693               8.20     6200.00
01694               7.60     6200.00
01695               8.00     6200.00
01696               8.40     6200.00
01697               9.80     6200.00
01698              10.00     6200.00
01699              10.00     6200.00
01700              11.00     6200.00
01701              10.00     6200.00
01702               8.60     6200.00
01703               9.80     6000.00
01704               9.00     6200.00
01705               9.00     6200.00
01706              11.40     6200.00
01707              11.00     6200.00
01708              11.60     6200.00
01709              12.20     6200.00
01710              11.00     6200.00
01711              10.80     6000.00
01712              10.60     6200.00
01713               9.80     6200.00
01714              10.60     6200.00
01715              11.40     6200.00
01716              11.80     6200.00
01717              12.40     6200.00
01718              12.20     6200.00
01719              11.60     6200.00
01720              11.00     6200.00
01721              10.80     6200.00
01722              11.20     6000.00
01723              10.80     6200.00
01724              11.00     6200.00
01725              11.40     6200.00
01726              10.60     6200.00
01727              10.80     6200.00
01728              10.60     6000.00
01729               9.80     6200.00
01730               9.80     6200.00
01731              10.00     6000.00
01732               9.40     6000.00
01733               9.40     6000.00
01734               9.20     6200.00
01735               8.60     6200.00
01736               9.00     6200.00
01737               9.00     6200.00
01738               8.80     6000.00
01739               8.60     6000.00
01740               8.40     6000.00
01741               8.00     6200.00
01742               7.80     6000.00
01743               7.40     6000.00
01744               7.00     6200.00
01745               7.80     6000.00
01746               7.60     6000.00
01747               7.40     6000.00
01748               7.80     6000.00
01749               7.60     6000.00
01750               6.60     6000.00
01751               6.60     6000.00
01752               7.00     6200.00
01753               6.20     6000.00
01754               6.20     6000.00
01755               7.20     6200.00
01756               6.60     6000.00
01757               6.20     6000.00
01758               6.80     6000.00
01759               6.20     6000.00
01760               5.40     6000.00
01761               6.00     6000.00
01762               5.80     6200.00
01763               5.20     6000.00
01764               5.80     6000.00
01765               6.00     6000.00
01766               5.80     5800.00
01767               5.80     6000.00
01768               5.60     6000.00
01769               5.60     6000.00
01770               5.00     5800.00
01771               5.00     5800.00
01772               5.60     5600.00
01773               5.20     5800.00
01774               4.60     5600.00
01775               5.80     5800.00
01776               5.40     6000.00
01777               4.40     5800.00
01778               4.80     5800.00
01779               5.00     5600.00
01780               4.40     5600.00
01781               4.20     5600.00
01782               5.20     5600.00
01783               4.60     5600.00
01784               4.20     5600.00
01785               5.00     5600.00
01786               4.60     5800.00
01787               4.00     5600.00
01788               4.20     5600.00
01789               4.40     5600.00
01790               3.80     5600.00
01791               4.00     5600.00
01792               4.20     5600.00
01793               3.80     5400.00
01794               3.60     5600.00
01795               4.20     5400.00
01796               4.00     5600.00
01797               3.60     5400.00
01798               3.80     5400.00
01799               3.60     5400.00
01800               3.40     5400.00
01801               3.40     5400.00
01802               3.60     5200.00
01803               3.60     5200.00
01804               3.00     5400.00
01805               3.40     5400.00
01806               3.60     5200.00
01807               2.80     5200.00
01808               2.80     5200.00
01809               3.20     5200.00
01810               2.80     5200.00
01811               2.80     5200.00
01812               3.20     5200.00
01813               3.00     5200.00
01814               3.00     5200.00
01815               2.80     5200.00
01816               2.80     5200.00
01817               2.60     5200.00
01818               2.60     5000.00
01819               2.80     4800.00
01820               2.60     5200.00
01821               2.60     4800.00
01822               2.60     5000.00
01823               2.60     4800.00
01824               2.40     4800.00
01825               2.60     4800.00
01826               2.60     4800.00
01827               2.60     4800.00
01828               2.60     4800.00
01829               2.60     4800.00
01830               2.00     4600.00
01831               2.20     4600.00
01832               2.80     4600.00
01833               2.20     4600.00
01834               2.00     4600.00
01835               2.60     4600.00
01836               2.60     4600.00
01837               2.00     4400.00
01838               2.20     4400.00
01839               2.20     4400.00
01840               1.80     4600.00
01841               2.00     4400.00
01842               2.20     4400.00
01843               2.00     4400.00
01844               2.20     4400.00
01845               2.00     4400.00
01846               2.20     4400.00
01847               2.20     4400.00
01848               1.60     4200.00
01849               2.00     4400.00
01850               2.20     4000.00
01851               1.60     4000.00
01852               2.00     4000.00
01853               1.80     4200.00
01854               1.40     4000.00
01855               2.00     4000.00
01856               2.00     4000.00
01857               1.20     4000.00
01858               2.00     4000.00
01859               1.80     4000.00
01860               1.20     3800.00
01861               1.80     3800.00
01862               1.40     4000.00
01863               1.20     3800.00
01864               1.60     3800.00
01865               1.00     3800.00
01866               1.20     3600.00
01867               1.40     3600.00
01868               1.20     3600.00
01869               1.00     3600.00
01870               2.20     3600.00
01871               0.60     3600.00
01872               0.40     3600.00
01873               2.00     3600.00
01874               1.00     3400.00
01875               0.20     3600.00
01876               1.80     3400.00
01877               1.40     3400.00
01878               0.00     3600.00
01879               1.40     3200.00
01880               1.80     3200.00
01881               0.20     3200.00
01882               0.60     3200.00
01883               2.00     3200.00
01884               0.20     3200.00
01885               0.20     3200.00
01886               1.80     3200.00
01887               0.60     3000.00
01888               0.20     3200.00
01889               1.40     3000.00
01890               1.20     2800.00
01891               0.40     3000.00
01892               0.60     2800.00
01893               1.20     2800.00
01894               0.60     3000.00
01895               0.40     2800.00
01896               1.00     2800.00
01897               0.40     2800.00
01898               0.40     2600.00
01899               0.60     2800.00
01900               1.00     2800.00
01901               0.60     2600.00
01902               0.40     2400.00
01903               0.80     2600.00
01904               0.40     2600.00
01905               0.40     2400.00
01906               0.80     2400.00
01907               0.60     2200.00
01908               0.40     2400.00
01909               0.40     2200.00
01910               0.60     2200.00
01911               0.40     2200.00
01912               0.20     2200.00
01913               0.60     2200.00
01914               0.60     2000.00
01915               0.40     2200.00
01916               0.40     2200.00
01917               0.60     2000.00
01918               0.20     2000.00
01919               0.40     2000.00
01920               0.40     2000.00
01921               0.20     2000.00
01922               0.40     2000.00
01923               0.40     1800.00
01924               0.20     1600.00
01925               0.40     1800.00
01926               0.60     1800.00
01927               0.40     1600.00
01928              -0.20     1600.00
01929               0.20     1600.00
01930               0.40     1600.00
01931              -0.20     1800.00
01932              -0.40     1600.00
01933               1.00     1800.00
01934              -0.20     1400.00
01935              -1.00     1400.00
01936               0.80     1400.00
01937               0.20     1200.00
01938              -0.40     1200.00
01939               0.40     1200.00
01940               0.20     1200.00
01941              -0.40     1200.00
01942              -0.40     1200.00
01943              -0.20     1000.00
01944               0.20     1200.00
01945              -0.20     1000.00
01946              -0.40      800.00
01947               0.20      800.00
01948              -0.40      800.00
01949              -0.60      800.00
01950              -0.20      800.00
01951              -0.20      800.00
01952              -0.20      600.00
01953              -0.20      800.00
01954              -1.00      600.00
01955               0.20      600.00
01956               0.20      400.00
01957              -1.00      600.00
01958               0.20      600.00
01959               0.00      600.00
01960              -0.40      400.00
01961              -0.20      400.00
01962              -0.40      400.00
01963              -0.60      400.00
01964              -0.60      200.00
01965              -0.60      400.00
01966              -0.40      400.00
01967               0.20      200.00
01968              -0.40        0.00
01969              -0.40      200.00
01970              -0.60        0.00
01971              -0.20        0.00
01972              -0.20        0.00
01973              -1.60        0.00
01974               0.40        0.00
01975               1.00        0.00
01976              -1.80        0.00
01977               0.40     -200.00
01978               0.40     -200.00
01979              -1.40     -400.00
01980              -0.60     -400.00
01981               0.40     -200.00
01982               2.60     -400.00
01983              19.00     -400.00
01984              -5.00     -400.00
01985             -25.00     -600.00
01986              -7.80     -400.00
01987              25.00     -600.00
01988              11.60     -400.00
01989             -25.00     -600.00
01990              25.00     -800.00
01991              25.00     -400.00
01992             -25.00    -1200.00
01993             -25.00     -600.00
01994              25.00    -1000.00
01995              25.00     -800.00
01996             -25.00    -1000.00
01997             -16.60     -800.00
01998              25.00    -1000.00
01999             -16.60    -1200.00
02000             -25.00     -800.00
02001              25.00    -1200.00
02002              25.00    -1200.00
02003             -25.00    -1000.00
02004              25.00    -1600.00
02005              25.00    -1200.00
02006             -25.00    -1200.00
02007             -25.00    -1200.00
02008              25.00    -1600.00
02009              25.00    -1200.00
02010             -25.00    -1200.00
02011              -0.60    -1600.00
02012              25.00    -1400.00
02013             -25.00    -1600.00
02014             -25.00    -1600.00
02015              25.00    -1800.00
02016              24.40    -1600.00
02017             -25.00    -1800.00
02018              25.00    -1800.00
02019              25.00    -1600.00
02020             -25.00    -1800.00
02021               9.80    -1800.00
02022              25.00    -2000.00
02023             -25.00    -1800.00
02024             -24.20    -2000.00
02025              25.00    -2000.00
02026               0.00    -2000.00
02027             -25.00    -2000.00
02028              15.40    -2200.00
02029              22.80    -2000.00
02030             -25.00    -2200.00
02031              -6.80    -2400.00
02032              25.00    -2200.00
02033             -11.20    -2200.00
02034             -15.80    -2200.00
02035              14.80    -2400.00
02036               3.60    -2400.00
02037             -15.80    -2400.00
02038              -0.20    -2600.00
02039              13.20    -2400.00
02040             -10.80    -2600.00
02041              -9.40    -2600.00
02042              14.00    -2600.00
02043              -3.40    -2600.00
02044             -13.20    -2800.00
02045               6.60    -2600.00
02046               5.00    -2800.00
02047             -11.80    -2800.00
02048              -1.00    -2800.00
02049               9.40    -2800.00
02050              -8.40    -3000.00
02051              -6.60    -3200.00
02052               7.80    -3000.00
02053              -2.40    -3000.00
02054              -8.40    -2800.00
02055               2.60    -3000.00
02056               2.60    -3000.00
02057              -6.80    -3200.00
02058              -2.20    -3200.00
02059               3.80    -3200.00
02060              -3.80    -3200.00
02061              -5.20    -3200.00
02062               2.20    -3200.00
02063              -0.40    -3400.00
02064              -5.20    -3400.00
02065              -1.00    -3400.00
02066               1.20    -3600.00
02067              -4.00    -3400.00
02068              -3.80    -3400.00
02069               1.20    -3600.00
02070              -2.00    -3600.00
02071              -4.40    -3400.00
02072              -0.40    -3600.00
02073              -0.60    -3600.00
02074              -3.80    -3600.00
02075              -2.20    -3600.00
02076              -0.40    -3600.00
02077              -3.20    -3600.00
02078              -2.20    -3800.00
02079              -1.00    -4000.00
02080              -2.60    -3800.00
02081              -2.80    -4000.00
02082              -1.40    -4000.00
02083              -2.20    -4000.00
02084              -2.80    -4000.00
02085              -1.80    -4000.00
02086              -2.00    -4000.00
02087              -2.80    -4000.00
02088              -1.80    -4000.00
02089              -2.00    -4000.00
02090              -2.60    -4200.00
02091              -2.60    -4200.00
02092              -1.60    -4200.00
02093              -2.20    -4200.00
02094              -2.60    -4200.00
02095              -2.20    -4200.00
02096              -2.00    -4200.00
02097              -2.20    -4400.00
02098              -2.80    -4400.00
02099              -2.00    -4400.00
02100              -2.20    -4400.00
02101              -2.80    -4400.00
02102              -2.00    -4400.00
02103              -2.20    -4400.00
02104              -3.20    -4400.00
02105              -2.20    -4400.00
02106              -2.00    -4400.00
02107              -2.60    -4400.00
02108              -3.00    -4800.00
02109              -2.20    -4600.00
02110              -2.80    -4600.00
02111              -3.40    -4600.00
02112              -2.60    -4600.00
02113              -2.20    -4800.00
02114              -3.00    -4600.00
02115              -2.80    -4600.00
02116              -2.20    -4800.00
02117              -3.40    -4600.00
02118              -3.60    -4800.00
02119              -2.60    -4800.00
02120              -2.60    -4600.00
02121              -3.60    -4800.00
02122              -3.00    -4600.00
02123              -2.80    -5000.00
02124              -3.40    -5000.00
02125              -3.40    -5000.00
02126              -3.00    -5000.00
02127              -3.20    -5000.00
02128              -3.40    -5000.00
02129              -3.60    -5200.00
02130              -3.40    -5200.00
02131              -3.60    -5200.00
02132              -3.80    -5200.00
02133              -3.80    -5200.00
02134              -3.60    -5200.00
02135              -3.40    -5200.00
02136              -3.80    -5400.00
02137              -3.40    -5400.00
02138              -3.80    -5200.00
02139              -3.40    -5200.00
02140              -3.80    -5400.00
02141              -4.40    -5200.00
02142              -4.40    -5400.00
02143              -3.60    -5400.00
02144              -4.40    -5400.00
02145              -4.60    -5600.00
02146              -3.00    -5600.00
02147              -4.20    -5600.00
02148              -4.40    -5600.00
02149              -3.80    -5600.00
02150              -4.60    -5600.00
02151              -4.60    -5600.00
02152              -4.40    -5600.00
02153              -3.80    -5600.00
02154              -5.40    -5600.00
02155              -4.20    -5600.00
02156              -4.20    -5600.00
02157              -5.00    -5600.00
02158              -4.60    -5600.00
02159              -4.40    -5800.00
02160              -4.60    -5800.00
02161              -5.20    -5800.00
02162              -5.20    -5600.00
02163              -4.20    -5800.00
02164              -5.00    -5800.00
02165              -6.00    -5800.00
02166              -4.60    -5800.00
02167              -5.20    -5800.00
02168              -6.00    -5800.00
02169              -5.00    -5800.00
02170              -4.60    -5800.00
02171              -5.20    -5800.00
02172              -5.60    -6000.00
02173              -5.40    -6000.00
02174              -6.20    -6000.00
02175              -6.00    -6000.00
02176              -5.80    -6000.00
02177              -6.20    -5800.00
02178              -6.20    -6000.00
02179              -5.60    -6000.00
02180              -5.80    -6000.00
02181              -6.80    -6000.00
02182              -6.00    -6000.00
02183              -6.00    -6000.00
02184              -7.00    -6000.00
02185              -6.80    -6000.00
02186              -6.20    -6000.00
02187              -7.40    -6200.00
02188              -7.00    -6000.00
02189              -6.60    -6000.00
02190              -7.60    -6000.00
02191              -7.60    -6000.00
02192              -6.80    -6000.00
02193              -7.40    -6200.00
02194              -8.20    -6000.00
02195              -7.80    -6000.00
02196              -7.60    -6000.00
02197              -8.40    -6000.00
02198              -8.40    -6000.00
02199              -8.20    -6000.00
02200              -8.60    -6000.00
02201              -8.60    -6200.00
02202              -8.00    -6200.00
02203              -8.80    -6000.00
02204              -9.40    -6200.00
02205              -8.60    -6000.00
02206              -8.60    -6200.00
02207             -10.00    -6200.00
02208              -9.20    -6000.00
02209              -9.00    -6200.00
02210             -10.00    -6400.00
02211             -10.20    -6000.00
02212              -9.40    -6200.00
02213             -10.00    -6000.00
02214             -10.80    -6200.00
02215             -10.20    -6400.00
02216              -9.80    -6200.00
02217             -10.80    -6400.00
02218             -10.60    -6000.00
02219             -10.20    -6400.00
02220             -10.80    -6400.00
02221             -11.20    -6200.00
02222             -10.60    -6400.00
02223             -11.00    -6000.00
02224             -11.80    -6200.00
02225             -11.00    -6200.00
02226             -11.00    -6200.00
02227             -11.60    -6200.00
02228             -11.60    -6200.00
02229             -11.00    -6400.00
02230             -11.00    -6200.00
02231             -11.60    -6400.00
02232             -11.60    -6000.00
02233             -11.00    -6400.00
02234             -11.40    -6200.00
02235             -11.20    -6200.00
02236             -10.80    -6200.00
02237             -10.80    -6000.00
02238             -10.80    -6200.00
02239             -10.00    -6200.00
02240             -10.20    -6400.00
02241             -10.20    -6200.00
02242              -9.80    -6200.00
02243              -9.40    -6400.00
02244             -10.00    -6400.00
02245              -9.40    -6200.00
02246              -9.00    -6000.00
02247              -9.20    -6000.00
02248              -9.20    -6200.00
02249              -8.40    -6000.00
02250              -8.60    -6200.00
02251              -9.00    -6200.00
02252              -8.00    -6200.00
02253              -8.40    -6200.00
02254              -8.60    -6200.00
02255              -7.60    -6000.00
02256              -7.60    -6200.00
02257              -8.60    -6000.00
02258              -7.40    -6000.00
02259              -7.40    -6000.00
02260              -8.40    -6000.00
02261              -6.80    -6000.00
02262              -6.80    -6000.00
02263              -7.80    -6000.00
02264              -6.80    -6000.00
02265              -6.80    -6200.00
02266              -7.60    -6000.00
02267              -6.60    -6000.00
02268              -6.20    -6000.00
02269              -7.40    -6200.00
02270              -6.60    -6000.00
02271              -5.80    -6000.00
02272              -7.00    -6000.00
02273              -6.80    -6000.00
02274              -5.60    -6000.00
02275              -6.20    -6000.00
02276              -6.80    -6000.00
02277              -5.20    -6000.00
02278              -5.60    -6000.00
02279              -6.20    -5800.00
02280              -5.40    -6000.00
02281              -5.20    -6000.00
02282              -6.00    -6000.00
02283              -5.40    -6000.00
02284              -5.00    -5800.00
02285              -5.40    -5800.00
02286              -5.80    -5800.00
02287              -5.40    -6000.00
02288              -4.80    -5800.00
02289              -5.20    -5800.00
02290              -5.20    -5800.00
02291              -4.60    -5800.00
02292              -5.00    -5800.00
02293              -5.00    -5800.00
02294              -4.20    -5800.00
02295              -4.40    -5800.00
02296              -5.00    -5600.00
02297              -4.20    -5800.00
02298              -4.40    -5800.00
02299              -4.60    -5600.00
02300              -4.40    -5600.00
02301              -4.20    -5600.00
02302              -4.40    -5600.00
02303              -4.40    -5600.00
02304              -4.20    -5600.00
02305              -3.80    -5600.00
02306              -4.20    -5600.00
02307              -4.20    -5600.00
02308              -4.00    -5600.00
02309              -3.80    -5400.00
02310              -3.80    -5600.00
02311              -3.80    -5400.00
02312              -3.60    -5600.00
02313              -3.40    -5400.00
02314              -3.80    -5600.00
02315              -4.40    -5200.00
02316              -3.20    -5200.00
02317              -3.60    -5200.00
02318              -3.80    -5200.00
02319              -3.40    -5200.00
02320              -3.80    -5200.00
02321              -3.80    -5200.00
02322              -3.60    -5200.00
02323              -3.40    -5200.00
02324              -3.80    -5200.00
02325              -3.40    -5000.00
02326              -3.00    -5200.00
02327              -3.00    -5200.00
02328              -3.80    -5000.00
02329              -3.40    -5000.00
02330              -2.40    -5000.00
02331              -3.60    -5000.00
02332              -3.80    -4800.00
02333              -2.20    -5000.00
02334              -3.40    -4800.00
02335              -3.80    -4800.00
02336              -2.80    -4600.00
02337              -2.80    -4800.00
02338              -3.00    -5000.00
02339              -2.80    -4800.00
02340              -2.60    -4600.00
02341              -2.80    -4800.00
02342              -3.00    -4600.00
02343              -3.20    -4800.00
02344              -2.20    -4600.00
02345              -2.20    -4600.00
02346              -4.00    -4600.00
02347              -2.20    -4600.00
02348              -2.20    -4600.00
02349              -3.00    -4400.00
02350              -2.80    -4600.00
02351              -2.00    -4600.00
02352              -1.80    -4400.00
02353              -3.80    -4400.00
02354              -2.60    -4400.00
02355              -1.00    -4400.00
02356              -3.20    -4400.00
02357              -3.00    -4400.00
02358              -1.20    -4400.00
02359              -2.00    -4200.00
02360              -3.20    -4400.00
02361              -2.00    -4200.00
02362              -1.40    -4200.00
02363              -2.60    -4000.00
02364              -2.60    -4200.00
02365              -1.40    -4200.00
02366              -2.20    -4000.00
02367              -2.80    -4000.00
02368              -1.80    -4000.00
02369              -2.00    -4000.00
02370              -2.40    -4000.00
02371              -2.00    -4000.00
02372              -1.20    -4000.00
02373              -2.20    -4000.00
02374              -1.80    -4000.00
02375              -1.40    -3800.00
02376              -2.20    -3600.00
02377              -2.00    -3800.00
02378              -1.80    -3600.00
02379              -2.20    -3800.00
02380              -2.00    -3600.00
02381              -1.80    -3600.00
02382              -2.20    -3600.00
02383              -1.80    -3600.00
02384              -1.80    -3400.00
02385              -2.20    -3600.00
02386              -1.40    -3400.00
02387              -1.80    -3600.00
02388              -2.00    -3400.00
02389              -1.40    -3400.00
02390              -1.40    -3400.00
02391              -1.80    -3400.00
02392              -2.20    -3400.00
02393              -1.40    -3400.00
02394              -1.80    -3400.00
02395              -2.00    -3200.00
02396              -1.80    -3200.00
02397              -1.40    -3200.00
02398              -2.00    -3200.00
02399              -1.80    -3000.00
02400              -1.40    -3200.00
02401              -1.40    -3000.00
02402              -1.20    -3200.00
02403              -2.00    -3000.00
02404              -1.60    -2800.00
02405              -1.00    -2800.00
02406              -2.00    -2800.00
02407              -1.80    -2800.00
02408              -1.20    -2800.00
02409              -1.80    -2800.00
02410              -1.40    -2600.00
02411              -1.00    -2600.00
02412              -1.80    -2600.00
02413              -1.20    -2800.00
02414              -1.00    -2600.00
02415              -1.80    -2600.00
02416              -1.80    -2600.00
02417              -1.00    -2400.00
02418              -0.80    -2400.00
02419              -1.20    -2400.00
02420              -1.80    -2400.00
02421              -1.20    -2400.00
02422              -0.40    -2200.00
02423              -1.40    -2400.00
02424              -1.00    -2400.00
02425              -0.40    -2200.00
02426              -2.20    -2200.00
02427              -2.00    -2200.00
02428               0.20    -2200.00
02429              -1.20    -2000.00
02430              -1.80    -2000.00
02431              -0.20    -2000.00
02432              -0.40    -2000.00
02433              -2.20    -2000.00
02434              -1.20    -1800.00
02435               0.20    -1800.00
02436              -2.20    -1800.00
02437              -0.60    -1800.00
02438               1.20    -1800.00
02439              -2.80    -1600.00
02440              -2.20    -1800.00
02441               1.20    -1600.00
02442              -1.80    -1600.00
02443              -2.00    -1600.00
02444               0.40    -1600.00
02445               0.20    -1600.00
02446              -2.20    -1600.00
02447              -2.00    -1600.00
02448               0.40    -1400.00
02449              -1.20    -1200.00
02450              -1.60    -1200.00
02451               0.00    -1200.00
02452              -0.20    -1400.00
02453              -1.80    -1200.00
02454              -0.60    -1200.00
02455              -0.60    -1000.00
02456              -1.60    -1200.00
02457              -1.00    -1000.00
02458              -1.00    -1000.00
02459              -0.60    -1000.00
02460              -0.20    -1000.00
02461              -0.60     -800.00
02462              -2.00     -800.00
02463              -0.40     -800.00
02464              -0.40     -800.00
02465              -1.40     -800.00
02466              -0.40     -600.00
02467              -0.20     -800.00
02468              -1.00     -600.00
02469              -0.80     -400.00
02470              -1.00     -600.00
02471              -1.00     -400.00
02472              -0.60     -600.00
02473              -0.60     -400.00
02474              -0.20     -400.00
02475              -0.20     -400.00
02476              -1.20     -400.00
02477              -0.40     -200.00
02478              -0.40     -200.00
02479              -0.80     -200.00
02480              -0.60     -200.00
02481              -0.20     -200.00
02482              -0.20        0.00
02483              -1.20        0.00
02484              -0.20        0.00
02485               0.60        0.00
02486              -1.00        0.00
02487              -0.40        0.00
02488               0.60      200.00
02489              -0.20        0.00
02490              -1.00        0.00
02491               0.20      400.00
02492               0.40      400.00
02493               1.60      400.00
02494              10.20      400.00
02495               5.40      400.00
02496             -25.00      400.00
02497             -25.00      400.00
02498              25.00      600.00
02499              25.00      600.00
02500             -25.00      400.00
02501             -25.00      600.00
02502              25.00      600.00
02503              25.00      600.00
02504             -25.00      800.00
02505              25.00      600.00
02506              25.00      800.00
02507             -25.00      800.00
02508             -25.00     1000.00
02509              25.00      800.00
02510              23.40     1000.00
02511             -25.00     1200.00
02512              25.00     1000.00
02513              25.00     1200.00
02514             -25.00     1200.00
02515             -25.00     1200.00
02516              25.00     1200.00
02517              -9.20     1400.00
02518             -25.00     1400.00
02519              25.00     1200.00
02520              25.00     1400.00
02521             -25.00     1400.00
02522             -25.00     1400.00
02523              25.00     1400.00
02524               5.40     1800.00
02525             -25.00     1600.00
02526              25.00     1600.00
02527              25.00     1800.00
02528             -25.00     1600.00
02529              -2.00     1800.00
02530              25.00     1800.00
02531             -25.00     2000.00
02532             -25.00     1800.00
02533              25.00     1800.00
02534               1.40     1800.00
02535             -25.00     1800.00
02536              24.40     2000.00
02537              25.00     2000.00
02538             -25.00     2200.00
02539              -1.80     2000.00
02540              25.00     2000.00
02541             -11.80     2200.00
02542             -14.00     2200.00
02543              17.80     2200.00
02544               4.80     2200.00
02545             -15.80     2400.00
02546               5.20     2200.00
02547              12.60     2400.00
02548              -8.80     2400.00
02549              -6.60     2400.00
02550              12.40     2400.00
02551               1.80     2400.00
02552             -11.00     2400.00
02553               6.00     2600.00
02554               8.60     2800.00
02555              -8.40     2600.00
02556              -1.20     2800.00
02557              10.40     2600.00
02558              -2.80     2800.00
02559              -5.40     2800.00
02560               8.40     2800.00
02561               2.20     3000.00
02562              -6.60     3000.00
02563               3.60     2800.00
02564               5.80     3000.00
02565              -3.80     3000.00
02566              -0.80     3000.00
02567               6.00     3000.00
02568               0.20     3000.00
02569              -2.20     3000.00
02570               3.40     3200.00
02571               3.00     3200.00
02572              -2.00     3200.00
02573               1.00     3200.00
02574               4.20     3200.00
02575              -0.40     3200.00
02576              -0.40     3200.00
02577               3.60     3400.00
02578               1.80     3400.00
02579              -1.80     3600.00
02580               2.00     3600.00
02581               3.00     3400.00
02582              -0.60     3400.00
02583               0.60     3400.00
02584               2.60     3600.00
02585               0.80     3600.00
02586               0.20     3600.00
02587               2.60     3600.00
02588               1.20     3800.00
02589               0.60     3800.00
02590               2.00     3800.00
02591               1.40     3800.00
02592               1.00     3800.00
02593               1.80     3600.00
02594               1.80     4000.00
02595               1.00     3800.00
02596               1.00     4000.00
02597               2.20     4000.00
02598               1.00     3800.00
02599               1.20     3800.00
02600               2.80     4000.00
02601               1.40     4000.00
02602               0.40     4000.00
02603               1.80     4200.00
02604               2.40     4200.00
02605               1.80     4000.00
02606               1.80     4200.00
02607               2.00     4400.00
02608               2.20     4200.00
02609               1.80     4000.00
02610               1.80     4400.00
02611               2.20     4400.00
02612               1.80     4400.00
02613               2.00     4400.00
02614               2.60     4400.00
02615               2.60     4400.00
02616               1.20     4400.00
02617               1.40     4600.00
02618               2.80     4400.00
02619               2.80     4600.00
02620               2.40     4600.00
02621               2.20     4400.00
02622               2.20     4600.00
02623               2.20     4600.00
02624               2.60     4600.00
02625               2.60     4600.00
02626               2.40     4800.00
02627               2.60     4600.00
02628               2.80     4800.00
02629               2.20     4800.00
02630               2.60     4600.00
02631               3.00     4800.00
02632               2.60     4800.00
02633               2.60     4800.00
02634               3.00     5000.00
02635               3.40     5200.00
02636               2.60     5000.00
02637               2.80     5000.00
02638               3.20     5000.00
02639               2.80     4800.00
02640               3.00     5200.00
02641               3.00     5200.00
02642               2.60     5200.00
02643               3.40     5200.00
02644               3.20     5200.00
02645               3.00     5200.00
02646               2.80     5000.00
02647               3.60     5200.00
02648               3.40     5400.00
02649               3.00     5200.00
02650               3.40     5400.00
02651               3.60     5400.00
02652               3.40     5400.00
02653               3.40     5400.00
02654               3.60     5400.00
02655               3.60     5400.00
02656               3.80     5400.00
02657               3.80     5400.00
02658               3.80     5400.00
02659               3.40     5400.00
02660               3.40     5600.00
02661               3.80     5400.00
02662               4.20     5400.00
02663               4.00     5400.00
02664               4.20     5600.00
02665               4.60     5600.00
02666               4.20     5600.00
02667               3.60     5600.00
02668               4.40     5600.00
02669               5.60     5600.00
02670               3.80     5600.00
02671               4.40     5600.00
02672               5.20     5600.00
02673               4.60     5600.00
02674               4.40     5600.00
02675               5.20     5600.00
02676               4.80     5600.00
02677               5.20     5800.00
02678               5.20     5800.00
02679               4.20     5800.00
02680               6.20     5800.00
02681               5.80     5800.00
02682               4.40     5800.00
02683               6.20     6000.00
02684               6.20     5800.00
02685               5.20     6000.00
02686               5.40     6000.00
02687               6.60     6000.00
02688               5.80     6000.00
02689               5.40     6000.00
02690               6.80     5800.00
02691               6.80     5800.00
02692               5.80     6000.00
02693               6.00     6000.00
02694               7.20     6000.00
02695               7.00     6000.00
02696               5.80     6000.00
02697               7.00     6000.00
02698               7.60     6000.00
02699               6.80     6000.00
02700               6.80     6000.00
02701               7.60     6000.00
02702               7.40     6200.00
02703               7.00     6000.00
02704               7.60     6000.00
02705               8.00     6200.00
02706               7.60     6000.00
02707               7.40     6200.00
02708               8.20     6200.00
02709               8.40     6200.00
02710               7.80     6200.00
02711               7.80     6000.00
02712               8.40     6000.00
02713               8.60     6200.00
02714               8.60     6200.00
02715               9.00     6200.00
02716               9.20     6200.00
02717               9.20     6000.00
02718               8.80     6200.00
02719               9.20     6200.00
02720               9.40     6200.00
02721               9.20     6000.00
02722               9.40     6200.00
02723              10.00     6200.00
02724               9.80     6200.00
02725               9.40     6200.00
02726              10.40     6000.00
02727              10.80     6200.00
02728               9.80     6000.00
02729              10.20     6200.00
02730              11.40     6200.00
02731              10.20     6200.00
02732              10.60     6200.00
02733              11.80     6200.00
02734              10.80     6200.00
02735              10.60     6200.00
02736              11.60     6200.00
02737              11.60     6000.00
02738              11.00     6200.00
02739              11.00     6200.00
02740              12.20     6200.00
02741              11.80     6400.00
02742              10.80     6200.00
02743              11.60     6200.00
02744              11.60     6200.00
02745              10.80     6400.00
02746              10.60     6000.00
02747              11.00     6200.00
02748              10.60     6000.00
02749              10.20     6000.00
02750              10.60     6200.00
02751              10.00     6000.00
02752               9.80     6000.00
02753               9.80     6200.00
02754               9.80     6200.00
02755               9.80     6200.00
02756               9.00     6200.00
02757               9.20     6000.00
02758               9.20     6200.00
02759               8.20     6200.00
02760               8.60     6000.00
02761               8.80     6200.00
02762               8.00     6000.00
02763               8.40     6200.00
02764               8.40     6000.00
02765               7.80     6200.00
02766               7.80     6000.00
02767               7.40     6200.00
02768               7.00     6000.00
02769               7.60     6000.00
02770               7.40     6200.00
02771               7.00     6000.00
02772               7.40     6000.00
02773               7.00     6000.00
02774               6.60     6000.00
02775               6.40     6000.00
02776               6.80     6000.00
02777               6.40     6000.00
02778               6.60     6000.00
02779               6.20     6000.00
02780               6.20     6000.00
02781               5.80     6000.00
02782               5.80     6000.00
02783               6.20     6000.00
02784               5.40     6000.00
02785               5.40     5800.00
02786               6.20     6000.00
02787               5.40     6000.00
02788               5.20     6000.00
02789               5.80     5800.00
02790               5.60     5800.00
02791               5.20     5800.00
02792               5.20     5600.00
02793               5.60     5800.00
02794               5.20     5800.00
02795               5.00     5600.00
02796               4.60     5800.00
02797               5.00     5600.00
02798               4.60     5800.00
02799               4.60     5600.00
02800               5.20     5600.00
02801               5.00     5800.00
02802               4.60     5600.00
02803               5.00     5600.00
02804               4.40     5600.00
02805               4.60     5600.00
02806               4.60     5600.00
02807               4.20     5600.00
02808               4.20     5600.00
02809               4.20     5600.00
02810               4.20     5600.00
02811               4.40     5600.00
02812               4.20     5600.00
02813               4.00     5600.00
02814               4.20     5400.00
02815               3.80     5400.00
02816               3.60     5600.00
02817               3.80     5400.00
02818               3.80     5400.00
02819               3.40     5400.00
02820               4.20     5600.00
02821               4.40     5400.00
02822               3.40     5400.00
02823               3.60     5400.00
02824               4.20     5400.00
02825               3.00     5400.00
02826               2.80     5400.00
02827               3.80     5200.00
02828               3.20     5200.00
02829               2.80     5400.00
02830               3.60     5200.00
02831               3.60     5200.00
02832               2.60     5200.00
02833               3.00     5200.00
02834               3.40     5200.00
02835               3.00     5000.00
02836               2.60     5000.00
02837               3.00     4800.00
02838               3.40     4800.00
02839               2.60     4800.00
02840               2.60     4800.00
02841               3.00     4800.00
02842               2.80     4800.00
02843               2.00     4800.00
02844               2.60     4800.00
02845               2.80     4600.00
02846               2.00     4800.00
02847               2.40     4800.00
02848               3.00     4600.00
02849               1.80     4800.00
02850               2.20     4800.00
02851               2.80     4600.00
02852               2.00     4600.00
02853               2.00     4600.00
02854               2.20     4600.00
02855               2.60     4400.00
02856               1.80     4600.00
02857               2.00     4600.00
02858               2.60     4400.00
02859               2.20     4400.00
02860               1.40     4600.00
02861               2.00     4400.00
02862               2.40     4400.00
02863               1.20     4400.00
02864               1.40     4400.00
02865               2.60     4400.00
02866               2.00     4400.00
02867               1.20     4400.00
02868               2.40     4400.00
02869               2.40     4200.00
02870               1.40     4400.00
02871               1.60     4000.00
02872               2.20     4200.00
02873               1.40     4000.00
02874               1.40     4000.00
02875               2.00     4200.00
02876               1.80     4000.00
02877               1.80     4000.00
02878               1.60     4000.00
02879               1.40     3800.00
02880               1.80     4000.00
02881               1.80     4000.00
02882               1.80     3800.00
02883               2.00     3800.00
02884               1.40     3800.00
02885               1.20     3800.00
02886               1.80     3800.00
02887               1.20     3600.00
02888               1.00     3600.00
02889               2.00     3600.00
02890               1.80     3600.00
02891               1.00     3600.00
02892               1.40     3600.00
02893               1.40     3600.00
02894               1.00     3600.00
02895               1.20     3600.00
02896               2.00     3600.00
02897               1.00     3400.00
02898               1.00     3400.00
02899               1.80     3400.00
02900               1.20     3200.00
02901               0.60     3200.00
02902               1.40     3200.00
02903               1.00     3200.00
02904               0.40     3200.00
02905               1.00     3200.00
02906               1.00     3000.00
02907               0.60     3200.00
02908               1.00     3000.00
02909               1.20     3000.00
02910               0.60     2800.00
02911               0.60     3000.00
02912               0.60     3000.00
02913               0.60     2800.00
02914               0.60     2800.00
02915               1.00     2800.00
02916               0.60     2800.00
02917               0.60     2800.00
02918               0.40     2800.00
02919               0.20     2800.00
02920               0.60     2800.00
02921               0.60     2600.00
02922               0.40     2600.00
02923               1.00     2400.00
02924               1.00     2600.00
02925               0.40     2400.00
02926               0.20     2400.00
02927               0.60     2400.00
02928               0.60     2400.00
02929               0.20     2400.00
02930               0.60     2400.00
02931               0.60     2400.00
02932               0.40     2200.00
02933               0.40     2200.00
02934               0.40     2200.00
02935               0.40     2200.00
02936               0.40     2000.00
02937               0.00     2000.00
02938               0.40     2000.00
02939               0.40     2000.00
02940               0.20     2000.00
02941               0.40     2000.00
02942               0.40     2000.00
02943               0.40     2000.00
02944               0.40     1800.00
02945               0.40     2000.00
02946               0.20     1800.00
02947               0.40     1600.00
02948               0.40     1800.00
02949               0.20     1600.00
02950               0.20     1800.00
02951               0.40     1600.00
02952               0.20     1800.00
02953              -0.20     1400.00
02954               0.00     1600.00
02955               0.40     1400.00
02956              -0.20     1200.00
02957               0.20     1400.00
02958               0.40     1400.00
02959               0.20     1200.00
02960               0.20     1200.00
02961               0.20     1400.00
02962               0.40     1200.00
02963              -0.20     1200.00
02964              -0.20     1200.00
02965               0.20     1000.00
02966               0.20     1000.00
02967              -0.40     1000.00
02968               0.00     1000.00
02969               0.20      800.00
02970              -0.60      800.00
02971              -0.20      800.00
02972               0.20      800.00
02973              -0.40      800.00
02974              -0.60      800.00
02975              -0.20      600.00
02976              -0.20      600.00
02977              -0.60      400.00
02978              -0.40      600.00
02979              -0.20      600.00
02980              -0.40      400.00
02981              -0.60      600.00
02982              -0.40      400.00
02983              -0.20      400.00
02984              -0.60      400.00
02985              -0.60      400.00
02986              -0.40      400.00
02987              -0.40      400.00
02988              -0.60      200.00
02989              -0.40      200.00
02990              -0.40        0.00
02991              -0.60        0.00
02992              -0.40        0.00
02993              -0.40        0.00
02994              -0.60        0.00
02995              -0.40        0.00
02996              -0.40     -200.00
02997              -0.60        0.00
02998              -0.40     -200.00
02999              -0.40     -400.00
03000              -0.20     -400.00
03001              -1.00     -200.00
03002              -0.60     -400.00
03003               1.40     -200.00
03004              15.40     -400.00
03005               6.80     -400.00
03006             -25.00     -800.00
03007             -25.00     -400.00
03008              25.00     -400.00
03009              25.00     -400.00
03010             -25.00     -800.00
03011             -25.00     -400.00
03012              25.00     -800.00
03013               8.60    -1000.00
03014             -25.00     -600.00
03015              25.00     -800.00
03016              25.00     -800.00
03017             -25.00    -1000.00
03018             -25.00     -800.00
03019              25.00    -1000.00
03020              25.00    -1200.00
03021             -25.00     -800.00
03022              25.00    -1000.00
03023              25.00    -1000.00
03024             -25.00    -1200.00
03025              -4.60    -1200.00
03026              25.00    -1200.00
03027             -25.00    -1200.00
03028             -25.00    -1200.00
03029              25.00    -1600.00
03030              25.00    -1400.00
03031             -25.00    -1400.00
03032             -25.00    -1600.00
03033              25.00    -1600.00
03034               3.20    -1400.00
03035             -25.00    -1600.00
03036              25.00    -1600.00
03037              25.00    -1600.00
03038             -25.00    -1800.00
03039              11.00    -1800.00
03040              25.00    -1600.00
03041             -25.00    -1800.00
03042             -25.00    -1800.00
03043              25.00    -1800.00
03044             -22.00    -2000.00
03045             -25.00    -2000.00
03046              25.00    -2000.00
03047              18.00    -2000.00
03048             -25.00    -2000.00
03049              -0.40    -2000.00
03050              25.00    -2000.00
03051             -18.60    -2000.00
03052             -19.60    -2000.00
03053              23.00    -2400.00
03054               0.20    -2000.00
03055             -20.60    -2400.00
03056               8.40    -2400.00
03057               9.80    -2400.00
03058             -13.20    -2400.00
03059              -6.00    -2400.00
03060              13.00    -2400.00
03061              -4.60    -2400.00
03062             -13.40    -2600.00
03063              10.20    -2600.00
03064               2.20    -2800.00
03065             -13.00    -2600.00
03066               2.20    -2800.00
03067               6.80    -2800.00
03068              -8.60    -2800.00
03069              -5.00    -2800.00
03070               8.40    -2800.00
03071              -4.60    -2800.00
03072              -9.00    -2800.00
03073               6.80    -2800.00
03074               1.00    -3000.00
03075              -9.40    -3000.00
03076               0.40    -3000.00
03077               4.00    -3000.00
03078              -6.20    -3200.00
03079              -4.00    -3200.00
03080               4.20    -3200.00
03081              -2.20    -3200.00
03082              -5.80    -3200.00
03083               2.00    -3200.00
03084               0.40    -3400.00
03085              -5.60    -3200.00
03086              -1.20    -3400.00
03087               2.00    -3400.00
03088              -3.00    -3400.00
03089              -4.40    -3400.00
03090               0.40    -3600.00
03091              -0.60    -3600.00
03092              -4.40    -3400.00
03093              -0.60    -3600.00
03094               0.40    -3600.00
03095              -2.80    -3600.00
03096              -2.00    -3600.00
03097              -0.60    -3600.00
03098              -3.00    -3600.00
03099              -2.20    -3800.00
03100              -0.60    -3800.00
03101              -2.80    -4000.00
03102              -2.00    -4000.00
03103              -1.00    -4000.00
03104              -2.80    -4000.00
03105              -3.20    -4000.00
03106              -1.80    -4000.00
03107              -1.80    -4000.00
03108              -2.00    -4000.00
03109              -2.20    -4000.00
03110              -2.20    -4200.00
03111              -2.20    -4200.00
03112              -3.00    -4200.00
03113              -1.80    -4200.00
03114              -1.40    -4200.00
03115              -3.40    -4200.00
03116              -2.20    -4400.00
03117              -1.40    -4200.00
03118              -2.80    -4400.00
03119              -3.60    -4400.00
03120              -2.20    -4400.00
03121              -1.80    -4400.00
03122              -3.00    -4400.00
03123              -2.80    -4400.00
03124              -1.40    -4400.00
03125              -2.60    -4400.00
03126              -3.80    -4400.00
03127              -2.20    -4400.00
03128              -1.60    -4600.00
03129              -3.60    -4600.00
03130              -2.80    -4600.00
03131              -1.80    -4600.00
03132              -3.00    -4800.00
03133              -3.60    -4600.00
03134              -2.20    -4800.00
03135              -2.20    -4600.00
03136              -3.20    -4600.00
03137              -3.00    -4800.00
03138              -2.60    -4600.00
03139              -2.20    -4800.00
03140              -3.60    -4800.00
03141              -3.00    -5000.00
03142              -2.60    -5000.00
03143              -2.80    -4600.00
03144              -3.40    -4800.00
03145              -2.20    -5200.00
03146              -2.80    -5000.00
03147              -4.60    -5000.00
03148              -2.80    -5000.00
03149              -1.00    -5000.00
03150              -4.40    -5200.00
03151              -5.40    -5000.00
03152              -1.80    -5200.00
03153              -2.60    -5200.00
03154              -4.60    -5200.00
03155              -3.00    -5200.00
03156              -2.40    -5200.00
03157              -4.20    -5200.00
03158              -4.40    -5200.00
03159              -3.20    -5200.00
03160              -2.60    -5200.00
03161              -3.60    -5400.00
03162              -5.20    -5400.00
03163              -3.00    -5600.00
03164              -3.40    -5400.00
03165              -5.20    -5400.00
03166              -4.20    -5600.00
03167              -3.40    -5600.00
03168              -4.60    -5600.00
03169              -4.40    -5600.00
03170              -4.20    -5600.00
03171              -4.40    -5600.00
03172              -4.20    -5600.00
03173              -4.20    -5600.00
03174              -4.40    -5600.00
03175              -5.20    -5600.00
03176              -4.20    -5800.00
03177              -4.40    -5800.00
03178              -5.20    -5800.00
03179              -4.40    -5800.00
03180              -4.60    -5600.00
03181              -5.60    -5600.00
03182              -4.60    -5800.00
03183              -4.60    -5600.00
03184              -5.40    -5800.00
03185              -5.40    -5800.00
03186              -5.20    -5800.00
03187              -5.40    -5800.00
03188              -5.20    -5800.00
03189              -5.80    -6000.00
03190              -5.80    -5800.00
03191              -5.00    -5800.00
03192              -5.40    -5800.00
03193              -5.40    -5800.00
03194              -5.40    -6000.00
03195              -5.80    -6000.00
03196              -6.20    -6000.00
03197              -6.00    -6000.00
03198              -6.20    -6000.00
03199              -6.20    -6000.00
03200              -6.20    -6000.00
03201              -6.20    -6000.00
03202              -6.40    -6000.00
03203              -6.20    -6000.00
03204              -6.60    -6000.00
03205              -6.20    -6000.00
03206              -6.60    -6000.00
03207              -6.80    -6000.00
03208              -7.20    -6000.00
03209              -7.00    -6000.00
03210              -7.00    -6000.00
03211              -7.00    -6200.00
03212              -7.00    -6000.00
03213              -7.40    -6000.00
03214              -7.40    -6000.00
03215              -7.60    -6000.00
03216              -7.80    -6200.00
03217              -7.80    -6200.00
03218              -7.40    -6000.00
03219              -8.40    -6200.00
03220              -8.60    -6000.00
03221              -7.80    -6000.00
03222              -8.20    -6200.00
03223              -8.60    -6000.00
03224              -8.60    -6000.00
03225              -8.60    -6200.00
03226              -8.80    -6200.00
03227              -9.00    -6000.00
03228              -9.00    -6400.00
03229              -9.40    -6200.00
03230              -9.40    -6000.00
03231              -9.40    -6200.00
03232              -9.80    -6200.00
03233             -10.00    -6200.00
03234             -10.00    -6000.00
03235             -10.00    -6200.00
03236             -10.20    -6200.00
03237             -10.00    -6200.00
03238             -10.20    -6200.00
03239             -10.80    -6400.00
03240             -10.80    -6200.00
03241             -10.60    -6200.00
03242             -11.00    -6200.00
03243             -11.00    -6400.00
03244             -10.80    -6200.00
03245             -11.60    -6200.00
03246             -11.80    -6400.00
03247             -11.20    -6200.00
03248             -11.80    -6400.00
03249             -11.80    -6200.00
03250             -11.40    -6200.00
03251             -11.00    -6200.00
03252             -11.80    -6200.00
03253             -11.60    -6200.00
03254             -11.40    -6400.00
03255             -11.40    -6200.00
03256             -11.40    -6200.00
03257             -10.80    -6200.00
03258             -10.80    -6200.00
03259             -11.00    -6200.00
03260             -10.20    -6200.00
03261             -10.20    -6200.00
03262             -10.60    -6200.00
03263             -10.00    -6200.00
03264              -9.40    -6000.00
03265              -9.40    -6000.00
03266              -9.80    -6400.00
03267              -9.20    -6200.00
03268              -8.60    -6200.00
03269              -8.80    -6200.00
03270              -9.20    -6000.00
03271              -8.40    -6400.00
03272              -8.20    -6000.00
03273              -9.00    -6200.00
03274              -8.20    -6000.00
03275              -7.60    -6400.00
03276              -8.60    -6200.00
03277              -7.80    -6000.00
03278              -7.40    -6000.00
03279              -7.60    -6200.00
03280              -7.80    -6000.00
03281              -7.00    -6000.00
03282              -7.00    -6000.00
03283              -7.20    -6200.00
03284              -7.00    -6000.00
03285              -6.80    -6000.00
03286              -6.80    -6000.00
03287              -7.00    -6000.00
03288              -6.40    -6000.00
03289              -6.80    -6000.00
03290              -6.60    -6000.00
03291              -6.20    -6000.00
03292              -6.60    -6000.00
03293              -6.60    -6000.00
03294              -6.20    -6000.00
03295              -6.20    -6000.00
03296              -6.20    -6000.00
03297              -5.80    -6000.00
03298              -6.60    -5800.00
03299              -6.00    -6000.00
03300              -5.60    -6000.00
03301              -6.00    -5800.00
03302              -5.20    -6000.00
03303              -5.60    -6000.00
03304              -5.20    -6000.00
03305              -5.80    -5800.00
03306              -5.40    -6000.00
03307              -5.00    -5800.00
03308              -5.80    -5800.00
03309              -5.00    -5800.00
03310              -5.00    -6000.00
03311              -5.00    -5800.00
03312              -5.20    -5800.00
03313              -5.20    -5800.00
03314              -4.40    -5800.00
03315              -5.20    -5600.00
03316              -4.60    -5800.00
03317              -4.60    -5800.00
03318              -4.60    -5800.00
03319              -4.60    -5600.00
03320              -4.60    -5600.00
03321              -4.40    -5600.00
03322              -4.80    -5600.00
03323              -4.40    -5600.00
03324              -4.00    -5600.00
03325              -4.60    -5600.00
03326              -4.60    -5600.00
03327              -3.80    -5600.00
03328              -4.20    -5400.00
03329              -4.40    -5600.00
03330              -3.80    -5600.00
03331              -3.80    -5200.00
03332              -4.20    -5400.00
03333              -3.60    -5400.00
03334              -3.40    -5200.00
03335              -4.20    -5200.00
03336              -3.80    -5400.00
03337              -3.40    -5200.00
03338              -3.60    -5400.00
03339              -3.80    -5400.00
03340              -3.40    -5200.00
03341              -3.60    -5200.00
03342              -4.00    -5200.00
03343              -3.40    -5200.00
03344              -3.40    -5200.00
03345              -3.40    -5000.00
03346              -3.60    -5000.00
03347              -2.80    -5200.00
03348              -3.40    -5200.00
03349              -3.40    -5000.00
03350              -3.00    -5000.00
03351              -3.00    -4800.00
03352              -3.40    -5000.00
03353              -2.80    -4800.00
03354              -3.20    -4800.00
03355              -3.20    -4800.00
03356              -3.00    -4800.00
03357              -3.00    -5000.00
03358              -3.00    -4800.00
03359              -2.80    -4600.00
03360              -3.00    -4800.00
03361              -2.60    -4600.00
03362              -3.00    -4600.00
03363              -2.80    -4800.00
03364              -2.20    -4600.00
03365              -3.00    -4800.00
03366              -3.00    -4600.00
03367              -2.80    -4600.00
03368              -2.80    -4600.00
03369              -3.00    -4600.00
03370              -2.60    -4400.00
03371              -2.60    -4600.00
03372              -2.80    -4400.00
03373              -3.00    -4400.00
03374              -2.60    -4400.00
03375              -2.00    -4400.00
03376              -2.80    -4200.00
03377              -2.60    -4400.00
03378              -2.00    -4400.00
03379              -2.60    -4400.00
03380              -2.80    -4200.00
03381              -2.20    -4400.00
03382              -2.20    -4200.00
03383              -2.40    -4200.00
03384              -2.40    -4000.00
03385              -2.20    -4200.00
03386              -2.20    -4200.00
03387              -2.20    -4200.00
03388              -2.00    -4000.00
03389              -2.20    -4000.00
03390              -2.20    -4000.00
03391              -2.00    -4000.00
03392              -1.40    -4000.00
03393              -3.00    -4000.00
03394              -1.80    -4000.00
03395              -1.20    -4000.00
03396              -2.80    -4000.00
03397              -1.60    -3800.00
03398              -1.60    -3600.00
03399              -2.40    -3600.00
03400              -1.60    -3600.00
03401              -2.00    -3600.00
03402              -2.20    -3600.00
03403              -1.40    -3600.00
03404              -1.80    -3600.00
03405              -1.60    -3600.00
03406              -1.80    -3600.00
03407              -1.80    -3600.00
03408              -1.80    -3400.00
03409              -1.80    -3400.00
03410              -1.40    -3400.00
03411              -1.80    -3400.00
03412              -1.80    -3200.00
03413              -1.40    -3400.00
03414              -1.40    -3200.00
03415              -1.40    -3400.00
03416              -1.80    -3200.00
03417              -1.80    -3200.00
03418              -1.20    -3200.00
03419              -1.60    -3200.00
03420              -1.80    -3200.00
03421              -1.20    -3000.00
03422              -1.40    -3200.00
03423              -1.60    -3000.00
03424              -1.80    -3000.00
03425              -1.80    -2800.00
03426              -1.40    -2800.00
03427              -1.40    -2800.00
03428              -1.80    -2800.00
03429              -1.20    -2800.00
03430              -1.20    -2800.00
03431              -2.00    -2800.00
03432              -1.40    -2600.00
03433              -1.20    -2600.00
03434              -1.40    -2600.00
03435              -2.00    -2600.00
03436              -1.00    -2600.00
03437              -1.00    -2600.00
03438              -1.40    -2600.00
03439              -1.80    -2400.00
03440              -1.20    -2400.00
03441              -1.00    -2400.00
03442              -1.60    -2400.00
03443              -1.40    -2400.00
03444              -1.00    -2400.00
03445              -1.20    -2400.00
03446              -1.80    -2400.00
03447              -1.20    -2000.00
03448              -1.00    -2000.00
03449              -1.20    -2000.00
03450              -1.40    -2000.00
03451              -1.00    -2000.00
03452              -0.60    -1800.00
03453              -1.20    -2000.00
03454              -1.20    -2000.00
03455              -0.60    -1800.00
03456              -1.40    -1800.00
03457              -1.20    -1800.00
03458              -1.00    -1800.00
03459              -0.60    -1800.00
03460              -1.20    -1800.00
03461              -1.40    -1600.00
03462              -1.20    -1600.00
03463              -0.60    -1600.00
03464              -1.20    -1600.00
03465              -1.00    -1600.00
03466              -0.20    -1600.00
03467              -1.00    -1400.00
03468              -1.20    -1600.00
03469              -0.20    -1600.00
03470              -1.20    -1200.00
03471              -1.80    -1400.00
03472              -0.40    -1200.00
03473              -0.20    -1200.00
03474              -1.20    -1200.00
03475              -0.60    -1000.00
03476               0.40    -1200.00
03477              -1.40    -1000.00
03478              -1.80     -800.00
03479               0.20    -1000.00
03480              -0.60    -1000.00
03481              -1.40    -1000.00
03482               0.00     -800.00
03483               0.20    -1000.00
03484              -0.60     -800.00
03485              -1.20     -800.00
03486              -0.60     -800.00
03487               0.40     -800.00
03488              -1.20     -800.00
03489              -1.00     -800.00
03490               1.20     -800.00
03491              -1.20     -400.00
03492              -2.20     -600.00
03493               0.60     -400.00
03494              -0.40     -400.00
03495              -2.20     -400.00
03496               0.20     -400.00
03497               0.60     -400.00
03498              -1.40     -400.00
03499              -1.00     -200.00
03500               0.40     -200.00
03501              -0.60     -200.00
03502              -1.20     -200.00
03503              -0.40     -200.00
03504              -0.40        0.00
03505              -1.00        0.00
03506              -0.60        0.00
03507               0.60        0.00
03508               0.40        0.00
03509              -0.40        0.00
03510              -0.20      200.00
03511              -0.20      200.00
03512              -1.20      200.00
03513              -0.40      200.00
03514               2.20      400.00
03515               7.00      400.00
03516               9.40      400.00
03517             -19.00      400.00
03518             -25.00      400.00
03519              20.00      400.00
03520              25.00      600.00
03521             -25.00      600.00
03522             -25.00      600.00
03523              25.00      400.00
03524              25.00      800.00
03525             -25.00      600.00
03526             -23.80      800.00
03527              25.00      800.00
03528             -13.40      600.00
03529             -25.00     1000.00
03530              25.00      800.00
03531              25.00      800.00
03532             -25.00      800.00
03533              12.20     1000.00
03534              25.00      800.00
03535             -25.00     1200.00
03536             -25.00     1200.00
03537              25.00     1200.00
03538              25.00     1200.00
03539             -25.00     1200.00
03540               8.20     1200.00
03541              25.00     1200.00
03542             -25.00     1400.00
03543             -25.00     1400.00
03544              25.00     1400.00
03545              25.00     1800.00
03546             -25.00     1600.00
03547               8.60     1400.00
03548              25.00     1800.00
03549             -25.00     1800.00
03550             -25.00     1600.00
03551              25.00     1800.00
03552             -10.20     1800.00
03553             -25.00     2000.00
03554              25.00     1600.00
03555              23.60     2000.00
03556             -25.00     2000.00
03557               7.00     1800.00
03558              25.00     2000.00
03559             -25.00     2000.00
03560             -15.20     2000.00
03561              25.00     2000.00
03562              -2.00     2200.00
03563             -20.60     2000.00
03564              13.00     2200.00
03565              11.60     2200.00
03566             -15.80     2200.00
03567              -1.00     2200.00
03568              15.00     2400.00
03569              -4.40     2400.00
03570             -10.60     2400.00
03571               9.40     2400.00
03572               6.80     2400.00
03573             -11.80     2400.00
03574               1.20     2800.00
03575              11.80     2600.00
03576              -6.00     2600.00
03577              -5.60     2600.00
03578              10.60     2800.00
03579               0.60     2600.00
03580              -8.40     2800.00
03581               6.80     2800.00
03582               5.20     2800.00
03583              -6.80     2800.00
03584               2.00     2800.00
03585               6.60     3000.00
03586              -3.00     3000.00
03587              -1.80     3000.00
03588               5.20     3200.00
03589               0.40     3000.00
03590              -2.20     3000.00
03591               2.80     3000.00
03592               2.80     3000.00
03593              -1.20     3200.00
03594               0.40     3200.00
03595               3.60     3200.00
03596               0.80     3200.00
03597              -0.60     3200.00
03598               2.60     3200.00
03599               2.60     3400.00
03600              -0.80     3400.00
03601               0.80     3200.00
03602               3.20     3600.00
03603               0.40     3600.00
03604               0.20     3600.00
03605               2.60     3600.00
03606               1.80     3600.00
03607               0.40     3600.00
03608               2.00     3600.00
03609               2.00     3600.00
03610               1.00     3800.00
03611               1.80     3800.00
03612               2.00     3800.00
03613               1.20     3800.00
03614               1.20     4000.00
03615               1.80     3800.00
03616               1.40     4000.00
03617               1.60     4000.00
03618               2.00     4000.00
03619               1.80     4000.00
03620               1.60     4000.00
03621               1.40     4000.00
03622               2.00     4000.00
03623               1.60     4200.00
03624               1.40     4000.00
03625               2.00     4200.00
03626               1.80     4200.00
03627               1.60     4000.00
03628               1.80     4200.00
03629               2.00     4400.00
03630               1.80     4200.00
03631               1.80     4400.00
03632               2.20     4400.00
03633               2.00     4400.00
03634               1.80     4400.00
03635               2.00     4600.00
03636               2.20     4400.00
03637               1.40     4400.00
03638               2.00     4400.00
03639               2.60     4600.00
03640               2.00     4600.00
03641               2.00     4400.00
03642               2.20     4600.00
03643               2.60     4600.00
03644               2.20     4600.00
03645               2.00     4800.00
03646               2.60     4600.00
03647               2.60     4800.00
03648               2.00     4800.00
03649               2.60     4800.00
03650               2.80     4800.00
03651               2.20     4800.00
03652               2.40     4800.00
03653               3.60     5000.00
03654               2.60     4800.00
03655               2.00     5000.00
03656               3.00     5000.00
03657               3.20     5000.00
03658               2.60     5200.00
03659               3.00     5000.00
03660               3.40     5200.00
03661               2.80     4800.00
03662               3.00     5000.00
03663               3.00     5200.00
03664               3.00     5200.00
03665               3.20     5200.00
03666               3.40     5200.00
03667               3.40     5200.00
03668               3.40     5200.00
03669               3.60     5200.00
03670               3.40     5200.00
03671               3.40     5200.00
03672               3.60     5200.00
03673               3.60     5400.00
03674               3.60     5400.00
03675               3.40     5400.00
03676               3.80     5400.00
03677               3.80     5400.00
03678               3.60     5600.00
03679               3.80     5400.00
03680               4.20     5400.00
03681               3.60     5400.00
03682               3.80     5400.00
03683               4.40     5600.00
03684               4.20     5400.00
03685               4.20     5600.00
03686               4.20     5600.00
03687               3.80     5400.00
03688               4.40     5600.00
03689               4.60     5600.00
03690               4.20     5600.00
03691               4.40     5600.00
03692               4.60     5600.00
03693               4.80     5600.00
03694               4.40     5600.00
03695               4.60     5600.00
03696               5.00     5800.00
03697               4.40     5800.00
03698               4.60     5600.00
03699               5.40     5600.00
03700               5.20     5800.00
03701               4.60     5600.00
03702               5.80     5800.00
03703               5.80     6000.00
03704               5.20     5600.00
03705               5.20     6000.00
03706               5.80     6000.00
03707               5.40     5800.00
03708               5.80     5800.00
03709               5.80     5800.00
03710               6.20     6000.00
03711               5.80     6000.00
03712               6.00     6000.00
03713               6.40     6000.00
03714               6.60     5800.00
03715               6.20     6000.00
03716               6.80     6200.00
03717               6.80     5800.00
03718               6.60     6000.00
03719               7.20     6000.00
03720               6.80     6000.00
03721               6.80     6000.00
03722               7.40     6000.00
03723               7.00     6200.00
03724               7.40     6000.00
03725               7.40     6200.00
03726               7.80     6000.00
03727               7.60     6000.00
03728               7.60     6000.00
03729               7.80     6200.00
03730               8.20     6000.00
03731               8.40     6000.00
03732               8.00     6000.00
03733               8.60     6000.00
03734               9.00     6000.00
03735               8.40     6200.00
03736               9.00     6000.00
03737               9.00     6200.00
03738               9.00     6200.00
03739               9.00     6200.00
03740               9.20     6200.00
03741               9.80     6000.00
03742               9.40     6200.00
03743               9.80     6200.00
03744              10.00     6200.00
03745              10.00     6000.00
03746              10.00     6200.00
03747              10.60     6200.00
03748              10.40     6200.00
03749              10.60     6200.00
03750              10.60     6200.00
03751              10.80     6200.00
03752              10.80     6000.00
03753              10.80     6200.00
03754              11.00     6200.00
03755              11.00     6200.00
03756              11.20     6200.00
03757              11.00     6200.00
03758              11.40     6200.00
03759              11.20     6200.00
03760              11.00     6200.00
03761              11.60     6200.00
03762              11.60     6200.00
03763              11.20     6200.00
03764              11.40     6200.00
03765              11.40     6200.00
03766              11.20     6200.00
03767              10.60     6000.00
03768              10.60     6200.00
03769              10.60     6200.00
03770              10.20     6000.00
03771              10.00     6200.00
03772               9.80     6200.00
03773               9.80     6200.00
03774               9.60     6200.00
03775               9.20     6200.00
03776               9.40     6200.00
03777               9.40     6000.00
03778               8.80     6000.00
03779               8.60     6200.00
03780               9.00     6200.00
03781               8.40     6000.00
03782               8.20     6000.00
03783               8.40     6200.00
03784               7.80     6200.00
03785               7.80     6000.00
03786               8.20     6200.00
03787               7.60     6000.00
03788               7.60     6200.00
03789               7.80     6000.00
03790               7.40     6200.00
03791               7.40     6000.00
03792               7.40     6000.00
03793               7.00     6000.00
03794               7.00     6000.00
03795               7.00     6200.00
03796               6.80     6000.00
03797               6.80     6000.00
03798               6.60     6000.00
03799               6.80     6000.00
03800               6.20     6000.00
03801               6.00     6000.00
03802               6.60     6000.00
03803               6.20     6000.00
03804               5.80     6000.00
03805               6.00     6000.00
03806               6.00     6000.00
03807               5.80     6000.00
03808               5.80     5800.00
03809               5.80     6000.00
03810               5.80     5800.00
03811               5.60     5800.00
03812               5.20     6000.00
03813               5.40     6000.00
03814               5.00     5800.00
03815               5.00     5800.00
03816               5.00     5600.00
03817               4.60     5800.00
03818               5.00     5800.00
03819               5.00     5600.00
03820               4.60     5800.00
03821               4.60     5600.00
03822               4.60     5600.00
03823               5.00     5600.00
03824               4.20     5800.00
03825               4.40     5600.00
03826               4.60     5600.00
03827               4.20     5600.00
03828               4.20     5600.00
03829               4.20     5600.00
03830               4.40     5600.00
03831               4.00     5600.00
03832               3.60     5400.00
03833               4.40     5600.00
03834               4.00     5600.00
03835               3.60     5400.00
03836               4.20     5600.00
03837               4.20     5400.00
03838               3.40     5600.00
03839               3.40     5400.00
03840               3.80     5400.00
03841               3.60     5400.00
03842               4.00     5400.00
03843               3.80     5400.00
03844               3.40     5400.00
03845               3.60     5400.00
03846               3.00     5400.00
03847               3.60     5400.00
03848               3.40     5200.00
03849               3.20     5200.00
03850               3.00     5200.00
03851               3.40     5200.00
03852               3.40     5200.00
03853               2.80     5200.00
03854               3.00     5200.00
03855               3.40     5200.00
03856               3.40     5200.00
03857               3.00     4800.00
03858               2.80     5000.00
03859               3.40     5200.00
03860               2.80     4800.00
03861               2.40     5000.00
03862               2.60     4800.00
03863               2.80     4800.00
03864               2.80     4800.00
03865               2.60     4800.00
03866               2.60     4800.00
03867               2.80     4800.00
03868               2.60     4800.00
03869               2.20     4800.00
03870               2.60     4800.00
03871               3.40     4800.00
03872               2.20     4600.00
03873               2.00     4800.00
03874               3.40     4800.00
03875               2.20     4600.00
03876               1.00     4600.00
03877               2.60     4600.00
03878               3.00     4600.00
03879               2.00     4400.00
03880               1.80     4600.00
03881               2.40     4400.00
03882               2.80     4400.00
03883               1.00     4400.00
03884               1.00     4400.00
03885               3.00     4400.00
03886               2.20     4400.00
03887               0.60     4400.00
03888               2.40     4200.00
03889               3.00     4400.00
03890               0.60     4200.00
03891               1.40     4000.00
03892               2.80     4200.00
03893               1.40     4000.00
03894               0.40     4000.00
03895               2.00     4000.00
03896               2.20     4000.00
03897               1.40     4000.00
03898               1.20     4000.00
03899               1.80     4000.00
03900               2.00     4000.00
03901               1.40     3800.00
03902               0.60     4000.00
03903               2.00     3800.00
03904               2.00     4000.00
03905               0.20     3600.00
03906               1.20     3800.00
03907               2.60     3800.00
03908               1.20     3600.00
03909               0.40     3800.00
03910               1.40     3800.00
03911               1.60     3800.00
03912               1.20     3600.00
03913               1.00     3600.00
03914               1.20     3600.00
03915               1.40     3600.00
03916               1.20     3400.00
03917               1.00     3600.00
03918               1.00     3600.00
03919               1.20     3400.00
03920               1.20     3200.00
03921               1.40     3200.00
03922               1.20     3400.00
03923               1.00     3200.00
03924               1.20     3200.00
03925               1.20     3200.00
03926               0.40     3200.00
03927               1.00     3000.00
03928               1.40     3200.00
03929               0.60     3000.00
03930               1.00     3000.00
03931               1.40     3000.00
03932               1.20     3000.00
03933               0.40     3000.00
03934               1.00     3000.00
03935               1.20     2800.00
03936               0.80     3000.00
03937               1.00     3000.00
03938               1.20     2800.00
03939               0.60     2800.00
03940               0.60     2800.00
03941               0.80     2800.00
03942               0.60     2800.00
03943               0.60     2600.00
03944               1.00     2400.00
03945               0.60     2600.00
03946               0.40     2400.00
03947               0.40     2400.00
03948               0.60     2400.00
03949               0.80     2400.00
03950               0.20     2400.00
03951               0.20     2400.00
03952               1.00     2200.00
03953               0.20     2200.00
03954               0.00     2200.00
03955               1.00     2200.00
03956               0.40     2200.00
03957              -0.40     2000.00
03958               0.60     2000.00
03959               0.40     2200.00
03960               0.20     2000.00
03961               0.20     2000.00
03962               0.40     2000.00
03963               0.40     2000.00
03964               0.20     2000.00
03965               0.60     1800.00
03966               0.20     2000.00
03967               0.20     1800.00
03968               0.40     1800.00
03969              -0.40     1600.00
03970               0.20     1800.00
03971               0.60     1600.00
03972              -0.40     1800.00
03973               0.00     1400.00
03974               1.00     1600.00
03975              -0.60     1600.00
03976              -0.40     1800.00
03977               0.60     1600.00
03978              -0.20     1400.00
03979              -0.60     1400.00
03980               0.60     1200.00
03981               0.20     1200.00
03982              -0.60     1200.00
03983               0.40     1200.00
03984               0.40     1200.00
03985              -0.40     1000.00
03986               0.20     1200.00
03987               0.20     1200.00
03988              -0.20     1000.00
03989              -0.40     1000.00
03990               0.00      800.00
03991              -0.20      800.00
03992               0.20      800.00
03993              -0.20      800.00
03994               0.20      800.00
03995               0.20      800.00
03996              -0.40      800.00
03997               0.20      800.00
03998               0.20      600.00
03999              -0.60      600.00
04000              -0.20      600.00
04001               0.20      400.00
04002              -0.60      400.00
04003              -0.20      400.00
04004               0.40      400.00
04005              -0.20      200.00
04006              -0.60      400.00
04007               0.00      400.00
04008              -0.20        0.00
04009              -0.60      200.00
04010              -0.20      400.00
04011              -0.20        0.00
04012              -0.60        0.00
04013              -0.40        0.00
04014              -0.20        0.00
04015              -1.00        0.00
04016              -0.40     -200.00
04017              -0.20        0.00
04018              -1.00        0.00
04019               0.20     -200.00
04020              -0.20     -200.00
04021              -0.40     -200.00
04022              -0.60     -400.00
04023              -0.60     -200.00
04024               0.80     -200.00
04025              10.60     -400.00
04026              15.20     -400.00
04027             -25.00     -400.00
04028             -25.00     -400.00
04029              25.00     -400.00
04030              25.00     -400.00
04031             -25.00     -800.00
04032             -25.00     -400.00
04033              25.00     -800.00
04034              25.00     -600.00
04035             -25.00     -800.00
04036               9.00     -800.00
04037              25.00     -800.00
04038             -25.00    -1000.00
04039             -25.00     -600.00
04040              25.00    -1000.00
04041              25.00    -1000.00
04042             -25.00     -800.00
04043              17.00    -1200.00
04044              25.00    -1200.00
04045             -25.00    -1000.00
04046             -25.00    -1200.00
04047              25.00    -1400.00
04048               8.40    -1200.00
04049             -25.00    -1000.00
04050              25.00    -1600.00
04051              25.00    -1600.00
04052             -25.00    -1200.00
04053             -25.00    -1600.00
04054              25.00    -1600.00
04055              25.00    -1400.00
04056             -25.00    -1600.00
04057              21.00    -1800.00
04058              25.00    -1600.00
04059             -25.00    -1600.00
04060             -25.00    -1800.00
04061              25.00    -1600.00
04062             -25.00    -1800.00
04063             -25.00    -1800.00
04064              25.00    -2000.00
04065               7.20    -2000.00
04066             -25.00    -2000.00
04067              19.40    -2000.00
04068              25.00    -2000.00
04069             -25.00    -2000.00
04070             -14.00    -2000.00
04071              25.00    -2200.00
04072              -6.20    -2200.00
04073             -25.00    -2200.00
04074              18.20    -2400.00
04075               9.40    -2200.00
04076             -22.80    -2400.00
04077               2.60    -2400.00
04078              13.80    -2400.00
04079             -10.00    -2400.00
04080             -11.00    -2400.00
04081              10.80    -2600.00
04082               2.60    -2400.00
04083             -17.00    -2400.00
04084               5.00    -2600.00
04085               9.40    -2600.00
04086             -13.40    -2800.00
04087              -3.60    -2800.00
04088               9.80    -2600.00
04089              -5.20    -2600.00
04090             -10.20    -2800.00
04091               8.20    -2800.00
04092               0.40    -2800.00
04093             -11.80    -2800.00
04094               3.80    -2800.00
04095               3.60    -3000.00
04096              -9.20    -3000.00
04097              -2.20    -3200.00
04098               4.60    -3200.00
04099              -3.80    -3200.00
04100              -6.20    -3200.00
04101               3.40    -3200.00
04102              -0.60    -3200.00
04103              -6.60    -3200.00
04104               0.60    -3200.00
04105               1.80    -3400.00
04106              -4.40    -3400.00
04107              -3.00    -3400.00
04108               1.40    -3400.00
04109              -2.00    -3600.00
04110              -5.00    -3400.00
04111              -0.40    -3600.00
04112               0.40    -3600.00
04113              -4.20    -3600.00
04114              -1.60    -3400.00
04115               0.60    -3600.00
04116              -2.20    -3600.00
04117              -3.00    -3600.00
04118               1.00    -3600.00
04119              -0.20    -3600.00
04120              -9.20    -3600.00
04121               4.60    -4000.00
04122              -4.60    -3800.00
04123              -8.20    -4000.00
04124               4.20    -3800.00
04125              -1.80    -3800.00
04126               2.20    -4000.00
04127              -0.20    -4000.00
04128              -5.20    -4000.00
04129              -1.00    -3800.00
04130              -3.80    -4200.00
04131              -6.40    -4000.00
04132              -1.40    -4200.00
04133              -4.40    -4200.00
04134               5.80    -4000.00
04135              -3.00    -4200.00
04136              -0.60    -4200.00
04137               0.20    -4200.00
04138              -9.20    -4200.00
04139               1.20    -4400.00
04140              -9.40    -4400.00
04141              -0.60    -4400.00
04142               1.60    -4400.00
04143              -3.80    -4400.00
04144              -1.20    -4400.00
04145               1.00    -4400.00
04146              -3.80    -4400.00
04147              -8.60    -4400.00
04148               0.40    -4400.00
04149              -4.20    -4400.00
04150              -1.40    -4400.00
04151              -3.80    -4600.00
04152              -1.40    -4800.00
04153               0.20    -4600.00
04154              -5.20    -4600.00
04155              -0.80    -4600.00
04156              -4.80    -4800.00
04157              -3.60    -4600.00
04158              -2.40    -4800.00
04159              -4.40    -4600.00
04160              -2.60    -4800.00
04161              -3.00    -5000.00
04162              -1.80    -5000.00
04163              -4.20    -5000.00
04164              -2.00    -4800.00
04165              -3.00    -5000.00
04166              -5.80    -5000.00
04167              -2.00    -5000.00
04168              -3.20    -5000.00
04169              -3.80    -5200.00
04170              -4.60    -5000.00
04171              -1.00    -5000.00
04172              -3.40    -5200.00
04173              -3.80    -5200.00
04174              -2.00    -5000.00
04175              -4.60    -5200.00
04176              -3.00    -5200.00
04177              -4.60    -5200.00
04178              -3.00    -5200.00
04179              -4.60    -5200.00
04180              -3.40    -5200.00
04181              -2.20    -5400.00
04182              -4.20    -5200.00
04183              -3.60    -5400.00
04184              -3.80    -5600.00
04185              -3.40    -5600.00
04186              -4.80    -5600.00
04187              -4.00    -5400.00
04188              -3.80    -5600.00
04189              -4.20    -5600.00
04190              -3.00    -5600.00
04191              -4.40    -5600.00
04192              -3.80    -5600.00
04193              -4.80    -5600.00
04194              -3.80    -5600.00
04195              -4.40    -5600.00
04196              -5.20    -5600.00
04197              -3.80    -5600.00
04198              -4.60    -5800.00
04199              -4.20    -5600.00
04200              -4.40    -5600.00
04201              -4.40    -5600.00
04202              -4.60    -5600.00
04203              -4.60    -5800.00
04204              -5.00    -5800.00
04205              -5.20    -5600.00
04206              -5.20    -5800.00
04207              -5.80    -5600.00
04208              -4.60    -5800.00
04209              -5.20    -5800.00
04210              -5.20    -5800.00
04211              -5.40    -5800.00
04212              -5.40    -6000.00
04213              -5.40    -6000.00
04214              -5.40    -5800.00
04215              -6.00    -6000.00
04216              -6.20    -6000.00
04217              -5.40    -5800.00
04218              -6.00    -6000.00
04219              -6.60    -6000.00
04220              -5.40    -6000.00
04221              -6.20    -6000.00
04222              -6.80    -6000.00
04223              -6.20    -6000.00
04224              -6.20    -6000.00
04225              -7.00    -6000.00
04226              -6.60    -6000.00
04227              -6.00    -6000.00
04228              -7.00    -6200.00
04229              -7.00    -6000.00
04230              -6.80    -6000.00
04231              -7.20    -6000.00
04232              -7.80    -6000.00
04233              -7.40    -6200.00
04234              -7.40    -6200.00
04235              -7.60    -6000.00
04236              -7.40    -6200.00
04237              -7.60    -6200.00
04238              -7.60    -6200.00
04239              -8.20    -6200.00
04240              -7.80    -6400.00
04241              -8.40    -6400.00
04242              -8.60    -6000.00
04243              -8.40    -6000.00
04244              -8.60    -6200.00
04245              -8.60    -6200.00
04246              -8.60    -6400.00
04247              -9.00    -6000.00
04248              -8.80    -6200.00
04249              -9.20    -6400.00
04250              -9.20    -6000.00
04251              -9.40    -6200.00
04252              -9.20    -6000.00
04253              -9.80    -6400.00
04254              -9.80    -6200.00
04255              -9.80    -6200.00
04256             -10.20    -6200.00
04257             -10.00    -6000.00
04258             -10.20    -6400.00
04259             -10.20    -6200.00
04260             -10.60    -6400.00
04261             -10.40    -6200.00
04262             -10.60    -6400.00
04263             -10.80    -6200.00
04264             -10.80    -6400.00
04265             -11.00    -6200.00
04266             -11.40    -6400.00
04267             -11.40    -6400.00
04268             -11.00    -6200.00
04269             -11.40    -6200.00
04270             -11.60    -6400.00
04271             -11.40    -6400.00
04272             -11.40    -6400.00
04273             -11.80    -6200.00
04274             -11.60    -6200.00
04275             -11.40    -6400.00
04276             -11.60    -6000.00
04277             -11.00    -6200.00
04278             -11.00    -6400.00
04279             -11.40    -6400.00
04280             -10.80    -6200.00
04281             -10.80    -6200.00
04282             -10.60    -6400.00
04283             -10.00    -6200.00
04284             -10.20    -6200.00
04285             -10.00    -6200.00
04286              -9.40    -6200.00
04287             -10.00    -6400.00
04288              -9.40    -6000.00
04289              -9.20    -6400.00
04290              -9.20    -6200.00
04291              -9.00    -6200.00
04292              -8.40    -6200.00
04293              -8.60    -6400.00
04294              -8.60    -6400.00
04295              -8.40    -6200.00
04296              -8.00    -6000.00
04297              -8.40    -6200.00
04298              -8.40    -6000.00
04299              -7.60    -6200.00
04300              -7.80    -6000.00
04301              -7.60    -6200.00
04302              -7.00    -6000.00
04303              -7.00    -6200.00
04304              -7.00    -6000.00
04305              -7.00    -6000.00
04306              -6.80    -6000.00
04307              -6.80    -6200.00
04308              -6.80    -6000.00
04309              -7.00    -6000.00
04310              -6.60    -6000.00
04311              -6.20    -6000.00
04312              -6.40    -6000.00
04313              -6.60    -6000.00
04314              -6.20    -6000.00
04315              -6.00    -6000.00
04316              -6.60    -6000.00
04317              -6.00    -6000.00
04318              -5.20    -5800.00
04319              -5.80    -6000.00
04320              -6.40    -6000.00
04321              -5.40    -6000.00
04322              -5.00    -6000.00
04323              -6.20    -6000.00
04324              -6.00    -6000.00
04325              -4.20    -6000.00
04326              -5.20    -6000.00
04327              -6.20    -5800.00
04328              -5.00    -6000.00
04329              -4.20    -5800.00
04330              -5.40    -5800.00
04331              -6.00    -5800.00
04332              -3.80    -5800.00
04333              -4.60    -5600.00
04334              -6.00    -5800.00
04335              -4.60    -5800.00
04336              -4.20    -5800.00
04337              -5.40    -5600.00
04338              -4.40    -5800.00
04339              -4.20    -5600.00
04340              -5.20    -5600.00
04341              -5.00    -5800.00
04342              -3.80    -5800.00
04343              -4.40    -5600.00
04344              -5.20    -5600.00
04345              -3.80    -5600.00
04346              -3.80    -5600.00
04347              -4.60    -5600.00
04348              -4.60    -5600.00
04349              -3.40    -5600.00
04350              -4.20    -5400.00
04351              -4.40    -5600.00
04352              -3.60    -5600.00
04353              -3.80    -5600.00
04354              -4.40    -5600.00
04355              -4.40    -5600.00
04356              -3.80    -5400.00
04357              -3.60    -5400.00
04358              -3.60    -5400.00
04359              -4.00    -5400.00
04360              -3.80    -5400.00
04361              -3.40    -5200.00
04362              -3.80    -5200.00
04363              -3.80    -5200.00
04364              -3.20    -5200.00
04365              -3.00    -5000.00
04366              -3.60    -5200.00
04367              -3.40    -5000.00
04368              -3.00    -5200.00
04369              -3.40    -5000.00
04370              -3.60    -5200.00
04371              -3.00    -5000.00
04372              -2.80    -5000.00
04373              -3.60    -5000.00
04374              -3.00    -5000.00
04375              -2.80    -5000.00
04376              -3.00    -5000.00
04377              -3.00    -4800.00
04378              -3.00    -5000.00
04379              -2.40    -4800.00
04380              -3.00    -4600.00
04381              -3.00    -4600.00
04382              -2.60    -4800.00
04383              -2.80    -4600.00
04384              -3.00    -4800.00
04385              -2.20    -4600.00
04386              -2.80    -4600.00
04387              -3.20    -4600.00
04388              -2.20    -4600.00
04389              -2.80    -4600.00
04390              -2.60    -4400.00
04391              -2.00    -4600.00
04392              -3.00    -4400.00
04393              -2.80    -4400.00
04394              -2.20    -4400.00
04395              -2.20    -4400.00
04396              -2.60    -4400.00
04397              -2.20    -4400.00
04398              -2.20    -4400.00
04399              -2.80    -4400.00
04400              -2.00    -4400.00
04401              -1.80    -4400.00
04402              -2.40    -4400.00
04403              -3.00    -4400.00
04404              -2.40    -4200.00
04405              -1.80    -4200.00
04406              -2.80    -4200.00
04407              -2.40    -4200.00
04408              -2.40    -4200.00
04409              -2.00    -4200.00
04410              -2.00    -4000.00
04411              -2.20    -4000.00
04412              -2.60    -4000.00
04413              -2.20    -4000.00
04414              -1.60    -4000.00
04415              -2.00    -4000.00
04416              -2.60    -4000.00
04417              -2.20    -3800.00
04418              -2.00    -3800.00
04419              -2.00    -4000.00
04420              -2.00    -3800.00
04421              -2.20    -4000.00
04422              -2.80    -3600.00
04423              -2.20    -3600.00
04424              -1.00    -3600.00
04425              -1.40    -3600.00
04426              -2.20    -3600.00
04427              -2.00    -3600.00
04428              -1.40    -3400.00
04429              -2.20    -3600.00
04430              -2.60    -3400.00
04431              -2.00    -3400.00
04432              -1.00    -3400.00
04433              -1.40    -3400.00
04434              -1.80    -3400.00
04435              -1.60    -3400.00
04436              -1.80    -3400.00
04437              -2.00    -3400.00
04438              -1.60    -3200.00
04439              -1.80    -3200.00
04440              -1.40    -3400.00
04441              -1.20    -3000.00
04442              -1.80    -3200.00
04443              -1.60    -3200.00
04444              -1.20    -3000.00
04445              -1.80    -2800.00
04446              -1.40    -3000.00
04447              -0.60    -2800.00
04448              -1.40    -2800.00
04449              -2.20    -3000.00
04450              -1.20    -2800.00
04451              -1.20    -2800.00
04452              -1.40    -2600.00
04453              -1.20    -2600.00
04454              -1.20    -2600.00
04455              -1.80    -2800.00
04456              -1.40    -2800.00
04457              -0.60    -2600.00
04458              -1.40    -2600.00
04459              -1.40    -2600.00
04460              -0.60    -2400.00
04461              -0.60    -2400.00
04462              -1.00    -2400.00
04463              -1.60    -2400.00
04464              -1.00    -2400.00
04465              -1.00    -2400.00
04466              -1.20    -2400.00
04467              -1.20    -2400.00
04468              -1.20    -2200.00
04469              -1.40    -2000.00
04470              -1.20    -2200.00
04471              -1.20    -2000.00
04472              -1.20    -2000.00
04473              -1.20    -2000.00
04474              -0.60    -2000.00
04475              -1.00    -2000.00
04476              -1.20    -1800.00
04477              -1.20    -2000.00
04478              -1.00    -1800.00
04479              -1.40    -1800.00
04480              -1.20    -1800.00
04481              -0.60    -1800.00
04482              -1.20    -1800.00
04483              -1.20    -1800.00
04484              -1.00    -1600.00
04485              -1.20    -1600.00
04486              -1.00    -1600.00
04487              -1.20    -1600.00
04488              -1.00    -1600.00
04489              -0.60    -1600.00
04490              -1.20    -1200.00
04491              -1.20    -1600.00
04492              -1.20    -1400.00
04493              -0.60    -1200.00
04494              -1.20    -1200.00
04495              -1.20    -1200.00
04496              -0.40    -1000.00
04497              -0.60    -1000.00
04498              -1.00    -1000.00
04499              -0.60    -1000.00
04500              -0.60    -1000.00
04501              -1.00    -1000.00
04502              -0.60    -1000.00
04503              -1.00    -1000.00
04504              -0.60     -800.00
04505              -0.40     -800.00
04506              -0.80     -800.00
04507              -0.60     -800.00
04508              -0.40     -800.00
04509              -0.60     -600.00
04510              -0.80     -600.00
04511              -0.60     -800.00
04512              -0.40     -400.00
04513              -0.60     -400.00
04514              -0.60     -400.00
04515              -0.40     -600.00
04516              -0.40     -400.00
04517              -0.40     -400.00
04518              -0.40     -400.00
04519              -0.40     -200.00
04520              -0.40     -400.00
04521              -0.20     -200.00
04522              -0.20     -200.00
04523              -0.40     -200.00
04524              -0.40     -200.00
04525              -0.20        0.00
04526              -1.00     -200.00
04527               0.20        0.00
04528               0.40        0.00
04529              -0.60        0.00
04530              -0.20        0.00
04531               0.60      200.00
04532              -0.60        0.00
04533              -1.00      200.00
04534               0.00      200.00
04535               0.60      200.00
04536               5.00      400.00
04537              12.40      400.00
04538             -11.80      400.00
04539             -25.00      400.00
04540              -2.20      400.00
04541              25.00      400.00
04542               3.40      600.00
04543             -25.00      600.00
04544              25.00      400.00
04545              25.00     1000.00
04546             -25.00      400.00
04547             -25.00      800.00
04548              25.00      600.00
04549              25.00      600.00
04550             -25.00     1200.00
04551              25.00      800.00
04552              25.00      800.00
04553             -25.00      800.00
04554             -25.00     1200.00
04555              25.00      800.00
04556             -14.40     1000.00
04557             -25.00     1200.00
04558              25.00     1200.00
04559              25.00     1200.00
04560             -25.00     1400.00
04561             -23.60     1400.00
04562              25.00     1200.00
04563              -0.60     1400.00
04564             -25.00     1400.00
04565              25.00     1400.00
04566              25.00     1600.00
04567             -25.00     1600.00
04568             -22.00     1600.00
04569              25.00     1600.00
04570             -21.60     1800.00
04571             -25.00     1600.00
04572              25.00     1600.00
04573              19.40     2000.00
04574             -25.00     1800.00
04575              24.20     1800.00
04576              25.00     2000.00
04577             -25.00     2000.00
04578             -11.40     2000.00
04579              25.00     2000.00
04580             -11.00     2200.00
04581             -25.00     2000.00
04582              24.40     2000.00
04583               9.60     2200.00
04584             -23.00     2000.00
04585               5.40     2000.00
04586              17.20     2200.00
04587             -12.20     2400.00
04588              -7.00     2200.00
04589              14.80     2400.00
04590               1.40     2400.00
04591             -12.60     2400.00
04592               5.40     2400.00
04593              10.80     2400.00
04594              -9.20     2400.00
04595              -3.60     2600.00
04596              12.00     2400.00
04597              -1.40     2400.00
04598              -8.40     2600.00
04599               7.60     2600.00
04600               5.00     2800.00
04601              -8.40     2800.00
04602               2.20     2800.00
04603               7.80     2600.00
04604              -4.60     2800.00
04605              -2.20     3000.00
04606               7.00     2800.00
04607               0.20     2800.00
04608              -4.60     3000.00
04609               3.80     3000.00
04610               3.60     3000.00
04611              -2.80     3000.00
04612               0.60     3000.00
04613               4.40     3200.00
04614              -0.20     3200.00
04615              -1.80     3000.00
04616               3.40     3200.00
04617               2.20     3200.00
04618              -2.00     3200.00
04619               1.80     3200.00
04620               3.40     3200.00
04621              -0.40     3400.00
04622              -0.60     3200.00
04623               3.40     3600.00
04624               0.40     3600.00
04625              -0.40     3600.00
04626               2.80     3600.00
04627               1.80     3600.00
04628               0.20     3600.00
04629               1.80     3600.00
04630               2.20     3600.00
04631               0.40     3600.00
04632               1.20     3800.00
04633               2.20     3800.00
04634               1.00     3600.00
04635               1.20     4000.00
04636               2.00     3800.00
04637               2.00     4000.00
04638               1.20     3800.00
04639               1.80     4000.00
04640               2.20     4000.00
04641               1.40     4000.00
04642               1.40     4000.00
04643               2.60     4000.00
04644               2.00     4200.00
04645               1.40     4000.00
04646               2.40     4200.00
04647               2.20     4200.00
04648               1.40     4000.00
04649               2.20     4200.00
04650               2.20     4000.00
04651               1.80     4400.00
04652               2.40     4400.00
04653               2.60     4400.00
04654               1.60     4400.00
04655               1.80     4600.00
04656               2.40     4400.00
04657               2.00     4400.00
04658               2.20     4400.00
04659               2.20     4400.00
04660               2.80     4600.00
04661               2.00     4600.00
04662               1.80     4800.00
04663               3.40     4600.00
04664               2.20     4600.00
04665               1.20     4600.00
04666               2.60     4600.00
04667               2.80     4600.00
04668               1.40     4600.00
04669               2.60     4800.00
04670               3.20     4800.00
04671               2.00     4800.00
04672               2.20     4800.00
04673               3.60     4800.00
04674               2.20     4800.00
04675               2.20     4800.00
04676               3.40     5000.00
04677               2.60     5200.00
04678               2.20     4800.00
04679               3.20     4800.00
04680               3.40     4800.00
04681               1.80     5000.00
04682               3.00     5000.00
04683               3.40     5000.00
04684               2.60     5000.00
04685               2.80     5200.00
04686               3.40     5200.00
04687               3.00     5200.00
04688               3.40     5200.00
04689               3.00     5200.00
04690               3.40     5200.00
04691               3.60     5200.00
04692               3.40     5400.00
04693               3.00     5400.00
04694               3.60     5400.00
04695               4.00     5400.00
04696               3.80     5200.00
04697               3.60     5400.00
04698               3.60     5600.00
04699               3.60     5400.00
04700               3.60     5600.00
04701               3.80     5400.00
04702               5.00     5400.00
04703               3.80     5400.00
04704               2.80     5400.00
04705               4.80     5600.00
04706               5.20     5600.00
04707               2.80     5600.00
04708               4.00     5600.00
04709               6.60     5600.00
04710               4.40     5600.00
04711               3.40     5600.00
04712               5.20     5400.00
04713               5.00     5600.00
04714               3.80     5600.00
04715               4.60     5600.00
04716               5.80     5600.00
04717               5.00     5600.00
04718               4.20     5600.00
04719               5.20     5600.00
04720               5.40     5600.00
04721               5.00     5800.00
04722               5.20     5800.00
04723               5.80     5800.00
04724               4.80     5800.00
04725               5.80     6000.00
04726               5.80     6000.00
04727               4.80     6000.00
04728               5.60     5800.00
04729               6.20     6000.00
04730               5.40     5800.00
04731               5.80     6000.00
04732               6.60     6000.00
04733               5.80     6000.00
04734               5.80     6000.00
04735               6.80     5800.00
04736               6.20     6000.00
04737               5.40     6000.00
04738               7.40     6000.00
04739               7.00     6000.00
04740               6.00     6000.00
04741               7.00     6200.00
04742               7.60     6000.00
04743               6.60     6000.00
04744               6.80     6000.00
04745               7.60     6000.00
04746               7.20     6000.00
04747               7.00     6000.00
04748               7.80     6200.00
04749               7.80     6200.00
04750               7.40     6000.00
04751               7.80     6000.00
04752               8.80     6200.00
04753               7.80     6000.00
04754               8.20     6000.00
04755               9.80     6000.00
04756               8.60     6200.00
04757               8.00     6000.00
04758               9.20     6200.00
04759               9.00     6200.00
04760               8.60     6000.00
04761               9.20     6200.00
04762               9.80     6200.00
04763               8.60     6200.00
04764              10.00     6200.00
04765              10.40     6200.00
04766               9.80     6200.00
04767              10.00     6200.00
04768              10.60     6200.00
04769               9.80     6200.00
04770              10.60     6200.00
04771              11.00     6200.00
04772              10.00     6200.00
04773              10.60     6200.00
04774              11.20     6000.00
04775              11.40     6200.00
04776              10.80     6200.00
04777              11.40     6200.00
04778              11.60     6000.00
04779              11.20     6200.00
04780              11.60     6200.00
04781              11.80     6200.00
04782              10.80     6200.00
04783              11.60     6200.00
04784              13.00     6000.00
04785              10.80     6200.00
04786              10.60     6200.00
04787              12.20     6200.00
04788              11.40     6200.00
04789              10.40     6200.00
04790              10.80     6200.00
04791              10.80     6200.00
04792               9.80     6200.00
04793               9.80     6200.00
04794              10.60     6000.00
04795               9.80     6200.00
04796               8.80     6200.00
04797              10.20     6200.00
04798               9.20     6200.00
04799               8.40     6000.00
04800               9.20     6200.00
04801               9.00     6200.00
04802               8.00     6200.00
04803               8.40     6000.00
04804               9.00     6200.00
04805               8.00     6200.00
04806               7.60     6000.00
04807               8.20     6000.00
04808               7.80     6000.00
04809               7.20     6200.00
04810               7.60     6000.00
04811               7.60     6000.00
04812               6.80     6200.00
04813               7.40     6200.00
04814               7.60     6000.00
04815               6.60     6000.00
04816               6.60     6000.00
04817               7.20     6000.00
04818               6.60     6000.00
04819               6.20     6000.00
04820               6.60     6000.00
04821               6.60     6000.00
04822               6.40     6000.00
04823               6.20     6000.00
04824               6.00     6000.00
04825               6.20     6000.00
04826               6.00     6000.00
04827               5.80     6000.00
04828               5.80     6000.00
04829               6.00     5800.00
04830               5.60     6000.00
04831               5.40     6000.00
04832               6.00     5800.00
04833               5.60     6000.00
04834               5.00     6000.00
04835               5.80     5800.00
04836               5.40     6000.00
04837               4.60     6000.00
04838               5.20     5600.00
04839               5.20     5600.00
04840               4.40     5800.00
04841               5.00     6000.00
04842               5.40     5800.00
04843               5.00     5800.00
04844               4.20     5600.00
04845               5.20     5800.00
04846               5.20     5600.00
04847               3.80     5600.00
04848               4.40     5600.00
04849               5.00     5600.00
04850               4.20     5600.00
04851               4.20     5600.00
04852               5.00     5600.00
04853               3.80     5400.00
04854               3.80     5600.00
04855               4.60     5400.00
04856               4.00     5400.00
04857               3.60     5600.00
04858               4.20     5600.00
04859               3.80     5400.00
04860               3.60     5400.00
04861               3.60     5400.00
04862               3.60     5400.00
04863               3.40     5400.00
04864               3.60     5400.00
04865               3.40     5400.00
04866               3.40     5400.00
04867               3.60     5400.00
04868               3.60     5400.00
04869               3.00     5400.00
04870               2.80     5200.00
04871               3.60     5200.00
04872               3.40     5200.00
04873               2.60     5200.00
04874               3.60     5200.00
04875               3.40     5200.00
04876               2.20     5000.00
04877               3.60     5200.00
04878               3.40     5200.00
04879               2.00     5000.00
04880               2.80     5200.00
04881               3.60     5000.00
04882               2.00     5000.00
04883               2.20     5000.00
04884               3.00     4800.00
04885               2.60     4800.00
04886               2.40     4800.00
04887               2.60     4800.00
04888               3.00     4800.00
04889               2.00     4800.00
04890               2.00     4800.00
04891               3.40     4800.00
04892               2.00     4800.00
04893               2.00     4600.00
04894               2.80     4600.00
04895               2.00     4600.00
04896               2.20     4600.00
04897               2.60     4600.00
04898               2.40     4600.00
04899               2.20     4600.00
04900               2.20     4600.00
04901               2.60     4600.00
04902               2.00     4400.00
04903               1.80     4600.00
04904               2.20     4400.00
04905               2.40     4400.00
04906               2.00     4400.00
04907               2.00     4400.00
04908               2.20     4400.00
04909               2.00     4200.00
04910               2.00     4200.00
04911               2.20     4200.00
04912               1.80     4200.00
04913               1.80     4200.00
04914               2.40     4200.00
04915               2.20     4200.00
04916               1.00     4000.00
04917               1.40     4000.00
04918               3.00     4000.00
04919               1.40     4000.00
04920               0.40     4000.00
04921               2.00     4000.00
04922               2.20     3800.00
04923               1.80     3800.00
04924               1.40     3800.00
04925               1.80     4000.00
04926               1.00     3800.00
04927              -0.60     3800.00
04928               3.40     3600.00
04929               1.00     3600.00
04930               0.20     3600.00
04931               2.60     3800.00
04932               2.20     3600.00
04933              -0.60     3600.00
04934               0.40     3600.00
04935               2.60     3600.00
04936               0.80     3600.00
04937               0.20     3600.00
04938               3.00     3600.00
04939              -0.20     3600.00
04940               0.60     3600.00
04941               1.00     3200.00
04942               0.60     3400.00
04943               2.00     3200.00
04944               0.60     3200.00
04945               0.40     3200.00
04946               2.20     3200.00
04947               0.20     3200.00
04948              -0.40     3200.00
04949               2.00     3200.00
04950               2.00     3000.00
04951              -1.00     3200.00
04952               0.60     3000.00
04953               2.60     3000.00
04954               0.20     3000.00
04955               0.40     3000.00
04956               2.00     3000.00
04957               0.40     2800.00
04958              -0.60     2800.00
04959               1.40     2800.00
04960               1.80     2800.00
04961              -0.40     2800.00
04962               0.60     2800.00
04963               1.80     2800.00
04964               0.20     2800.00
04965              -0.20     2800.00
04966               1.20     2400.00
04967               1.20     2600.00
04968               0.60     2400.00
04969               1.00     2400.00
04970               0.40     2600.00
04971               0.20     2400.00
04972               0.40     2400.00
04973               0.60     2400.00
04974               0.60     2200.00
04975               0.80     2400.00
04976               0.60     2200.00
04977               0.20     2000.00
04978               0.20     2200.00
04979               0.60     2200.00
04980               1.00     2000.00
04981               0.00     2000.00
04982               0.40     2000.00
04983               1.20     2000.00
04984               0.40     2000.00
04985              -0.80     1800.00
04986               0.60     2000.00
04987               1.00     1800.00
04988              -0.40     2000.00
04989               0.20     1800.00
04990               1.00     1600.00
04991               0.00     1600.00
04992              -0.60     1800.00
04993               0.40     1600.00
04994               0.20     1600.00
04995              -0.20     1600.00
04996               0.20     1400.00
04997               0.60     1400.00
04998              -0.20     1400.00
04999              -0.60     1400.00
05000               0.40     1200.00
