Unit:(mV)
                     CH1         CH2
Frequency              ?  97.909 kHz
00001             -15.60    -2600.00
00002              -1.00    -2600.00
00003              10.20    -2800.00
00004              -7.60    -2600.00
00005              -9.80    -2800.00
00006               9.20    -2800.00
00007              -0.60    -3000.00
00008             -11.80    -2800.00
00009               3.60    -3000.00
00010               4.20    -2800.00
00011              -8.60    -3000.00
00012              -3.40    -3000.00
00013               5.20    -3000.00
00014              -2.80    -3200.00
00015              -6.80    -3200.00
00016               2.60    -3200.00
00017               0.60    -3200.00
00018              -6.20    -3400.00
00019              -1.60    -3200.00
00020               2.00    -3400.00
00021              -3.40    -3200.00
00022              -3.80    -3200.00
00023               0.60    -3400.00
00024              -0.20    -3400.00
00025              -4.60    -3400.00
00026              -1.80    -3400.00
00027               1.00    -3400.00
00028              -2.80    -3600.00
00029              -3.00    -3600.00
00030              -0.20    -3600.00
00031              -1.20    -3600.00
00032              -3.40    -3600.00
00033              -1.40    -3600.00
00034              -0.60    -3600.00
00035              -2.20    -3800.00
00036              -2.00    -3800.00
00037              -2.00    -3600.00
00038              -1.80    -3800.00
00039              -2.00    -4000.00
00040              -2.20    -4000.00
00041              -2.00    -4000.00
00042              -1.20    -4000.00
00043              -2.20    -4000.00
00044              -2.20    -4000.00
00045              -1.20    -4200.00
00046              -2.20    -4200.00
00047              -2.80    -4200.00
00048              -2.00    -4200.00
00049              -1.60    -4200.00
00050              -2.20    -4200.00
00051              -2.40    -4200.00
00052              -1.80    -4400.00
00053              -2.20    -4400.00
00054              -2.80    -4400.00
00055              -2.20    -4400.00
00056              -2.00    -4400.00
00057              -2.60    -4400.00
00058              -2.80    -4400.00
00059              -2.00    -4600.00
00060              -2.20    -4400.00
00061              -3.00    -4600.00
00062              -2.80    -4600.00
00063              -2.20    -4400.00
00064              -2.80    -4400.00
00065              -3.40    -4600.00
00066              -2.20    -4400.00
00067              -2.80    -4800.00
00068              -3.40    -4600.00
00069              -2.60    -4600.00
00070              -2.60    -4800.00
00071              -3.60    -4800.00
00072              -2.80    -4600.00
00073              -2.20    -4800.00
00074              -3.40    -4800.00
00075              -3.60    -5000.00
00076              -3.00    -4800.00
00077              -3.00    -5000.00
00078              -3.00    -5000.00
00079              -3.00    -4800.00
00080              -3.40    -5200.00
00081              -3.60    -5000.00
00082              -3.40    -5000.00
00083              -3.00    -5000.00
00084              -3.60    -5000.00
00085              -3.00    -5000.00
00086              -3.00    -5000.00
00087              -3.60    -5200.00
00088              -3.80    -5200.00
00089              -3.40    -5200.00
00090              -3.60    -5200.00
00091              -3.60    -5200.00
00092              -3.80    -5200.00
00093              -3.40    -5400.00
00094              -3.00    -5200.00
00095              -4.00    -5400.00
00096              -3.80    -5200.00
00097              -2.40    -5400.00
00098              -5.00    -5200.00
00099              -4.60    -5600.00
00100              -2.80    -5400.00
00101              -4.40    -5600.00
00102              -4.80    -5600.00
00103              -2.60    -5400.00
00104              -3.80    -5600.00
00105              -5.00    -5600.00
00106              -3.40    -5600.00
00107              -4.00    -5600.00
00108              -5.20    -5600.00
00109              -4.00    -5800.00
00110              -4.40    -5600.00
00111              -4.80    -5600.00
00112              -4.40    -5800.00
00113              -4.20    -5600.00
00114              -5.00    -5800.00
00115              -4.60    -5800.00
00116              -4.60    -5600.00
00117              -4.80    -5800.00
00118              -5.20    -5800.00
00119              -5.00    -5800.00
00120              -5.00    -5800.00
00121              -5.40    -6000.00
00122              -5.40    -5800.00
00123              -5.20    -5800.00
00124              -5.40    -5800.00
00125              -5.40    -6000.00
00126              -5.40    -5800.00
00127              -5.80    -5800.00
00128              -6.00    -6000.00
00129              -5.40    -5800.00
00130              -6.00    -6000.00
00131              -6.00    -5800.00
00132              -5.80    -6000.00
00133              -6.00    -6000.00
00134              -6.20    -6000.00
00135              -6.20    -6000.00
00136              -6.20    -5800.00
00137              -6.60    -6000.00
00138              -6.60    -6000.00
00139              -6.60    -6000.00
00140              -6.60    -6000.00
00141              -6.80    -6000.00
00142              -6.80    -6200.00
00143              -6.60    -6200.00
00144              -7.60    -6000.00
00145              -7.20    -6000.00
00146              -6.60    -6000.00
00147              -7.60    -6000.00
00148              -7.60    -6000.00
00149              -6.80    -6200.00
00150              -7.20    -6200.00
00151              -8.60    -6200.00
00152              -7.40    -6000.00
00153              -7.60    -6200.00
00154              -8.60    -6000.00
00155              -8.20    -6200.00
00156              -7.60    -6000.00
00157              -8.60    -6200.00
00158              -8.60    -6000.00
00159              -8.20    -6200.00
00160              -8.60    -6200.00
00161              -9.00    -6200.00
00162              -8.60    -6200.00
00163              -9.00    -6000.00
00164              -9.40    -6200.00
00165              -9.40    -6200.00
00166              -9.20    -6000.00
00167              -9.40    -6400.00
00168              -9.80    -6400.00
00169              -9.40    -6200.00
00170             -10.00    -6400.00
00171             -10.20    -6200.00
00172             -10.00    -6200.00
00173             -10.60    -6200.00
00174             -10.60    -6200.00
00175             -10.20    -6200.00
00176             -10.80    -6200.00
00177             -11.00    -6200.00
00178             -10.60    -6200.00
00179             -10.60    -6200.00
00180             -11.40    -6200.00
00181             -10.80    -6400.00
00182             -11.00    -6200.00
00183             -11.60    -6200.00
00184             -11.80    -6400.00
00185             -11.80    -6400.00
00186             -11.40    -6000.00
00187             -12.00    -6400.00
00188             -11.80    -6400.00
00189             -11.40    -6200.00
00190             -11.60    -6200.00
00191             -11.80    -6200.00
00192             -11.20    -6200.00
00193             -11.20    -6000.00
00194             -11.00    -6200.00
00195             -10.80    -6200.00
00196             -10.60    -6400.00
00197             -10.40    -6400.00
00198             -10.60    -6000.00
00199             -10.20    -6200.00
00200              -9.80    -6400.00
00201             -10.00    -6200.00
00202              -9.40    -6400.00
00203              -9.40    -6200.00
00204              -9.20    -6200.00
00205              -9.20    -6200.00
00206              -9.00    -6200.00
00207              -9.20    -6200.00
00208              -9.00    -6200.00
00209              -8.00    -6200.00
00210              -9.00    -6200.00
00211              -7.60    -6000.00
00212              -8.40    -6200.00
00213              -8.40    -6200.00
00214              -6.80    -6000.00
00215              -8.20    -6000.00
00216              -8.20    -6000.00
00217              -6.80    -6000.00
00218              -7.60    -6200.00
00219              -7.80    -6000.00
00220              -7.00    -6000.00
00221              -7.00    -6000.00
00222              -7.00    -6000.00
00223              -6.80    -6000.00
00224              -6.60    -6000.00
00225              -6.60    -6000.00
00226              -6.60    -6000.00
00227              -6.60    -6000.00
00228              -6.80    -6000.00
00229              -5.80    -6000.00
00230              -6.00    -6000.00
00231              -6.20    -6000.00
00232              -6.00    -6000.00
00233              -6.40    -6000.00
00234              -6.20    -6000.00
00235              -5.00    -5800.00
00236              -6.00    -6000.00
00237              -6.20    -6000.00
00238              -4.60    -5800.00
00239              -5.40    -6000.00
00240              -6.00    -6000.00
00241              -5.20    -5800.00
00242              -5.00    -6000.00
00243              -6.20    -5800.00
00244              -5.00    -5800.00
00245              -4.40    -5800.00
00246              -6.00    -5800.00
00247              -5.00    -5800.00
00248              -4.20    -5800.00
00249              -5.80    -5800.00
00250              -5.00    -5800.00
00251              -4.20    -5800.00
00252              -5.40    -5600.00
00253              -5.40    -5800.00
00254              -3.80    -5800.00
00255              -4.60    -5600.00
00256              -5.40    -5600.00
00257              -3.80    -5600.00
00258              -4.20    -5600.00
00259              -5.80    -5600.00
00260              -3.80    -5800.00
00261              -3.60    -5600.00
00262              -5.40    -5600.00
00263              -4.20    -5600.00
00264              -3.20    -5600.00
00265              -5.20    -5400.00
00266              -4.40    -5600.00
00267              -3.60    -5600.00
00268              -4.40    -5400.00
00269              -4.40    -5600.00
00270              -3.40    -5400.00
00271              -3.80    -5400.00
00272              -4.20    -5600.00
00273              -3.20    -5200.00
00274              -3.80    -5200.00
00275              -3.80    -5200.00
00276              -3.60    -5400.00
00277              -3.60    -5200.00
00278              -3.60    -5200.00
00279              -3.40    -5200.00
00280              -3.40    -5200.00
00281              -3.60    -5200.00
00282              -3.60    -5200.00
00283              -3.40    -5200.00
00284              -3.40    -5000.00
00285              -3.40    -5000.00
00286              -3.20    -5000.00
00287              -3.00    -5000.00
00288              -3.00    -4800.00
00289              -3.20    -5000.00
00290              -2.80    -5000.00
00291              -2.80    -4600.00
00292              -3.00    -4800.00
00293              -3.00    -5000.00
00294              -2.80    -4800.00
00295              -2.80    -4600.00
00296              -3.00    -4800.00
00297              -2.80    -4600.00
00298              -2.80    -4800.00
00299              -3.00    -4600.00
00300              -2.60    -4600.00
00301              -2.80    -4600.00
00302              -2.80    -4600.00
00303              -2.20    -4600.00
00304              -2.60    -4600.00
00305              -2.60    -4600.00
00306              -2.60    -4600.00
00307              -2.80    -4400.00
00308              -2.60    -4600.00
00309              -2.40    -4400.00
00310              -2.60    -4400.00
00311              -2.20    -4400.00
00312              -2.40    -4200.00
00313              -2.40    -4400.00
00314              -2.20    -4400.00
00315              -2.20    -4400.00
00316              -2.20    -4400.00
00317              -2.20    -4200.00
00318              -2.40    -4200.00
00319              -2.60    -4200.00
00320              -2.20    -4200.00
00321              -2.20    -4200.00
00322              -2.20    -4000.00
00323              -2.60    -4200.00
00324              -2.20    -4200.00
00325              -2.20    -4000.00
00326              -2.60    -4000.00
00327              -2.20    -4000.00
00328              -2.00    -4000.00
00329              -2.20    -4000.00
00330              -2.20    -4000.00
00331              -2.00    -4000.00
00332              -2.20    -3800.00
00333              -2.20    -3800.00
00334              -2.00    -3800.00
00335              -2.00    -3800.00
00336              -2.20    -3800.00
00337              -2.00    -3800.00
00338              -2.00    -3800.00
00339              -2.00    -3600.00
00340              -2.00    -3600.00
00341              -1.80    -3600.00
00342              -2.00    -3600.00
00343              -2.00    -3600.00
00344              -1.80    -3400.00
00345              -1.40    -3600.00
00346              -2.20    -3400.00
00347              -1.80    -3400.00
00348              -1.20    -3400.00
00349              -1.80    -3400.00
00350              -2.00    -3200.00
00351              -1.20    -3200.00
00352              -1.40    -3200.00
00353              -2.00    -3200.00
00354              -1.20    -3200.00
00355              -1.20    -3200.00
00356              -2.00    -2800.00
00357              -1.40    -3200.00
00358              -1.40    -3000.00
00359              -1.20    -3000.00
00360              -1.40    -3000.00
00361              -1.80    -2800.00
00362              -1.00    -2800.00
00363              -1.40    -2800.00
00364              -1.80    -2800.00
00365              -1.20    -2800.00
00366              -1.20    -2800.00
00367              -1.80    -2600.00
00368              -1.40    -2800.00
00369              -1.00    -2600.00
00370              -1.40    -2800.00
00371              -1.80    -2600.00
00372              -0.60    -2600.00
00373              -1.00    -2400.00
00374              -2.00    -2600.00
00375              -1.40    -2400.00
00376              -0.60    -2400.00
00377              -1.40    -2400.00
00378              -1.80    -2400.00
00379              -0.60    -2400.00
00380              -1.00    -2400.00
00381              -1.20    -2200.00
00382              -1.20    -2200.00
00383              -1.20    -2000.00
00384              -0.60    -2000.00
00385              -1.80    -2200.00
00386              -1.20    -2000.00
00387              -1.00    -2000.00
00388              -1.40    -2000.00
00389              -1.00    -2000.00
00390              -1.60    -1800.00
00391              -1.20    -2000.00
00392              -0.40    -1800.00
00393              -1.20    -1800.00
00394              -1.80    -1800.00
00395              -0.60    -1600.00
00396              -0.80    -1800.00
00397              -1.20    -1800.00
00398              -1.20    -1600.00
00399              -1.00    -1600.00
00400              -0.40    -1600.00
00401              -1.40    -1400.00
00402              -1.40    -1600.00
00403              -0.60    -1600.00
00404              -1.40    -1200.00
00405              -1.40    -1400.00
00406               0.20    -1400.00
00407              -0.40    -1200.00
00408              -1.40    -1200.00
00409              -1.20    -1200.00
00410              -0.20    -1200.00
00411              -1.20    -1000.00
00412              -1.00    -1000.00
00413              -0.60    -1200.00
00414              -1.00    -1000.00
00415              -0.60     -800.00
00416              -0.40    -1000.00
00417              -0.80    -1000.00
00418              -1.40    -1000.00
00419              -0.60     -800.00
00420               0.40     -800.00
00421              -0.60     -800.00
00422              -2.00     -800.00
00423              -0.80     -800.00
00424               0.00     -800.00
00425               0.00     -600.00
00426              -0.40     -800.00
00427              -0.60     -400.00
00428              -0.80     -400.00
00429              -0.60     -400.00
00430              -1.00     -400.00
00431              -0.40     -400.00
00432               0.40     -400.00
00433              -0.60     -200.00
00434              -1.20     -400.00
00435              -0.60     -200.00
00436              -0.20     -200.00
00437              -0.60     -200.00
00438              -0.60     -200.00
00439               0.40        0.00
00440              -0.40        0.00
00441              -1.20        0.00
00442               0.00        0.00
00443               1.00        0.00
00444              -0.20        0.00
00445               0.00        0.00
00446               0.80        0.00
00447              -0.80        0.00
00448              -1.60        0.00
00449               0.20      400.00
00450               1.20      200.00
00451               4.60      400.00
00452              12.20      400.00
00453             -12.40      400.00
00454             -25.00      400.00
00455               1.20      600.00
00456              25.00      400.00
00457              -2.20      600.00
00458             -25.00      600.00
00459              25.00      400.00
00460              25.00     1000.00
00461             -25.00      400.00
00462             -25.00      800.00
00463              25.00      600.00
00464              25.00      800.00
00465             -25.00     1000.00
00466              25.00      800.00
00467              25.00     1000.00
00468             -25.00      800.00
00469             -24.20     1200.00
00470              25.00     1000.00
00471             -23.00     1200.00
00472             -25.00     1400.00
00473              25.00     1200.00
00474              25.00     1200.00
00475             -25.00     1400.00
00476             -18.40     1400.00
00477              25.00     1200.00
00478              -5.80     1800.00
00479             -25.00     1600.00
00480              25.00     1400.00
00481              25.00     1600.00
00482             -25.00     1800.00
00483             -15.40     1400.00
00484              25.00     1800.00
00485             -25.00     1800.00
00486             -25.00     1600.00
00487              25.00     1800.00
00488              12.20     2000.00
00489             -25.00     1800.00
00490              25.00     2000.00
00491              25.00     2000.00
00492             -25.00     2000.00
00493              -7.40     2000.00
00494              25.00     2000.00
00495             -14.20     2000.00
00496             -25.00     2200.00
00497              25.00     2000.00
00498               7.60     2200.00
00499             -23.60     2200.00
00500               7.60     2000.00
00501              17.40     2400.00
00502             -14.20     2200.00
00503              -5.80     2200.00
00504              16.40     2400.00
00505              -1.00     2400.00
00506             -12.60     2400.00
00507               8.20     2400.00
00508              10.00     2400.00
00509             -10.60     2600.00
00510              -1.80     2800.00
00511              12.20     2600.00
00512              -3.60     2800.00
00513              -8.20     2600.00
00514               8.40     2800.00
00515               4.20     2800.00
00516              -8.40     2800.00
00517               3.40     2800.00
00518               7.60     3000.00
00519              -4.60     2800.00
00520              -2.20     3000.00
00521               6.60     3000.00
00522               0.60     3000.00
00523              -4.40     3000.00
00524               3.60     3000.00
00525               4.00     3200.00
00526              -2.60     3200.00
00527              -0.60     3200.00
00528               4.00     3200.00
00529               1.00     3200.00
00530              -2.00     3200.00
00531               2.80     3200.00
00532               3.20     3200.00
00533              -1.40     3200.00
00534               0.20     3400.00
00535               3.60     3600.00
00536               0.60     3600.00
00537              -1.00     3400.00
00538               2.80     3400.00
00539               2.20     3600.00
00540              -0.60     3600.00
00541               1.20     3600.00
00542               2.60     3600.00
00543               0.60     3600.00
00544               0.40     3800.00
00545               2.40     3800.00
00546               1.40     3800.00
00547               1.20     3800.00
00548               1.40     3800.00
00549               1.80     4000.00
00550               1.40     3800.00
00551               1.20     4000.00
00552               2.00     4000.00
00553               2.00     4000.00
00554               1.60     4000.00
00555               1.40     4200.00
00556               2.20     4000.00
00557               2.00     4000.00
00558               1.40     4200.00
00559               1.80     4200.00
00560               2.60     4000.00
00561               1.40     4200.00
00562               1.80     4400.00
00563               2.20     4400.00
00564               2.20     4200.00
00565               2.00     4400.00
00566               2.20     4400.00
00567               2.00     4400.00
00568               2.60     4400.00
00569               1.80     4400.00
00570               1.80     4600.00
00571               2.60     4400.00
00572               2.00     4400.00
00573               1.80     4400.00
00574               2.20     4600.00
00575               2.60     4600.00
00576               2.00     4600.00
00577               2.40     4600.00
00578               2.60     4600.00
00579               2.00     4800.00
00580               2.00     4800.00
00581               2.60     4800.00
00582               2.60     4800.00
00583               2.00     4800.00
00584               2.60     4800.00
00585               2.80     4800.00
00586               2.40     4800.00
00587               2.20     5000.00
00588               2.80     4800.00
00589               2.60     5000.00
00590               2.20     5000.00
00591               2.80     5000.00
00592               3.00     5000.00
00593               2.40     5200.00
00594               2.80     5200.00
00595               3.00     5200.00
00596               2.40     5200.00
00597               2.80     5200.00
00598               3.20     5000.00
00599               2.80     5200.00
00600               3.00     5200.00
00601               3.00     5200.00
00602               3.00     5200.00
00603               3.60     5400.00
00604               3.20     5200.00
00605               3.60     5400.00
00606               3.60     5400.00
00607               2.80     5400.00
00608               3.60     5400.00
00609               3.60     5200.00
00610               3.60     5600.00
00611               4.00     5600.00
00612               3.00     5600.00
00613               4.40     5400.00
00614               4.40     5600.00
00615               2.60     5600.00
00616               4.20     5600.00
00617               5.20     5600.00
00618               3.00     5600.00
00619               3.40     5600.00
00620               5.40     5600.00
00621               4.20     5600.00
00622               3.60     5600.00
00623               5.20     5800.00
00624               4.40     5600.00
00625               4.20     5800.00
00626               5.00     5600.00
00627               4.40     5800.00
00628               5.20     5600.00
00629               5.00     5800.00
00630               4.40     5800.00
00631               5.00     5800.00
00632               5.20     6000.00
00633               4.60     5800.00
00634               5.40     6000.00
00635               5.20     5800.00
00636               5.40     6000.00
00637               5.80     6000.00
00638               5.00     5800.00
00639               5.20     5800.00
00640               6.20     6000.00
00641               5.40     6000.00
00642               5.20     6000.00
00643               6.00     6000.00
00644               6.20     6000.00
00645               5.40     6000.00
00646               6.20     6000.00
00647               6.20     6000.00
00648               5.20     6000.00
00649               6.00     6000.00
00650               6.60     6000.00
00651               6.60     6200.00
00652               6.80     6200.00
00653               6.80     6000.00
00654               7.80     6000.00
00655               7.00     6000.00
00656               5.80     6200.00
00657               7.80     6000.00
00658               5.40     6000.00
00659               5.20     6200.00
00660               8.20     6000.00
00661               7.00     6200.00
00662               8.40     6000.00
00663               9.80     6000.00
00664               8.80     6200.00
00665               7.40     6200.00
00666               6.80     6200.00
00667               7.00     6200.00
00668               7.40     6200.00
00669               7.20     6200.00
00670              10.00     6200.00
00671              10.20     6200.00
00672               9.40     6200.00
00673              10.60     6200.00
00674               9.00     6200.00
00675               7.80     6200.00
00676               8.20     6200.00
00677               9.00     6200.00
00678               9.40     6200.00
00679              10.20     6200.00
00680              11.40     6200.00
00681              11.40     6200.00
00682              10.00     6200.00
00683              10.20     6200.00
00684              10.00     6200.00
00685               9.40     6200.00
00686              10.60     6200.00
00687              11.40     6000.00
00688              10.80     6200.00
00689              11.40     6400.00
00690              11.80     6200.00
00691              11.40     6400.00
00692              11.00     6400.00
00693              11.60     6200.00
00694              11.40     6200.00
00695              11.60     6400.00
00696              11.40     6200.00
00697              12.20     6200.00
00698              11.40     6400.00
00699              11.60     6400.00
00700              12.20     6200.00
00701              11.60     6200.00
00702              11.40     6200.00
00703              11.60     6200.00
00704              10.80     6200.00
00705              10.00     6200.00
00706              10.60     6200.00
00707              10.60     6200.00
00708               9.80     6400.00
00709              10.20     6200.00
00710              10.20     6200.00
00711               9.40     6200.00
00712               9.00     6200.00
00713               9.80     6200.00
00714               9.00     6400.00
00715               7.40     6200.00
00716               9.20     6200.00
00717               9.80     6200.00
00718               7.40     6200.00
00719               8.40     6400.00
00720               9.40     6200.00
00721               7.40     6200.00
00722               7.40     6200.00
00723               8.60     6200.00
00724               7.40     6000.00
00725               6.80     6200.00
00726               7.40     6200.00
00727               7.60     6000.00
00728               7.20     6000.00
00729               7.00     6200.00
00730               7.40     6000.00
00731               7.40     6000.00
00732               6.20     6200.00
00733               6.20     6200.00
00734               6.80     6000.00
00735               6.60     6000.00
00736               6.60     6200.00
00737               6.80     6000.00
00738               6.40     6000.00
00739               6.20     6000.00
00740               5.80     6000.00
00741               6.00     6000.00
00742               5.80     6000.00
00743               5.80     6000.00
00744               6.20     6000.00
00745               6.00     6000.00
00746               5.80     6000.00
00747               5.40     6000.00
00748               5.80     6000.00
00749               5.40     6000.00
00750               5.20     6000.00
00751               5.40     6000.00
00752               5.40     6000.00
00753               5.20     6000.00
00754               5.20     5800.00
00755               5.20     6000.00
00756               4.60     6000.00
00757               4.40     5600.00
00758               5.00     5800.00
00759               5.00     5600.00
00760               4.60     5600.00
00761               5.00     5800.00
00762               4.60     5600.00
00763               4.40     5800.00
00764               4.40     5600.00
00765               4.20     5600.00
00766               4.20     5600.00
00767               4.40     5600.00
00768               4.40     5600.00
00769               4.20     5600.00
00770               4.20     5600.00
00771               3.60     5600.00
00772               3.80     5600.00
00773               3.60     5400.00
00774               3.80     5600.00
00775               4.20     5600.00
00776               3.80     5600.00
00777               3.60     5600.00
00778               3.80     5400.00
00779               3.40     5400.00
00780               3.20     5400.00
00781               3.60     5400.00
00782               3.40     5400.00
00783               3.20     5400.00
00784               3.40     5400.00
00785               3.40     5400.00
00786               3.00     5200.00
00787               3.20     5400.00
00788               3.00     5200.00
00789               3.00     5200.00
00790               2.80     5000.00
00791               3.00     5200.00
00792               2.80     5200.00
00793               2.60     5200.00
00794               2.80     5200.00
00795               3.00     5200.00
00796               2.80     5200.00
00797               2.80     5200.00
00798               2.80     5000.00
00799               2.80     5200.00
00800               2.60     4800.00
00801               2.60     4800.00
00802               2.40     4800.00
00803               2.40     4800.00
00804               2.20     4800.00
00805               2.60     4800.00
00806               2.60     4800.00
00807               2.60     4800.00
00808               2.80     4800.00
00809               2.20     4800.00
00810               2.60     4800.00
00811               2.60     4600.00
00812               2.00     4600.00
00813               2.00     4600.00
00814               2.40     4600.00
00815               2.20     4600.00
00816               2.20     4600.00
00817               2.40     4600.00
00818               2.20     4600.00
00819               2.00     4400.00
00820               2.00     4400.00
00821               2.00     4400.00
00822               2.00     4400.00
00823               2.00     4400.00
00824               2.00     4400.00
00825               2.20     4400.00
00826               1.60     4400.00
00827               2.00     4400.00
00828               2.00     4400.00
00829               2.00     4200.00
00830               1.40     4200.00
00831               1.80     4200.00
00832               1.80     4000.00
00833               1.80     4000.00
00834               1.80     4000.00
00835               1.80     4000.00
00836               1.60     4000.00
00837               1.80     4000.00
00838               1.20     3800.00
00839               1.40     4000.00
00840               1.40     4000.00
00841               1.20     3800.00
00842               1.80     4000.00
00843               1.60     3800.00
00844               1.00     3800.00
00845               1.40     3600.00
00846               1.40     3800.00
00847               1.00     3800.00
00848               1.20     3600.00
00849               1.20     3600.00
00850               1.00     3600.00
00851               1.20     3600.00
00852               1.20     3600.00
00853               0.80     3600.00
00854               1.60     3600.00
00855               1.40     3600.00
00856               0.40     3600.00
00857               1.80     3400.00
00858               2.00     3400.00
00859              -0.60     3200.00
00860               1.00     3400.00
00861               2.80     3200.00
00862               0.40     3200.00
00863              -0.60     3000.00
00864               1.80     3200.00
00865               1.80     3200.00
00866               0.20     3000.00
00867               0.40     3000.00
00868               1.40     3200.00
00869               1.60     3000.00
00870               1.20     3000.00
00871              -0.20     3000.00
00872               1.00     2800.00
00873               1.40     3000.00
00874               0.20     3000.00
00875               1.20     2800.00
00876               1.00     2600.00
00877               0.60     2800.00
00878               0.40     2800.00
00879               0.40     2600.00
00880               1.00     2800.00
00881               0.60     2600.00
00882               1.00     2600.00
00883               1.20     2600.00
00884               0.40     2600.00
00885               0.40     2600.00
00886               0.40     2400.00
00887               0.40     2200.00
00888               1.00     2200.00
00889               0.60     2400.00
00890               0.20     2400.00
00891               0.80     2200.00
00892               1.00     2200.00
00893               0.00     2200.00
00894               0.40     2200.00
00895               0.40     2200.00
00896               0.20     2000.00
00897               0.40     2200.00
00898               0.60     1800.00
00899               0.00     2000.00
00900              -0.20     2000.00
00901               1.00     2000.00
00902               0.40     1800.00
00903               0.00     1800.00
00904               0.20     1800.00
00905               0.60     1800.00
00906               0.20     1600.00
00907              -1.00     1800.00
00908               0.00     1800.00
00909               1.00     1600.00
00910              -0.60     1600.00
00911              -0.60     1600.00
00912               1.00     1800.00
00913               0.20     1400.00
00914              -0.60     1400.00
00915               0.20     1400.00
00916               0.60     1400.00
00917              -0.60     1400.00
00918              -0.60     1200.00
00919               0.60     1200.00
00920               0.20     1200.00
00921              -1.00     1200.00
00922               0.40     1200.00
00923              -0.20     1000.00
00924              -0.60     1000.00
00925               0.20      800.00
00926               0.40     1000.00
00927              -0.60      800.00
00928              -0.60     1000.00
00929               0.20      800.00
00930               0.20      800.00
00931              -0.40      800.00
00932              -0.20      800.00
00933               0.20      600.00
00934              -0.60      600.00
00935              -0.60      600.00
00936               0.20      600.00
00937              -0.20      600.00
00938              -0.60      600.00
00939              -0.40      600.00
00940               0.20      400.00
00941              -0.60      400.00
00942              -0.80      400.00
00943               0.00      400.00
00944              -0.20      400.00
00945              -0.40      400.00
00946              -0.40      400.00
00947              -0.20      200.00
00948              -0.40        0.00
00949              -0.40      200.00
00950              -0.20        0.00
00951              -0.60        0.00
00952              -0.40        0.00
00953               0.20        0.00
00954              -0.20     -200.00
00955              -0.40     -200.00
00956              -0.20     -200.00
00957               0.20     -200.00
00958              -0.40     -400.00
00959              -1.00     -200.00
00960               0.20     -400.00
00961               7.20     -400.00
00962              19.40     -400.00
00963             -21.80     -400.00
00964             -25.00     -600.00
00965              25.00     -400.00
00966              25.00     -400.00
00967             -25.00     -800.00
00968             -25.00     -400.00
00969              25.00     -800.00
00970              25.00     -400.00
00971             -25.00    -1000.00
00972             -25.00     -600.00
00973              25.00     -800.00
00974              25.00     -800.00
00975             -25.00     -800.00
00976              25.00    -1200.00
00977              25.00    -1000.00
00978             -25.00    -1000.00
00979             -25.00    -1000.00
00980              25.00    -1200.00
00981             -15.60    -1000.00
00982             -25.00    -1000.00
00983              25.00    -1400.00
00984              25.00    -1400.00
00985             -25.00    -1200.00
00986              -3.60    -1600.00
00987              25.00    -1600.00
00988             -14.40    -1200.00
00989             -25.00    -1600.00
00990              25.00    -1600.00
00991              25.00    -1600.00
00992             -25.00    -1600.00
00993             -23.80    -1800.00
00994              25.00    -1600.00
00995             -25.00    -1600.00
00996             -25.00    -1800.00
00997              25.00    -1600.00
00998               9.00    -1800.00
00999             -25.00    -1800.00
01000              25.00    -2000.00
01001              25.00    -2000.00
01002             -25.00    -1800.00
01003              -0.20    -2000.00
01004              25.00    -2000.00
01005             -19.40    -2000.00
01006             -25.00    -2000.00
01007              25.00    -2000.00
01008               7.80    -2200.00
01009             -25.00    -2400.00
01010              10.80    -2400.00
01011              20.60    -2200.00
01012             -22.80    -2400.00
01013              -6.00    -2400.00
01014              18.80    -2400.00
01015              -5.40    -2400.00
01016             -17.00    -2600.00
01017               9.80    -2600.00
01018               9.00    -2400.00
01019             -18.60    -2600.00
01020               0.60    -2600.00
01021              14.00    -2600.00
01022             -11.00    -2600.00
01023              -8.40    -2600.00
01024              10.20    -2800.00
01025              -0.20    -2800.00
01026             -13.00    -2800.00
01027               4.40    -2800.00
01028               6.80    -2800.00
01029             -11.80    -3000.00
01030              -2.20    -2800.00
01031               7.00    -3000.00
01032              -6.00    -2800.00
01033              -7.00    -3200.00
01034               5.00    -3200.00
01035              -0.40    -3200.00
01036              -7.60    -3200.00
01037               0.60    -3200.00
01038               1.80    -3200.00
01039              -4.60    -3200.00
01040              -2.80    -3200.00
01041               1.00    -3400.00
01042              -1.40    -3400.00
01043              -3.80    -3400.00
01044              -1.40    -3400.00
01045               0.00    -3600.00
01046              -3.00    -3600.00
01047              -3.40    -3600.00
01048              -0.40    -3400.00
01049              -1.40    -3600.00
01050              -3.00    -3600.00
01051              -2.20    -3600.00
01052              -0.60    -3600.00
01053              -2.20    -3600.00
01054              -2.80    -3600.00
01055              -1.40    -3800.00
01056              -1.40    -3800.00
01057              -2.20    -4000.00
01058              -2.20    -4000.00
01059              -1.40    -4000.00
01060              -1.60    -4000.00
01061              -2.80    -4000.00
01062              -2.20    -4000.00
01063              -1.20    -4000.00
01064              -2.20    -4000.00
01065              -3.00    -4000.00
01066              -1.20    -4000.00
01067              -1.60    -4000.00
01068              -3.00    -4000.00
01069              -2.00    -4200.00
01070              -1.40    -4200.00
01071              -2.20    -4200.00
01072              -2.40    -4200.00
01073              -2.00    -4400.00
01074              -2.20    -4200.00
01075              -2.60    -4400.00
01076              -2.20    -4400.00
01077              -2.00    -4400.00
01078              -2.60    -4400.00
01079              -2.40    -4400.00
01080              -2.20    -4400.00
01081              -2.20    -4600.00
01082              -2.80    -4400.00
01083              -2.40    -4600.00
01084              -2.20    -4600.00
01085              -2.60    -4400.00
01086              -2.80    -4600.00
01087              -2.40    -4600.00
01088              -2.60    -4800.00
01089              -3.00    -4600.00
01090              -2.80    -4600.00
01091              -2.40    -4600.00
01092              -3.00    -4800.00
01093              -2.80    -4800.00
01094              -2.00    -4800.00
01095              -3.00    -4600.00
01096              -3.60    -4800.00
01097              -2.80    -5000.00
01098              -3.00    -4800.00
01099              -3.40    -5000.00
01100              -3.40    -5000.00
01101              -3.00    -5000.00
01102              -3.00    -5000.00
01103              -3.40    -5000.00
01104              -3.40    -5000.00
01105              -3.00    -5000.00
01106              -3.40    -5000.00
01107              -3.60    -5200.00
01108              -3.00    -5000.00
01109              -3.80    -5000.00
01110              -3.80    -5200.00
01111              -3.60    -5200.00
01112              -3.80    -5400.00
01113              -3.00    -5200.00
01114              -4.20    -5200.00
01115              -4.00    -5400.00
01116              -3.20    -5200.00
01117              -3.80    -5400.00
01118              -3.80    -5200.00
01119              -3.40    -5600.00
01120              -4.40    -5400.00
01121              -4.40    -5400.00
01122              -3.40    -5400.00
01123              -4.00    -5600.00
01124              -5.00    -5200.00
01125              -3.40    -5600.00
01126              -3.80    -5600.00
01127              -4.00    -5600.00
01128              -4.60    -5600.00
01129              -4.60    -5600.00
01130              -4.40    -5600.00
01131              -4.60    -5800.00
01132              -4.60    -5600.00
01133              -4.20    -5600.00
01134              -4.20    -5600.00
01135              -4.60    -5800.00
01136              -4.60    -5800.00
01137              -4.60    -5800.00
01138              -5.20    -5800.00
01139              -5.00    -5800.00
01140              -4.80    -5600.00
01141              -4.60    -5800.00
01142              -5.20    -5600.00
01143              -4.80    -5800.00
01144              -5.00    -5800.00
01145              -5.00    -5800.00
01146              -5.20    -5800.00
01147              -5.20    -6000.00
01148              -5.40    -6000.00
01149              -5.40    -6000.00
01150              -5.40    -6000.00
01151              -5.80    -6000.00
01152              -6.20    -5800.00
01153              -5.60    -6000.00
01154              -6.00    -6000.00
01155              -6.00    -6000.00
01156              -6.20    -6000.00
01157              -6.00    -6000.00
01158              -6.20    -6000.00
01159              -6.40    -6000.00
01160              -6.60    -6000.00
01161              -6.60    -6000.00
01162              -6.80    -6000.00
01163              -6.80    -6000.00
01164              -6.60    -6000.00
01165              -7.00    -6000.00
01166              -7.00    -6000.00
01167              -7.40    -6000.00
01168              -7.40    -6000.00
01169              -7.60    -6000.00
01170              -7.60    -6200.00
01171              -7.40    -6000.00
01172              -7.80    -6200.00
01173              -8.20    -6000.00
01174              -7.80    -6200.00
01175              -7.80    -6200.00
01176              -8.60    -6200.00
01177              -8.40    -6200.00
01178              -8.20    -6000.00
01179              -8.40    -6200.00
01180              -8.60    -6200.00
01181              -8.60    -6200.00
01182              -9.20    -6400.00
01183              -9.40    -6400.00
01184              -9.40    -6200.00
01185              -9.20    -6200.00
01186              -9.80    -6400.00
01187              -9.40    -6400.00
01188              -9.20    -6200.00
01189              -9.40    -6200.00
01190             -10.00    -6200.00
01191             -10.20    -6200.00
01192             -10.00    -6200.00
01193             -10.20    -6200.00
01194             -10.40    -6000.00
01195             -10.20    -6200.00
01196             -10.60    -6400.00
01197             -10.60    -6200.00
01198             -11.00    -6200.00
01199             -10.80    -6200.00
01200             -11.00    -6200.00
01201             -11.40    -6400.00
01202             -11.40    -6400.00
01203             -11.00    -6400.00
01204             -11.60    -6400.00
01205             -11.40    -6200.00
01206             -11.60    -6200.00
01207             -11.80    -6200.00
01208             -11.40    -6200.00
01209             -11.40    -6400.00
01210             -11.60    -6200.00
01211             -11.60    -6400.00
01212             -11.00    -6200.00
01213             -11.20    -6400.00
01214             -11.40    -6400.00
01215             -11.00    -6200.00
01216             -10.60    -6400.00
01217             -11.00    -6200.00
01218             -10.20    -6200.00
01219              -9.20    -6200.00
01220             -10.60    -6200.00
01221             -10.20    -6400.00
01222              -9.40    -6400.00
01223             -10.00    -6400.00
01224              -9.40    -6400.00
01225              -9.20    -6200.00
01226              -8.60    -6200.00
01227              -9.20    -6400.00
01228              -9.20    -6200.00
01229              -8.20    -6000.00
01230              -9.00    -6400.00
01231              -9.00    -6000.00
01232              -8.20    -6000.00
01233              -8.40    -6200.00
01234              -8.40    -6000.00
01235              -7.80    -6200.00
01236              -7.60    -6200.00
01237              -8.00    -6200.00
01238              -7.60    -6000.00
01239              -7.00    -6000.00
01240              -7.80    -6200.00
01241              -7.40    -6000.00
01242              -6.60    -6000.00
01243              -7.60    -6000.00
01244              -7.00    -6000.00
01245              -6.20    -6400.00
01246              -7.00    -6000.00
01247              -7.00    -6000.00
01248              -6.20    -6000.00
01249              -6.60    -6000.00
01250              -7.00    -6000.00
01251              -6.20    -6000.00
01252              -6.20    -6000.00
01253              -6.20    -6000.00
01254              -6.20    -6000.00
01255              -6.00    -6000.00
01256              -5.80    -6000.00
01257              -6.00    -6000.00
01258              -5.80    -6000.00
01259              -5.40    -5800.00
01260              -6.00    -6000.00
01261              -5.80    -5800.00
01262              -5.40    -5800.00
01263              -5.00    -5800.00
01264              -5.20    -5800.00
01265              -5.40    -5800.00
01266              -5.40    -6000.00
01267              -5.20    -6000.00
01268              -4.60    -5800.00
01269              -4.60    -5800.00
01270              -5.00    -5800.00
01271              -4.60    -5800.00
01272              -4.60    -5800.00
01273              -4.80    -5600.00
01274              -4.40    -5800.00
01275              -4.60    -5800.00
01276              -5.00    -5600.00
01277              -4.20    -5600.00
01278              -4.40    -5600.00
01279              -4.80    -5800.00
01280              -3.80    -5600.00
01281              -4.20    -5600.00
01282              -4.60    -5600.00
01283              -3.60    -5600.00
01284              -4.20    -5600.00
01285              -4.60    -5600.00
01286              -3.60    -5600.00
01287              -3.60    -5400.00
01288              -4.60    -5400.00
01289              -4.20    -5600.00
01290              -3.60    -5400.00
01291              -4.60    -5600.00
01292              -4.20    -5200.00
01293              -3.40    -5400.00
01294              -4.20    -5200.00
01295              -4.40    -5400.00
01296              -3.00    -5200.00
01297              -3.40    -5200.00
01298              -4.20    -5200.00
01299              -3.60    -5200.00
01300              -3.40    -5200.00
01301              -3.80    -5200.00
01302              -3.80    -5200.00
01303              -3.00    -5200.00
01304              -3.40    -5200.00
01305              -3.60    -5200.00
01306              -3.60    -5000.00
01307              -3.60    -5000.00
01308              -3.40    -5000.00
01309              -3.60    -5000.00
01310              -3.60    -4800.00
01311              -2.80    -5000.00
01312              -3.20    -5000.00
01313              -3.60    -4800.00
01314              -2.80    -4800.00
01315              -2.80    -4800.00
01316              -3.40    -4600.00
01317              -3.00    -4800.00
01318              -2.60    -4600.00
01319              -2.80    -4600.00
01320              -3.00    -4800.00
01321              -2.80    -4800.00
01322              -2.80    -4600.00
01323              -2.80    -4600.00
01324              -3.00    -4600.00
01325              -2.60    -4800.00
01326              -2.80    -4600.00
01327              -2.60    -4600.00
01328              -2.80    -4400.00
01329              -2.20    -4600.00
01330              -2.20    -4400.00
01331              -2.80    -4400.00
01332              -2.60    -4400.00
01333              -2.20    -4400.00
01334              -2.60    -4400.00
01335              -2.80    -4400.00
01336              -2.00    -4400.00
01337              -2.20    -4200.00
01338              -2.60    -4200.00
01339              -2.20    -4400.00
01340              -2.20    -4200.00
01341              -2.20    -4200.00
01342              -2.40    -4200.00
01343              -2.00    -4200.00
01344              -2.00    -4200.00
01345              -2.20    -4200.00
01346              -2.20    -4200.00
01347              -2.00    -4000.00
01348              -2.20    -4000.00
01349              -2.00    -4000.00
01350              -1.80    -4000.00
01351              -2.00    -3800.00
01352              -2.20    -4000.00
01353              -2.00    -4000.00
01354              -2.00    -4000.00
01355              -2.00    -4000.00
01356              -2.20    -3800.00
01357              -2.00    -3800.00
01358              -2.20    -3800.00
01359              -2.00    -3600.00
01360              -2.00    -3600.00
01361              -2.00    -3600.00
01362              -1.80    -3600.00
01363              -1.80    -3400.00
01364              -2.00    -3600.00
01365              -1.80    -3400.00
01366              -1.80    -3400.00
01367              -2.40    -3400.00
01368              -2.00    -3400.00
01369              -1.40    -3600.00
01370              -2.20    -3400.00
01371              -2.20    -3400.00
01372              -1.00    -3400.00
01373              -1.80    -3200.00
01374              -2.20    -3400.00
01375              -1.20    -3200.00
01376              -1.80    -3000.00
01377              -2.00    -3200.00
01378              -1.80    -3200.00
01379              -1.80    -3000.00
01380              -1.40    -3000.00
01381              -1.80    -3000.00
01382              -1.80    -3000.00
01383              -1.20    -3000.00
01384              -1.80    -2800.00
01385              -1.80    -2800.00
01386              -1.20    -2800.00
01387              -1.40    -2800.00
01388              -1.40    -2800.00
01389              -1.00    -2800.00
01390              -1.40    -2800.00
01391              -1.80    -2600.00
01392              -1.20    -2600.00
01393              -1.00    -2400.00
01394              -1.80    -2600.00
01395              -1.00    -2600.00
01396              -1.00    -2400.00
01397              -1.20    -2400.00
01398              -1.20    -2400.00
01399              -1.20    -2400.00
01400              -1.00    -2400.00
01401              -1.80    -2400.00
01402              -1.00    -2200.00
01403              -0.60    -2200.00
01404              -1.80    -2200.00
01405              -0.80    -2200.00
01406              -1.00    -2000.00
01407              -1.00    -2000.00
01408              -1.20    -2000.00
01409              -1.00    -2000.00
01410              -0.60    -2000.00
01411              -1.40    -2000.00
01412              -1.20    -2000.00
01413              -0.40    -1800.00
01414              -0.80    -1800.00
01415              -2.00    -1800.00
01416              -0.60    -1600.00
01417               0.00    -1800.00
01418              -1.80    -1800.00
01419              -1.40    -1600.00
01420               0.20    -1600.00
01421              -1.20    -1600.00
01422              -1.80    -1600.00
01423              -0.40    -1200.00
01424              -0.80    -1600.00
01425              -1.80    -1200.00
01426              -0.60    -1400.00
01427              -0.40    -1400.00
01428              -1.00    -1200.00
01429              -1.20    -1400.00
01430              -0.60    -1200.00
01431              -0.60    -1200.00
01432              -1.20    -1200.00
01433              -1.00    -1000.00
01434              -0.40    -1000.00
01435              -0.60    -1000.00
01436              -1.20    -1000.00
01437              -0.60    -1000.00
01438              -0.60    -1000.00
01439              -1.60    -1000.00
01440              -1.00     -800.00
01441               0.20     -800.00
01442              -0.60     -800.00
01443              -1.40     -800.00
01444               0.40     -800.00
01445              -0.60     -600.00
01446              -1.60     -600.00
01447              -1.00     -600.00
01448              -0.40     -400.00
01449              -0.40     -400.00
01450              -1.20     -400.00
01451              -0.60     -400.00
01452               0.20     -400.00
01453              -1.00     -400.00
01454              -0.60     -400.00
01455              -0.40     -400.00
01456              -0.40     -200.00
01457              -1.00     -200.00
01458              -0.20     -200.00
01459               0.20        0.00
01460              -1.40        0.00
01461              -0.60        0.00
01462               0.40        0.00
01463              -0.20        0.00
01464              -1.20        0.00
01465              -0.60        0.00
01466               1.80      200.00
01467               0.20      200.00
01468              -1.00      400.00
01469               0.40      400.00
01470              -0.20      400.00
01471              -0.80      200.00
01472               2.60      200.00
01473              14.00      400.00
01474              -1.20      400.00
01475             -25.00      400.00
01476             -22.60      600.00
01477              25.00      400.00
01478              25.00      600.00
01479             -25.00      600.00
01480             -15.20      600.00
01481              25.00      800.00
01482              -3.40      600.00
01483             -25.00     1000.00
01484              25.00      600.00
01485              25.00     1000.00
01486             -25.00      800.00
01487             -18.00      800.00
01488              25.00     1000.00
01489             -25.00     1000.00
01490             -25.00     1200.00
01491              25.00      800.00
01492              25.00     1000.00
01493             -25.00     1200.00
01494              12.20     1200.00
01495              25.00     1200.00
01496             -25.00     1400.00
01497             -25.00     1400.00
01498              25.00     1200.00
01499              25.00     1400.00
01500             -25.00     1600.00
01501              -8.40     1200.00
01502              25.00     1400.00
01503             -25.00     1800.00
01504             -25.00     1600.00
01505              25.00     1600.00
01506              20.00     1800.00
01507             -25.00     1800.00
01508              25.00     1600.00
01509              25.00     2000.00
01510             -25.00     1800.00
01511              -8.60     1800.00
01512              25.00     2000.00
01513             -22.00     2000.00
01514             -25.00     2000.00
01515              25.00     2000.00
01516              11.40     2200.00
01517             -25.00     2200.00
01518              11.40     2000.00
01519              22.40     2200.00
01520             -20.60     2200.00
01521              -7.20     2200.00
01522              21.40     2200.00
01523              -2.80     2200.00
01524             -14.60     2400.00
01525              11.80     2400.00
01526               8.60     2400.00
01527             -13.60     2400.00
01528              -1.20     2400.00
01529              14.20     2800.00
01530              -4.40     2400.00
01531              -8.40     2600.00
01532              11.00     2600.00
01533               4.20     2600.00
01534             -10.00     2800.00
01535               2.60     2800.00
01536               8.40     2800.00
01537              -6.00     2800.00
01538              -1.60     2800.00
01539               9.20     3000.00
01540              -0.60     3000.00
01541              -5.40     2800.00
01542               5.00     2800.00
01543               3.60     3000.00
01544              -4.40     3000.00
01545               1.40     3200.00
01546               6.60     3000.00
01547              -0.60     3200.00
01548              -2.00     3000.00
01549               3.40     3200.00
01550               1.80     3200.00
01551              -2.60     3200.00
01552               1.80     3200.00
01553               4.20     3400.00
01554              -0.60     3200.00
01555              -0.40     3200.00
01556               3.40     3400.00
01557               1.40     3400.00
01558              -2.00     3400.00
01559               1.80     3600.00
01560               3.40     3600.00
01561               0.20     3600.00
01562               0.60     3600.00
01563               2.20     3800.00
01564               1.00     3600.00
01565               0.20     3800.00
01566               2.00     3800.00
01567               2.20     3800.00
01568               1.00     3800.00
01569               1.20     4000.00
01570               1.60     4000.00
01571               1.40     3800.00
01572               1.20     3800.00
01573               1.40     3800.00
01574               1.80     4000.00
01575               2.00     4000.00
01576               1.40     4000.00
01577               1.80     4000.00
01578               2.00     4000.00
01579               1.20     4200.00
01580               1.80     4000.00
01581               2.20     4400.00
01582               2.00     4200.00
01583               1.80     4200.00
01584               1.80     4400.00
01585               1.80     4400.00
01586               2.00     4400.00
01587               1.40     4400.00
01588               2.00     4400.00
01589               2.80     4400.00
01590               2.00     4400.00
01591               2.00     4400.00
01592               2.60     4600.00
01593               2.20     4400.00
01594               1.80     4400.00
01595               2.20     4600.00
01596               2.60     4600.00
01597               2.20     4800.00
01598               2.00     4600.00
01599               2.60     4600.00
01600               2.60     4600.00
01601               1.40     4800.00
01602               2.60     4800.00
01603               3.60     4800.00
01604               2.00     4800.00
01605               2.20     4800.00
01606               3.60     4800.00
01607               2.60     4800.00
01608               2.00     4800.00
01609               3.60     5000.00
01610               2.40     4800.00
01611               2.80     4800.00
01612               3.40     5000.00
01613               2.60     5000.00
01614               3.60     5200.00
01615               1.80     5000.00
01616               2.60     5000.00
01617               4.20     5200.00
01618               2.60     5000.00
01619               2.20     5200.00
01620               4.40     5000.00
01621               3.00     5200.00
01622               1.80     5200.00
01623               3.80     5200.00
01624               3.80     5200.00
01625               2.20     5400.00
01626               3.60     5200.00
01627               4.00     5200.00
01628               2.80     5400.00
01629               3.00     5400.00
01630               3.80     5400.00
01631               3.40     5600.00
01632               3.40     5400.00
01633               3.60     5600.00
01634               4.20     5400.00
01635               3.60     5600.00
01636               3.60     5600.00
01637               4.00     5600.00
01638               4.00     5400.00
01639               3.40     5600.00
01640               4.20     5600.00
01641               4.60     5600.00
01642               3.40     5600.00
01643               4.20     5600.00
01644               5.20     5600.00
01645               3.80     5600.00
01646               4.20     5600.00
01647               5.20     5600.00
01648               4.60     5800.00
01649               3.80     5600.00
01650               5.20     6000.00
01651               5.20     5800.00
01652               4.60     5800.00
01653               5.00     5800.00
01654               5.20     5600.00
01655               5.40     6000.00
01656               5.20     6000.00
01657               5.00     6000.00
01658               5.80     5800.00
01659               5.40     5800.00
01660               4.60     6000.00
01661               6.00     6000.00
01662               5.80     6000.00
01663               5.20     6000.00
01664               6.00     6000.00
01665               6.20     6000.00
01666               5.80     6000.00
01667               5.80     6000.00
01668               6.60     6000.00
01669               6.60     6000.00
01670               5.80     6000.00
01671               6.60     6000.00
01672               7.40     6200.00
01673               6.00     6200.00
01674               6.60     6000.00
01675               7.40     6200.00
01676               6.80     6000.00
01677               6.80     6200.00
01678               7.60     6200.00
01679               7.40     6000.00
01680               6.60     6200.00
01681               7.40     6000.00
01682               7.80     6000.00
01683               7.00     6200.00
01684               7.80     6000.00
01685               8.20     6000.00
01686               7.80     6200.00
01687               7.60     6200.00
01688               8.40     6200.00
01689               8.60     6200.00
01690               7.80     6200.00
01691               8.40     6200.00
01692               9.20     6200.00
01693               8.20     6200.00
01694               8.80     6200.00
01695               9.40     6200.00
01696               9.00     6200.00
01697               9.00     6200.00
01698               9.20     6200.00
01699              10.00     6200.00
01700               9.40     6200.00
01701               9.40     6200.00
01702              10.60     6400.00
01703               9.80     6200.00
01704               9.80     6200.00
01705              10.60     6200.00
01706              10.60     6200.00
01707              10.20     6200.00
01708              10.20     6400.00
01709              11.00     6200.00
01710              10.80     6200.00
01711              10.80     6400.00
01712              11.80     6200.00
01713              11.40     6200.00
01714              11.00     6200.00
01715              11.60     6400.00
01716              11.40     6200.00
01717              11.60     6200.00
01718              11.60     6200.00
01719              11.60     6200.00
01720              11.80     6200.00
01721              11.80     6200.00
01722              11.80     6400.00
01723              11.20     6200.00
01724              10.60     6400.00
01725              11.40     6200.00
01726              10.80     6200.00
01727              10.60     6200.00
01728              11.00     6200.00
01729              10.60     6200.00
01730              10.00     6200.00
01731               9.80     6200.00
01732              10.00     6200.00
01733               9.40     6200.00
01734               9.20     6200.00
01735               9.80     6200.00
01736               9.40     6200.00
01737               8.60     6000.00
01738               8.40     6200.00
01739               8.40     6200.00
01740               8.60     6200.00
01741               8.60     6200.00
01742               8.20     6200.00
01743               8.20     6200.00
01744               7.60     6200.00
01745               8.20     6200.00
01746               8.00     6400.00
01747               7.20     6000.00
01748               7.40     6200.00
01749               7.40     6200.00
01750               7.20     6200.00
01751               7.00     6000.00
01752               6.80     6000.00
01753               6.80     6200.00
01754               6.60     6000.00
01755               6.60     6000.00
01756               6.60     6000.00
01757               6.60     6000.00
01758               6.20     6000.00
01759               6.40     6000.00
01760               6.60     6000.00
01761               5.80     6000.00
01762               6.00     6000.00
01763               5.80     6000.00
01764               5.80     6000.00
01765               5.80     6000.00
01766               5.80     6000.00
01767               5.80     6000.00
01768               5.40     6000.00
01769               5.40     6000.00
01770               5.20     6000.00
01771               5.00     6000.00
01772               5.20     6000.00
01773               5.20     6000.00
01774               5.20     6000.00
01775               5.20     6000.00
01776               5.20     6000.00
01777               5.00     6000.00
01778               5.00     5800.00
01779               4.80     5800.00
01780               5.00     5800.00
01781               4.60     5800.00
01782               4.60     5800.00
01783               4.60     5600.00
01784               4.40     5600.00
01785               4.40     5600.00
01786               4.40     5800.00
01787               4.20     5600.00
01788               4.40     5600.00
01789               4.40     5600.00
01790               4.20     5600.00
01791               4.40     5600.00
01792               4.20     5600.00
01793               4.20     5600.00
01794               3.80     5600.00
01795               4.20     5600.00
01796               4.20     5600.00
01797               3.40     5400.00
01798               3.80     5400.00
01799               4.20     5600.00
01800               3.20     5400.00
01801               3.40     5600.00
01802               4.20     5400.00
01803               3.00     5400.00
01804               2.80     5400.00
01805               4.20     5400.00
01806               3.40     5200.00
01807               2.80     5400.00
01808               3.80     5200.00
01809               3.60     5200.00
01810               2.80     5400.00
01811               3.40     5200.00
01812               3.40     5200.00
01813               2.60     5000.00
01814               2.80     5200.00
01815               3.20     5200.00
01816               2.80     5000.00
01817               2.60     5200.00
01818               3.00     5000.00
01819               2.80     5000.00
01820               2.60     4800.00
01821               2.60     5000.00
01822               2.80     5000.00
01823               2.60     5000.00
01824               2.60     4800.00
01825               2.80     4800.00
01826               2.60     4800.00
01827               2.00     4800.00
01828               2.60     4800.00
01829               2.00     4800.00
01830               2.20     4600.00
01831               2.20     4800.00
01832               2.40     4800.00
01833               2.60     4800.00
01834               1.80     4600.00
01835               2.60     4600.00
01836               1.80     4600.00
01837               2.00     4600.00
01838               2.20     4600.00
01839               2.00     4600.00
01840               2.20     4600.00
01841               2.00     4600.00
01842               2.00     4400.00
01843               2.00     4400.00
01844               2.00     4400.00
01845               1.40     4400.00
01846               2.20     4400.00
01847               2.00     4400.00
01848               1.00     4400.00
01849               2.20     4400.00
01850               2.20     4400.00
01851               1.20     4200.00
01852               1.80     4200.00
01853               2.40     4200.00
01854               1.40     4200.00
01855               1.40     4200.00
01856               2.40     4000.00
01857               1.60     4000.00
01858               1.20     4000.00
01859               2.00     4000.00
01860               2.00     4000.00
01861               0.60     4000.00
01862               1.40     3800.00
01863               2.20     3800.00
01864               1.00     3800.00
01865               1.00     3800.00
01866               2.00     3800.00
01867               1.40     3800.00
01868               1.20     3800.00
01869               1.60     3600.00
01870               1.40     3600.00
01871               1.20     3600.00
01872               1.80     3600.00
01873               1.00     3600.00
01874               1.00     3600.00
01875               1.80     3600.00
01876               1.00     3600.00
01877               1.00     3400.00
01878               1.40     3600.00
01879               1.20     3400.00
01880               0.60     3600.00
01881               1.00     3400.00
01882               1.40     3200.00
01883               1.20     3200.00
01884               0.40     3200.00
01885               0.60     3200.00
01886               1.20     3200.00
01887               0.60     3200.00
01888               0.20     3200.00
01889               1.20     3000.00
01890               1.40     3200.00
01891               0.20     3000.00
01892               0.40     3000.00
01893               0.60     2800.00
01894               0.60     3000.00
01895               0.20     3000.00
01896               1.00     2800.00
01897               1.20     2800.00
01898               0.40     2800.00
01899               0.60     2800.00
01900               0.40     2600.00
01901               0.20     2800.00
01902               0.40     2800.00
01903               1.00     2600.00
01904               0.60     2600.00
01905               0.40     2600.00
01906               1.00     2600.00
01907               0.60     2400.00
01908               0.20     2400.00
01909              -0.20     2400.00
01910               0.60     2200.00
01911               1.00     2400.00
01912               0.20     2200.00
01913               0.60     2200.00
01914               1.20     2200.00
01915               0.20     2000.00
01916              -0.20     2000.00
01917               0.60     2200.00
01918               0.60     2000.00
01919               0.20     2000.00
01920               0.60     2000.00
01921               0.40     2000.00
01922               0.20     2000.00
01923               0.20     1800.00
01924               0.40     2000.00
01925               0.60     2000.00
01926               0.20     1800.00
01927               0.40     1800.00
01928               0.40     1800.00
01929               0.20     1600.00
01930               0.00     1600.00
01931               0.40     1800.00
01932               0.60     1600.00
01933               0.20     1600.00
01934               0.20     1400.00
01935               0.20     1600.00
01936               0.20     1400.00
01937               0.20     1400.00
01938               0.20     1400.00
01939               0.20     1200.00
01940              -0.20     1200.00
01941              -0.20     1200.00
01942               0.00     1200.00
01943              -0.20     1200.00
01944               0.00     1200.00
01945              -0.20     1200.00
01946              -0.20     1000.00
01947              -0.20     1000.00
01948              -0.20      800.00
01949              -0.40      800.00
01950               0.20      800.00
01951              -0.20      800.00
01952               0.20      800.00
01953              -0.20      800.00
01954              -0.40      600.00
01955              -0.40      600.00
01956              -0.40      800.00
01957              -0.40      600.00
01958              -0.20      600.00
01959              -0.20      600.00
01960              -0.20      600.00
01961              -0.20      600.00
01962              -0.40      400.00
01963              -0.60      400.00
01964              -0.40      400.00
01965              -0.40      400.00
01966              -0.60      400.00
01967              -0.60      200.00
01968              -0.20      200.00
01969              -0.20      200.00
01970              -0.20        0.00
01971              -0.40        0.00
01972              -0.40        0.00
01973              -0.40      200.00
01974              -0.20        0.00
01975              -0.40        0.00
01976              -0.20     -200.00
01977              -0.20        0.00
01978              -0.40     -200.00
01979               0.20     -200.00
01980              -0.60     -200.00
01981              -0.80     -200.00
01982               2.20     -400.00
01983              18.80     -400.00
01984              -2.20     -400.00
01985             -25.00     -400.00
01986             -15.60     -400.00
01987              25.00     -800.00
01988              21.80     -600.00
01989             -25.00     -600.00
01990              11.60     -600.00
01991              25.00     -600.00
01992             -25.00     -800.00
01993             -25.00     -400.00
01994              25.00    -1000.00
01995              25.00     -800.00
01996             -25.00     -800.00
01997             -25.00     -800.00
01998              25.00    -1000.00
01999               3.20    -1000.00
02000             -25.00     -800.00
02001              25.00    -1200.00
02002              25.00    -1000.00
02003             -25.00    -1000.00
02004              25.00    -1400.00
02005              25.00    -1200.00
02006             -25.00    -1200.00
02007             -25.00    -1200.00
02008              25.00    -1600.00
02009              25.00    -1200.00
02010             -25.00    -1400.00
02011             -11.20    -1600.00
02012              25.00    -1600.00
02013             -25.00    -1400.00
02014             -25.00    -1600.00
02015              25.00    -1800.00
02016              25.00    -1600.00
02017             -25.00    -1800.00
02018              25.00    -1800.00
02019              25.00    -1800.00
02020             -25.00    -1800.00
02021               2.80    -1800.00
02022              25.00    -2000.00
02023             -25.00    -1800.00
02024             -25.00    -2000.00
02025              25.00    -2000.00
02026               5.80    -2000.00
02027             -25.00    -2000.00
02028              11.80    -2000.00
02029              25.00    -2200.00
02030             -25.00    -2000.00
02031              -9.40    -2000.00
02032              25.00    -2400.00
02033             -10.60    -2400.00
02034             -18.60    -2400.00
02035              15.00    -2400.00
02036               5.80    -2400.00
02037             -17.80    -2400.00
02038              -0.60    -2400.00
02039              15.00    -2600.00
02040             -11.60    -2400.00
02041             -11.00    -2600.00
02042              14.60    -2600.00
02043              -2.20    -2600.00
02044             -14.00    -2600.00
02045               5.20    -2800.00
02046               6.40    -2800.00
02047             -11.40    -2800.00
02048              -3.60    -2800.00
02049              10.20    -2800.00
02050              -6.20    -2800.00
02051              -8.40    -2800.00
02052               6.80    -2800.00
02053               0.20    -3000.00
02054              -9.00    -3000.00
02055              -0.20    -3000.00
02056               4.40    -3000.00
02057              -5.60    -3200.00
02058              -4.60    -3200.00
02059               4.20    -3200.00
02060              -1.80    -3200.00
02061              -6.20    -3200.00
02062               0.80    -3200.00
02063               1.00    -3400.00
02064              -4.40    -3400.00
02065              -2.80    -3400.00
02066               1.80    -3400.00
02067              -2.00    -3400.00
02068              -4.60    -3400.00
02069              -0.20    -3400.00
02070               0.20    -3600.00
02071              -3.80    -3600.00
02072              -2.60    -3600.00
02073               0.20    -3600.00
02074              -2.00    -3600.00
02075              -3.60    -3600.00
02076              -1.40    -3600.00
02077              -1.20    -3600.00
02078              -2.00    -3800.00
02079              -2.60    -3800.00
02080              -1.80    -4000.00
02081              -1.80    -4000.00
02082              -2.60    -4000.00
02083              -2.20    -4000.00
02084              -1.20    -4000.00
02085              -2.20    -4000.00
02086              -2.60    -4000.00
02087              -1.80    -4000.00
02088              -1.80    -4200.00
02089              -2.80    -4200.00
02090              -2.60    -4200.00
02091              -1.80    -4200.00
02092              -2.20    -4200.00
02093              -2.80    -4200.00
02094              -1.80    -4400.00
02095              -2.20    -4200.00
02096              -2.80    -4200.00
02097              -2.00    -4400.00
02098              -2.80    -4400.00
02099              -2.40    -4400.00
02100              -2.00    -4400.00
02101              -2.60    -4400.00
02102              -2.20    -4400.00
02103              -2.00    -4400.00
02104              -3.00    -4600.00
02105              -3.00    -4400.00
02106              -2.00    -4600.00
02107              -2.80    -4600.00
02108              -3.40    -4600.00
02109              -2.20    -4400.00
02110              -2.20    -4600.00
02111              -3.00    -4600.00
02112              -2.80    -4600.00
02113              -2.20    -4800.00
02114              -3.20    -4600.00
02115              -3.00    -4800.00
02116              -1.80    -4800.00
02117              -3.20    -4800.00
02118              -3.60    -5000.00
02119              -2.20    -4600.00
02120              -2.60    -5000.00
02121              -3.80    -5000.00
02122              -3.00    -5000.00
02123              -2.40    -5000.00
02124              -3.60    -5000.00
02125              -3.20    -5000.00
02126              -2.60    -5000.00
02127              -3.00    -5000.00
02128              -3.60    -5000.00
02129              -3.00    -5200.00
02130              -2.80    -5200.00
02131              -3.60    -5200.00
02132              -3.60    -5200.00
02133              -3.00    -5200.00
02134              -3.20    -5200.00
02135              -4.40    -5400.00
02136              -3.60    -5200.00
02137              -3.20    -5200.00
02138              -4.40    -5400.00
02139              -3.60    -5400.00
02140              -3.00    -5200.00
02141              -4.60    -5400.00
02142              -4.20    -5400.00
02143              -3.60    -5400.00
02144              -3.80    -5400.00
02145              -4.40    -5600.00
02146              -3.80    -5400.00
02147              -4.00    -5600.00
02148              -4.40    -5600.00
02149              -4.60    -5600.00
02150              -4.40    -5600.00
02151              -4.40    -5600.00
02152              -4.60    -5600.00
02153              -4.20    -5800.00
02154              -4.40    -5600.00
02155              -5.20    -5800.00
02156              -4.60    -5800.00
02157              -4.40    -5600.00
02158              -5.00    -5800.00
02159              -5.20    -5800.00
02160              -4.60    -5800.00
02161              -5.00    -5800.00
02162              -5.60    -5800.00
02163              -5.00    -5800.00
02164              -5.00    -5600.00
02165              -5.40    -5800.00
02166              -5.40    -6000.00
02167              -5.40    -5800.00
02168              -5.80    -6000.00
02169              -5.20    -5800.00
02170              -5.20    -6000.00
02171              -6.00    -6000.00
02172              -5.40    -6000.00
02173              -5.80    -5800.00
02174              -6.00    -5800.00
02175              -5.80    -6000.00
02176              -5.80    -6000.00
02177              -6.40    -6000.00
02178              -6.20    -6000.00
02179              -6.00    -6000.00
02180              -6.60    -6000.00
02181              -6.20    -6000.00
02182              -6.60    -6000.00
02183              -6.80    -6000.00
02184              -6.20    -6000.00
02185              -6.80    -6000.00
02186              -7.20    -6000.00
02187              -6.80    -5800.00
02188              -7.00    -6000.00
02189              -7.60    -6000.00
02190              -6.80    -6000.00
02191              -7.00    -6000.00
02192              -8.20    -6200.00
02193              -7.60    -6000.00
02194              -7.00    -6000.00
02195              -8.20    -6000.00
02196              -8.40    -6200.00
02197              -7.60    -6000.00
02198              -8.40    -6000.00
02199              -8.60    -6200.00
02200              -8.20    -6200.00
02201              -9.20    -6400.00
02202              -8.60    -6200.00
02203              -8.40    -6200.00
02204              -9.40    -6200.00
02205              -9.20    -6200.00
02206              -9.20    -6200.00
02207              -9.60    -6000.00
02208              -9.40    -6200.00
02209              -9.20    -6200.00
02210              -9.80    -6200.00
02211             -10.00    -6200.00
02212             -10.00    -6400.00
02213             -10.20    -6200.00
02214             -11.00    -6400.00
02215             -10.20    -6200.00
02216             -10.20    -6400.00
02217             -10.80    -6400.00
02218             -10.80    -6200.00
02219             -10.20    -6400.00
02220             -10.80    -6400.00
02221             -11.80    -6200.00
02222             -11.00    -6400.00
02223             -11.20    -6400.00
02224             -11.60    -6400.00
02225             -11.80    -6400.00
02226             -11.80    -6400.00
02227             -11.60    -6400.00
02228             -11.40    -6400.00
02229             -12.20    -6200.00
02230             -11.80    -6200.00
02231             -11.40    -6400.00
02232             -12.20    -6200.00
02233             -11.80    -6400.00
02234             -11.00    -6400.00
02235             -10.80    -6400.00
02236             -11.80    -6400.00
02237             -10.60    -6200.00
02238             -10.20    -6200.00
02239             -11.40    -6200.00
02240             -10.00    -6200.00
02241              -9.80    -6400.00
02242             -10.60    -6400.00
02243              -9.80    -6200.00
02244              -9.20    -6200.00
02245              -9.80    -6000.00
02246              -9.40    -6400.00
02247              -9.00    -6200.00
02248              -9.00    -6200.00
02249              -9.00    -6200.00
02250              -8.40    -6200.00
02251              -8.60    -6200.00
02252              -8.40    -6200.00
02253              -8.00    -6200.00
02254              -8.20    -6200.00
02255              -7.80    -6000.00
02256              -7.60    -6200.00
02257              -7.80    -6200.00
02258              -7.80    -6200.00
02259              -7.40    -6000.00
02260              -7.40    -6000.00
02261              -7.40    -6000.00
02262              -7.00    -6000.00
02263              -7.00    -6000.00
02264              -7.00    -6200.00
02265              -7.00    -6000.00
02266              -6.60    -6000.00
02267              -6.80    -6000.00
02268              -7.00    -6000.00
02269              -6.20    -6000.00
02270              -6.00    -6000.00
02271              -7.00    -6000.00
02272              -6.80    -6000.00
02273              -6.00    -6000.00
02274              -6.60    -6000.00
02275              -6.40    -6000.00
02276              -5.80    -5800.00
02277              -5.80    -6000.00
02278              -6.40    -6000.00
02279              -6.20    -5800.00
02280              -5.20    -6000.00
02281              -6.20    -5800.00
02282              -6.20    -6000.00
02283              -5.00    -6000.00
02284              -5.20    -5800.00
02285              -6.20    -6000.00
02286              -5.00    -6000.00
02287              -4.80    -5800.00
02288              -5.60    -5800.00
02289              -5.60    -6000.00
02290              -5.80    -5800.00
02291              -4.60    -5800.00
02292              -5.20    -5800.00
02293              -5.40    -5800.00
02294              -3.80    -5800.00
02295              -4.60    -5800.00
02296              -5.80    -5800.00
02297              -4.80    -5800.00
02298              -4.20    -5800.00
02299              -4.20    -5600.00
02300              -4.40    -5800.00
02301              -4.60    -5600.00
02302              -4.40    -5600.00
02303              -4.60    -5600.00
02304              -4.40    -5600.00
02305              -3.80    -5600.00
02306              -4.20    -5600.00
02307              -4.60    -5600.00
02308              -3.40    -5400.00
02309              -3.80    -5400.00
02310              -4.80    -5600.00
02311              -4.40    -5600.00
02312              -3.40    -5400.00
02313              -3.40    -5200.00
02314              -3.60    -5600.00
02315              -3.40    -5200.00
02316              -3.60    -5400.00
02317              -5.00    -5600.00
02318              -4.40    -5200.00
02319              -1.60    -5400.00
02320              -2.80    -5200.00
02321              -5.40    -5200.00
02322              -3.40    -5200.00
02323              -1.80    -5000.00
02324              -3.80    -5200.00
02325              -4.40    -5000.00
02326              -2.20    -5200.00
02327              -3.00    -5000.00
02328              -3.80    -5000.00
02329              -2.80    -5000.00
02330              -3.00    -5000.00
02331              -3.40    -5200.00
02332              -3.00    -5000.00
02333              -2.60    -4600.00
02334              -3.60    -5000.00
02335              -4.40    -5000.00
02336              -3.00    -5000.00
02337              -2.20    -4800.00
02338              -2.60    -4600.00
02339              -3.00    -4800.00
02340              -3.80    -4800.00
02341              -3.60    -4800.00
02342              -2.60    -4800.00
02343              -2.60    -4600.00
02344              -2.60    -4600.00
02345              -2.40    -4600.00
02346              -2.80    -4600.00
02347              -3.00    -4600.00
02348              -3.20    -4600.00
02349              -3.00    -4400.00
02350              -3.40    -4600.00
02351              -2.20    -4400.00
02352              -1.00    -4400.00
02353              -3.00    -4400.00
02354              -3.60    -4400.00
02355              -2.20    -4600.00
02356              -3.00    -4400.00
02357              -2.80    -4400.00
02358              -1.60    -4200.00
02359              -2.20    -4200.00
02360              -2.80    -4200.00
02361              -2.00    -4200.00
02362              -2.20    -4200.00
02363              -2.60    -4400.00
02364              -2.00    -4200.00
02365              -2.20    -4200.00
02366              -2.20    -4000.00
02367              -2.00    -4200.00
02368              -2.40    -4000.00
02369              -2.80    -4000.00
02370              -1.80    -4000.00
02371              -1.80    -4000.00
02372              -2.80    -4000.00
02373              -1.80    -4000.00
02374              -1.40    -4000.00
02375              -2.60    -3800.00
02376              -1.80    -3800.00
02377              -1.40    -3600.00
02378              -2.20    -3800.00
02379              -2.60    -4000.00
02380              -1.80    -3600.00
02381              -1.40    -3600.00
02382              -2.00    -3600.00
02383              -1.80    -3600.00
02384              -1.40    -3600.00
02385              -2.20    -3600.00
02386              -2.20    -3600.00
02387              -1.20    -3400.00
02388              -1.20    -3400.00
02389              -1.80    -3400.00
02390              -2.20    -3400.00
02391              -1.40    -3400.00
02392              -1.60    -3400.00
02393              -2.20    -3200.00
02394              -1.20    -3400.00
02395              -1.20    -3200.00
02396              -2.20    -3200.00
02397              -1.20    -3200.00
02398              -1.20    -3200.00
02399              -2.20    -3200.00
02400              -1.80    -3000.00
02401              -1.20    -3200.00
02402              -1.80    -3000.00
02403              -1.40    -3000.00
02404              -1.80    -2800.00
02405              -1.80    -2800.00
02406              -1.40    -2800.00
02407              -1.40    -2800.00
02408              -1.20    -2800.00
02409              -1.40    -2800.00
02410              -2.20    -2800.00
02411              -1.20    -2800.00
02412              -1.00    -2600.00
02413              -1.80    -2800.00
02414              -1.60    -2800.00
02415              -1.20    -2600.00
02416              -1.40    -2600.00
02417              -1.80    -2400.00
02418              -1.20    -2400.00
02419              -1.20    -2400.00
02420              -1.20    -2400.00
02421              -1.60    -2400.00
02422              -1.00    -2200.00
02423              -1.60    -2400.00
02424              -1.40    -2000.00
02425              -0.60    -2000.00
02426              -1.80    -2200.00
02427              -1.20    -2000.00
02428              -0.40    -2000.00
02429              -2.00    -2000.00
02430              -1.00    -2000.00
02431              -0.40    -2000.00
02432              -1.40    -2000.00
02433              -1.20    -1800.00
02434              -0.60    -2000.00
02435              -1.20    -1800.00
02436              -1.00    -1800.00
02437              -0.60    -1800.00
02438              -1.20    -1800.00
02439              -0.60    -1800.00
02440              -0.60    -1800.00
02441              -1.00    -1600.00
02442              -1.20    -1600.00
02443              -0.60    -1600.00
02444              -1.00    -1600.00
02445              -0.60    -1600.00
02446              -1.00    -1400.00
02447              -0.80    -1200.00
02448              -1.00    -1400.00
02449              -0.60    -1600.00
02450              -0.60    -1400.00
02451              -1.00    -1200.00
02452              -0.60    -1200.00
02453              -0.40    -1000.00
02454              -1.00    -1000.00
02455              -0.60    -1000.00
02456              -0.60    -1000.00
02457              -1.00    -1000.00
02458              -1.20    -1000.00
02459              -1.00     -800.00
02460              -0.60    -1000.00
02461              -0.60     -800.00
02462              -0.40     -800.00
02463              -0.60     -800.00
02464              -0.60     -800.00
02465              -0.60     -800.00
02466              -0.60     -800.00
02467              -1.00     -800.00
02468              -0.60     -800.00
02469              -0.60     -600.00
02470              -0.60     -400.00
02471              -1.20     -400.00
02472              -0.80     -400.00
02473              -0.20     -400.00
02474              -0.60     -400.00
02475              -0.60     -400.00
02476              -0.60     -400.00
02477              -0.40     -400.00
02478              -0.80     -400.00
02479              -0.60     -200.00
02480              -0.80     -200.00
02481              -0.60     -200.00
02482              -0.40        0.00
02483              -0.60        0.00
02484              -0.60        0.00
02485              -0.20        0.00
02486              -0.40        0.00
02487              -0.40        0.00
02488               0.20      200.00
02489               0.40        0.00
02490              -1.00      400.00
02491              -0.20      200.00
02492               0.40      200.00
02493               1.00      400.00
02494               8.80      400.00
02495               8.40      400.00
02496             -23.40      400.00
02497             -25.00      400.00
02498              25.00      600.00
02499              25.00      600.00
02500             -25.00      400.00
02501             -25.00      800.00
02502              25.00      600.00
02503              25.00      800.00
02504             -25.00      800.00
02505               0.40      600.00
02506              25.00      800.00
02507             -25.00      800.00
02508             -25.00     1200.00
02509              25.00      800.00
02510              25.00     1000.00
02511             -25.00     1200.00
02512              25.00     1200.00
02513              25.00     1200.00
02514             -25.00     1200.00
02515             -25.00     1400.00
02516              25.00     1200.00
02517              12.60     1400.00
02518             -25.00     1400.00
02519              20.40     1200.00
02520              25.00     1400.00
02521             -25.00     1800.00
02522             -25.00     1600.00
02523              25.00     1400.00
02524              22.60     1800.00
02525             -25.00     1600.00
02526              23.60     1600.00
02527              25.00     1800.00
02528             -25.00     1600.00
02529             -16.60     1800.00
02530              25.00     1800.00
02531             -24.40     1800.00
02532             -25.00     2000.00
02533              25.00     1800.00
02534              13.20     2000.00
02535             -25.00     2000.00
02536              16.20     2000.00
02537              25.00     2000.00
02538             -25.00     2200.00
02539              -9.20     2200.00
02540              25.00     2000.00
02541              -7.00     2200.00
02542             -18.80     2200.00
02543              16.60     2200.00
02544               8.40     2200.00
02545             -17.80     2400.00
02546               3.40     2200.00
02547              15.20     2400.00
02548              -8.40     2400.00
02549              -8.60     2400.00
02550              12.20     2400.00
02551               3.20     2600.00
02552             -12.20     2800.00
02553               4.60     2600.00
02554              10.00     2800.00
02555              -7.60     2600.00
02556              -3.00     2600.00
02557              10.20     2800.00
02558              -0.60     2800.00
02559              -7.00     2800.00
02560               6.80     2800.00
02561               4.40     2800.00
02562              -6.00     3000.00
02563               1.00     3000.00
02564               6.80     3000.00
02565              -2.20     3000.00
02566              -3.00     3000.00
02567               5.60     3000.00
02568               2.00     3000.00
02569              -3.00     3200.00
02570               2.00     3200.00
02571               4.40     3200.00
02572              -1.20     3000.00
02573              -0.60     3200.00
02574               4.60     3200.00
02575               1.00     3200.00
02576              -2.00     3400.00
02577               2.60     3400.00
02578               3.40     3600.00
02579              -1.20     3600.00
02580               0.40     3400.00
02581               3.60     3600.00
02582               0.60     3600.00
02583              -0.60     3600.00
02584               2.60     3800.00
02585               2.60     3600.00
02586              -0.60     3600.00
02587               1.00     3800.00
02588               3.40     3600.00
02589               1.00     3800.00
02590               0.40     3800.00
02591               2.40     3800.00
02592               2.20     4000.00
02593               0.60     3800.00
02594               1.20     3800.00
02595               2.00     3800.00
02596               1.40     4000.00
02597               1.20     4000.00
02598               1.80     4000.00
02599               2.00     4000.00
02600               1.40     4200.00
02601               1.40     4200.00
02602               2.60     4000.00
02603               2.00     4200.00
02604               1.00     4400.00
02605               2.00     4000.00
02606               2.20     4400.00
02607               1.40     4200.00
02608               2.00     4200.00
02609               2.00     4400.00
02610               2.00     4400.00
02611               2.00     4400.00
02612               1.80     4400.00
02613               2.20     4400.00
02614               1.80     4600.00
02615               2.20     4600.00
02616               2.20     4400.00
02617               2.00     4600.00
02618               2.20     4600.00
02619               1.20     4800.00
02620               2.80     4800.00
02621               3.40     4600.00
02622               1.40     4800.00
02623               2.20     4800.00
02624               3.80     4800.00
02625               1.80     4800.00
02626               1.20     4800.00
02627               3.60     4800.00
02628               2.60     4800.00
02629               1.20     4800.00
02630               3.60     4800.00
02631               3.40     4800.00
02632               2.00     5000.00
02633               3.00     5000.00
02634               3.40     5200.00
02635               2.80     5200.00
02636               2.60     4800.00
02637               3.20     5000.00
02638               2.80     5200.00
02639               3.00     5200.00
02640               3.40     5000.00
02641               3.20     5200.00
02642               2.80     5200.00
02643               3.40     5200.00
02644               3.40     5200.00
02645               3.60     5400.00
02646               2.60     5400.00
02647               4.00     5400.00
02648               4.20     5400.00
02649               3.00     5400.00
02650               3.60     5400.00
02651               4.20     5400.00
02652               3.60     5400.00
02653               3.40     5400.00
02654               3.80     5400.00
02655               4.40     5400.00
02656               3.60     5600.00
02657               3.60     5600.00
02658               4.40     5400.00
02659               3.80     5600.00
02660               3.60     5600.00
02661               3.80     5400.00
02662               4.40     5600.00
02663               4.00     5600.00
02664               3.80     5600.00
02665               5.00     5600.00
02666               4.60     5600.00
02667               4.20     5600.00
02668               4.40     5600.00
02669               4.40     5800.00
02670               4.00     5600.00
02671               5.00     5600.00
02672               4.60     5800.00
02673               4.60     5800.00
02674               4.40     5800.00
02675               5.20     6000.00
02676               5.00     6000.00
02677               5.00     6000.00
02678               5.20     5800.00
02679               5.20     6000.00
02680               5.20     6000.00
02681               5.20     6000.00
02682               5.40     6000.00
02683               5.40     6000.00
02684               5.40     6000.00
02685               5.40     6000.00
02686               5.80     6000.00
02687               5.80     6000.00
02688               5.80     6000.00
02689               5.80     6000.00
02690               6.20     6000.00
02691               6.20     6000.00
02692               6.40     6200.00
02693               6.20     6000.00
02694               6.60     6000.00
02695               6.80     6200.00
02696               6.60     6000.00
02697               7.40     6200.00
02698               7.00     6000.00
02699               6.80     6000.00
02700               7.40     6200.00
02701               7.60     6000.00
02702               7.00     6200.00
02703               7.40     6200.00
02704               7.80     6200.00
02705               7.60     6200.00
02706               7.80     6200.00
02707               8.20     6200.00
02708               8.20     6000.00
02709               8.20     6200.00
02710               8.40     6200.00
02711               9.00     6200.00
02712               8.20     6200.00
02713               8.60     6200.00
02714               9.00     6200.00
02715               8.60     6200.00
02716               8.60     6200.00
02717               9.80     6200.00
02718               9.20     6200.00
02719               9.00     6400.00
02720              10.00     6200.00
02721               9.80     6200.00
02722               9.20     6200.00
02723              10.00     6200.00
02724              10.40     6200.00
02725               9.80     6200.00
02726              10.00     6200.00
02727              10.80     6200.00
02728              10.20     6200.00
02729              10.60     6200.00
02730              11.20     6200.00
02731              10.20     6200.00
02732              10.80     6200.00
02733              11.40     6200.00
02734              11.00     6400.00
02735              10.80     6200.00
02736              11.40     6400.00
02737              11.60     6200.00
02738              11.20     6200.00
02739              11.40     6400.00
02740              11.80     6400.00
02741              11.60     6200.00
02742              11.40     6400.00
02743              11.60     6200.00
02744              11.40     6200.00
02745              11.00     6200.00
02746              10.80     6400.00
02747              11.00     6200.00
02748              10.60     6200.00
02749              10.20     6200.00
02750              10.40     6400.00
02751              10.20     6400.00
02752               9.80     6200.00
02753               9.80     6400.00
02754               9.80     6200.00
02755               9.40     6000.00
02756               9.20     6200.00
02757               9.20     6400.00
02758               8.80     6200.00
02759               8.40     6200.00
02760               9.00     6200.00
02761               8.60     6200.00
02762               7.80     6200.00
02763               8.40     6200.00
02764               8.40     6200.00
02765               7.60     6200.00
02766               8.20     6200.00
02767               7.80     6200.00
02768               7.40     6200.00
02769               7.40     6400.00
02770               7.40     6200.00
02771               7.60     6000.00
02772               7.80     6200.00
02773               6.80     6200.00
02774               6.80     6000.00
02775               7.80     6200.00
02776               6.60     6000.00
02777               5.80     6000.00
02778               6.80     6000.00
02779               7.00     6200.00
02780               6.00     6000.00
02781               6.60     6000.00
02782               6.80     6000.00
02783               5.80     6000.00
02784               5.60     6000.00
02785               6.20     6000.00
02786               6.20     6000.00
02787               6.00     6000.00
02788               5.80     6000.00
02789               6.20     6000.00
02790               5.80     6000.00
02791               4.60     6000.00
02792               5.00     6000.00
02793               5.80     5800.00
02794               5.80     6000.00
02795               4.60     5800.00
02796               5.00     6000.00
02797               5.80     5800.00
02798               5.00     5800.00
02799               4.60     6000.00
02800               5.00     5800.00
02801               4.60     5800.00
02802               4.20     5800.00
02803               5.00     5800.00
02804               4.40     5600.00
02805               4.00     5600.00
02806               4.80     5600.00
02807               4.20     5600.00
02808               3.80     5600.00
02809               4.40     5600.00
02810               4.40     5600.00
02811               4.00     5600.00
02812               3.80     5600.00
02813               3.60     5600.00
02814               3.80     5600.00
02815               3.60     5600.00
02816               3.80     5600.00
02817               4.20     5600.00
02818               4.40     5600.00
02819               3.60     5600.00
02820               3.40     5600.00
02821               3.80     5400.00
02822               3.40     5600.00
02823               3.60     5600.00
02824               4.20     5400.00
02825               3.40     5600.00
02826               3.40     5400.00
02827               3.60     5400.00
02828               3.40     5400.00
02829               2.60     5400.00
02830               3.40     5200.00
02831               4.20     5400.00
02832               3.00     5200.00
02833               3.00     5400.00
02834               3.40     5200.00
02835               3.60     5200.00
02836               2.60     5200.00
02837               3.00     5000.00
02838               3.40     5000.00
02839               2.20     5200.00
02840               2.80     4800.00
02841               3.40     5000.00
02842               2.60     5000.00
02843               2.60     4800.00
02844               2.80     5200.00
02845               3.00     4800.00
02846               3.00     4800.00
02847               2.80     4800.00
02848               2.60     4800.00
02849               2.80     4800.00
02850               2.60     4800.00
02851               2.00     4800.00
02852               2.60     4600.00
02853               2.60     4800.00
02854               2.00     4800.00
02855               2.20     4600.00
02856               2.20     4600.00
02857               2.20     4600.00
02858               2.20     4600.00
02859               1.80     4600.00
02860               2.20     4600.00
02861               2.60     4400.00
02862               1.60     4400.00
02863               1.40     4400.00
02864               2.60     4600.00
02865               2.00     4400.00
02866               1.20     4600.00
02867               2.60     4400.00
02868               2.00     4400.00
02869               1.20     4400.00
02870               1.80     4400.00
02871               2.00     4200.00
02872               1.60     4200.00
02873               1.40     4200.00
02874               1.80     4200.00
02875               1.80     4000.00
02876               1.20     4200.00
02877               1.40     4000.00
02878               2.00     4000.00
02879               1.40     4000.00
02880               1.40     4000.00
02881               2.00     4000.00
02882               1.80     4000.00
02883               1.40     3800.00
02884               1.40     4000.00
02885               1.40     3800.00
02886               1.20     3800.00
02887               1.20     3800.00
02888               1.40     3600.00
02889               1.60     3800.00
02890               1.20     3600.00
02891               1.20     3600.00
02892               1.80     3600.00
02893               1.20     3600.00
02894               1.00     3600.00
02895               1.20     3600.00
02896               1.20     3600.00
02897               1.40     3600.00
02898               1.00     3600.00
02899               1.20     3600.00
02900               1.40     3400.00
02901               1.00     3600.00
02902               1.20     3400.00
02903               1.20     3200.00
02904               1.00     3200.00
02905               1.00     3200.00
02906               1.00     3200.00
02907               1.00     3200.00
02908               1.00     3000.00
02909               1.00     3200.00
02910               1.00     3000.00
02911               1.00     3000.00
02912               0.80     3000.00
02913               1.00     3000.00
02914               0.60     3000.00
02915               0.60     3000.00
02916               1.00     3000.00
02917               0.80     2800.00
02918               0.60     2800.00
02919               0.60     2800.00
02920               0.40     2800.00
02921               0.60     2800.00
02922               0.40     2800.00
02923               0.80     2800.00
02924               0.40     2400.00
02925               0.60     2600.00
02926               0.40     2600.00
02927               0.60     2400.00
02928               0.40     2400.00
02929               0.40     2400.00
02930               0.40     2400.00
02931               0.20     2400.00
02932               0.40     2400.00
02933               0.40     2200.00
02934               0.20     2200.00
02935               0.40     2200.00
02936               0.40     2000.00
02937               0.00     2200.00
02938               0.40     2200.00
02939               0.60     2000.00
02940              -0.20     2000.00
02941               0.00     2000.00
02942               0.40     2000.00
02943              -0.20     2000.00
02944               0.00     1800.00
02945               0.40     2000.00
02946               0.20     2000.00
02947               0.20     2000.00
02948               0.40     1600.00
02949               0.40     1800.00
02950               0.40     1800.00
02951               0.20     1600.00
02952               0.20     1800.00
02953               0.20     1600.00
02954              -0.20     1600.00
02955               0.20     1400.00
02956               0.20     1400.00
02957               0.00     1800.00
02958               0.20     1400.00
02959               0.40     1400.00
02960               0.20     1400.00
02961               0.40     1200.00
02962               0.20     1200.00
02963              -0.20     1400.00
02964              -0.20     1200.00
02965               0.00     1200.00
02966               0.00     1200.00
02967              -0.40     1200.00
02968              -0.20     1200.00
02969               0.20     1000.00
02970               0.20      800.00
02971               0.20      800.00
02972               0.20      800.00
02973              -0.20      800.00
02974              -0.20      800.00
02975              -0.20      800.00
02976              -0.20      800.00
02977               0.00      600.00
02978              -0.40      800.00
02979              -0.20      600.00
02980              -0.20      600.00
02981              -0.40      400.00
02982              -0.40      400.00
02983               0.20      600.00
02984              -0.40      400.00
02985              -0.40      400.00
02986              -0.20      400.00
02987              -0.40      400.00
02988              -0.60      200.00
02989              -0.20      200.00
02990              -0.40        0.00
02991              -0.60      200.00
02992              -0.40        0.00
02993              -0.20        0.00
02994              -1.20        0.00
02995              -0.60        0.00
02996               0.40        0.00
02997              -0.60        0.00
02998              -0.60     -200.00
02999               0.40     -200.00
03000              -0.20     -200.00
03001              -1.40     -200.00
03002              -0.40     -200.00
03003               1.00     -400.00
03004              11.20     -400.00
03005              14.00     -400.00
03006             -25.00     -600.00
03007             -25.00     -400.00
03008              25.00     -400.00
03009              25.00     -400.00
03010             -25.00     -800.00
03011             -25.00     -400.00
03012              25.00     -800.00
03013              25.00     -800.00
03014             -25.00     -800.00
03015              18.00     -800.00
03016              25.00     -800.00
03017             -25.00    -1000.00
03018             -25.00     -800.00
03019              25.00    -1000.00
03020              25.00    -1000.00
03021             -25.00     -800.00
03022              25.00    -1200.00
03023              25.00    -1200.00
03024             -25.00    -1000.00
03025             -25.00    -1000.00
03026              25.00    -1200.00
03027               0.40    -1400.00
03028             -25.00    -1000.00
03029              25.00    -1600.00
03030              25.00    -1600.00
03031             -25.00    -1200.00
03032             -25.00    -1600.00
03033              25.00    -1600.00
03034              25.00    -1400.00
03035             -25.00    -1600.00
03036              25.00    -1800.00
03037              25.00    -1600.00
03038             -25.00    -1600.00
03039             -19.00    -1800.00
03040              25.00    -1600.00
03041             -25.00    -1800.00
03042             -25.00    -1800.00
03043              25.00    -1800.00
03044              -0.20    -1800.00
03045             -25.00    -2000.00
03046              22.00    -2000.00
03047              25.00    -2000.00
03048             -25.00    -2000.00
03049             -11.20    -2000.00
03050              25.00    -2200.00
03051             -11.40    -2000.00
03052             -25.00    -2400.00
03053              22.20    -2200.00
03054               6.60    -2200.00
03055             -24.60    -2400.00
03056               5.20    -2400.00
03057              14.60    -2400.00
03058             -13.00    -2400.00
03059             -10.80    -2400.00
03060              14.60    -2400.00
03061              -0.40    -2400.00
03062             -18.20    -2600.00
03063               8.60    -2600.00
03064               7.80    -2600.00
03065             -14.80    -2800.00
03066              -2.00    -2800.00
03067               9.80    -2800.00
03068              -6.20    -2800.00
03069             -10.00    -2800.00
03070               8.20    -3000.00
03071               1.00    -2800.00
03072             -11.80    -2800.00
03073               2.20    -2800.00
03074               4.80    -2800.00
03075              -8.20    -3000.00
03076              -4.60    -3000.00
03077               5.20    -3200.00
03078              -2.00    -3200.00
03079              -7.60    -3200.00
03080               2.00    -3200.00
03081               1.40    -3200.00
03082              -6.00    -3200.00
03083              -2.00    -3200.00
03084               1.80    -3400.00
03085              -2.80    -3400.00
03086              -4.40    -3600.00
03087               0.40    -3400.00
03088               0.20    -3400.00
03089              -2.80    -3400.00
03090              -3.00    -3400.00
03091              -3.00    -3600.00
03092               5.80    -3600.00
03093             -15.00    -3600.00
03094               1.40    -3800.00
03095               5.80    -3600.00
03096              -4.00    -3800.00
03097               0.20    -3600.00
03098               1.80    -3600.00
03099              -7.40    -3800.00
03100              -2.80    -3600.00
03101              -4.40    -4000.00
03102              -3.40    -3600.00
03103              -2.60    -4000.00
03104               3.40    -3600.00
03105               2.40    -4000.00
03106              -6.20    -3800.00
03107               3.60    -4000.00
03108              -6.80    -4200.00
03109              -4.20    -4000.00
03110              -3.40    -4200.00
03111              -7.60    -4000.00
03112               5.80    -4200.00
03113              -0.60    -4200.00
03114              -2.80    -4200.00
03115              -2.00    -4200.00
03116               1.20    -4400.00
03117              -8.00    -4400.00
03118              -5.40    -4400.00
03119              -0.20    -4200.00
03120              -3.80    -4400.00
03121              -0.40    -4400.00
03122              -3.00    -4400.00
03123               0.40    -4400.00
03124              -2.60    -4600.00
03125              -4.40    -4400.00
03126              -2.40    -4600.00
03127              -3.40    -4600.00
03128              -1.40    -4400.00
03129              -3.80    -4600.00
03130              -2.60    -4600.00
03131              -2.00    -4800.00
03132              -2.80    -4600.00
03133              -1.80    -4800.00
03134              -3.40    -4600.00
03135              -2.80    -4800.00
03136              -3.80    -5000.00
03137              -2.80    -4600.00
03138              -2.00    -4800.00
03139              -3.80    -4600.00
03140              -3.60    -4800.00
03141              -2.60    -5000.00
03142              -1.80    -5000.00
03143              -4.20    -5000.00
03144              -2.00    -5000.00
03145              -2.80    -5000.00
03146              -4.40    -5000.00
03147              -3.00    -5000.00
03148              -3.80    -5000.00
03149              -3.00    -5200.00
03150              -3.80    -5000.00
03151              -2.60    -5000.00
03152              -3.00    -5200.00
03153              -3.00    -5200.00
03154              -3.00    -5200.00
03155              -3.80    -5200.00
03156              -4.20    -5200.00
03157              -4.40    -5400.00
03158              -2.60    -5200.00
03159              -4.40    -5200.00
03160              -3.80    -5200.00
03161              -2.20    -5200.00
03162              -4.40    -5400.00
03163              -4.00    -5600.00
03164              -3.80    -5600.00
03165              -3.80    -5600.00
03166              -5.00    -5400.00
03167              -3.60    -5400.00
03168              -4.00    -5600.00
03169              -3.80    -5600.00
03170              -3.80    -5600.00
03171              -4.40    -5600.00
03172              -3.80    -5600.00
03173              -4.60    -5600.00
03174              -4.40    -5600.00
03175              -4.20    -5800.00
03176              -4.80    -5600.00
03177              -4.40    -5800.00
03178              -4.40    -5600.00
03179              -4.60    -5600.00
03180              -5.00    -5600.00
03181              -4.60    -5800.00
03182              -5.00    -5800.00
03183              -5.00    -5600.00
03184              -4.60    -5800.00
03185              -5.40    -5800.00
03186              -5.40    -5600.00
03187              -4.60    -5800.00
03188              -5.40    -5800.00
03189              -5.80    -5800.00
03190              -5.40    -5800.00
03191              -5.00    -6000.00
03192              -6.00    -6000.00
03193              -6.20    -5800.00
03194              -5.60    -5800.00
03195              -5.40    -6000.00
03196              -6.80    -5800.00
03197              -6.20    -6000.00
03198              -5.20    -6000.00
03199              -6.20    -6000.00
03200              -7.00    -6000.00
03201              -6.00    -6000.00
03202              -6.00    -6000.00
03203              -7.40    -6000.00
03204              -7.00    -6000.00
03205              -6.00    -6000.00
03206              -7.40    -6000.00
03207              -7.60    -6000.00
03208              -6.20    -6000.00
03209              -6.80    -6000.00
03210              -7.80    -6000.00
03211              -7.00    -6200.00
03212              -7.20    -6000.00
03213              -7.40    -6000.00
03214              -7.80    -6200.00
03215              -7.80    -6000.00
03216              -7.40    -6000.00
03217              -7.60    -6200.00
03218              -8.40    -6000.00
03219              -7.40    -6200.00
03220              -7.80    -6000.00
03221              -9.20    -6200.00
03222              -8.60    -6200.00
03223              -8.60    -6000.00
03224              -9.00    -6000.00
03225              -8.60    -6400.00
03226              -8.60    -6200.00
03227              -9.00    -6200.00
03228              -9.40    -6200.00
03229              -9.20    -6400.00
03230              -9.40    -6200.00
03231              -9.80    -6000.00
03232              -9.40    -6200.00
03233              -9.80    -6400.00
03234              -9.60    -6200.00
03235              -9.80    -6200.00
03236             -10.20    -6000.00
03237             -10.60    -6400.00
03238             -10.60    -6200.00
03239             -10.80    -6200.00
03240             -11.00    -6200.00
03241             -10.20    -6400.00
03242             -10.60    -6200.00
03243             -11.60    -6400.00
03244             -10.80    -6200.00
03245             -10.80    -6400.00
03246             -12.60    -6400.00
03247             -11.40    -6200.00
03248             -11.60    -6200.00
03249             -12.40    -6400.00
03250             -11.20    -6400.00
03251             -11.60    -6200.00
03252             -12.20    -6400.00
03253             -11.40    -6400.00
03254             -12.20    -6400.00
03255             -11.60    -6200.00
03256             -11.60    -6200.00
03257             -11.40    -6400.00
03258             -10.80    -6200.00
03259             -11.00    -6400.00
03260             -10.80    -6200.00
03261             -10.20    -6000.00
03262             -10.60    -6400.00
03263             -10.60    -6200.00
03264             -10.00    -6200.00
03265              -9.80    -6000.00
03266             -10.00    -6200.00
03267              -9.40    -6400.00
03268              -9.40    -6200.00
03269              -9.60    -6200.00
03270              -9.20    -6200.00
03271              -8.60    -6200.00
03272              -9.00    -6400.00
03273              -8.40    -6200.00
03274              -8.00    -6400.00
03275              -8.40    -6000.00
03276              -8.40    -6200.00
03277              -7.80    -6000.00
03278              -8.40    -6000.00
03279              -7.80    -6000.00
03280              -7.40    -6200.00
03281              -7.60    -6000.00
03282              -7.40    -6000.00
03283              -7.40    -6200.00
03284              -7.20    -6000.00
03285              -7.40    -6000.00
03286              -6.80    -6200.00
03287              -6.60    -6000.00
03288              -6.80    -6000.00
03289              -6.80    -6000.00
03290              -6.60    -6200.00
03291              -6.20    -6000.00
03292              -6.20    -6000.00
03293              -6.40    -6000.00
03294              -6.20    -6000.00
03295              -6.00    -6000.00
03296              -6.00    -6000.00
03297              -6.20    -6000.00
03298              -5.80    -6000.00
03299              -5.80    -6000.00
03300              -6.20    -6000.00
03301              -5.80    -5800.00
03302              -5.40    -6000.00
03303              -5.80    -6000.00
03304              -5.40    -6000.00
03305              -5.20    -5800.00
03306              -5.40    -6000.00
03307              -5.20    -6000.00
03308              -5.00    -5800.00
03309              -5.40    -5800.00
03310              -5.00    -5800.00
03311              -5.40    -5800.00
03312              -5.40    -5800.00
03313              -4.40    -5800.00
03314              -5.40    -5800.00
03315              -5.40    -5800.00
03316              -4.20    -5600.00
03317              -5.20    -5600.00
03318              -5.40    -5800.00
03319              -3.80    -5600.00
03320              -4.40    -5600.00
03321              -5.80    -5600.00
03322              -3.80    -5600.00
03323              -4.20    -5600.00
03324              -5.00    -5800.00
03325              -3.60    -5600.00
03326              -4.40    -5600.00
03327              -5.40    -5600.00
03328              -4.20    -5600.00
03329              -3.60    -5600.00
03330              -4.40    -5400.00
03331              -4.20    -5600.00
03332              -3.80    -5400.00
03333              -4.40    -5400.00
03334              -3.60    -5400.00
03335              -4.20    -5600.00
03336              -4.40    -5400.00
03337              -2.80    -5400.00
03338              -3.60    -5400.00
03339              -4.40    -5200.00
03340              -2.80    -5400.00
03341              -3.00    -5200.00
03342              -4.40    -5200.00
03343              -3.60    -5200.00
03344              -2.20    -5200.00
03345              -3.60    -5200.00
03346              -4.40    -5200.00
03347              -2.80    -5200.00
03348              -3.00    -5200.00
03349              -4.40    -5000.00
03350              -2.80    -5000.00
03351              -2.60    -5000.00
03352              -3.00    -5000.00
03353              -3.40    -5000.00
03354              -1.80    -5000.00
03355              -3.00    -4800.00
03356              -4.60    -4800.00
03357              -2.20    -4600.00
03358              -2.20    -4800.00
03359              -3.60    -4800.00
03360              -3.40    -4800.00
03361              -2.60    -4800.00
03362              -1.80    -4600.00
03363              -3.40    -4800.00
03364              -3.00    -4600.00
03365              -2.00    -4800.00
03366              -3.00    -4600.00
03367              -3.40    -4600.00
03368              -2.60    -4600.00
03369              -1.80    -4600.00
03370              -3.00    -4600.00
03371              -2.80    -4400.00
03372              -1.40    -4400.00
03373              -2.80    -4400.00
03374              -3.80    -4400.00
03375              -2.60    -4400.00
03376              -1.80    -4400.00
03377              -2.20    -4400.00
03378              -2.80    -4400.00
03379              -2.20    -4200.00
03380              -2.80    -4400.00
03381              -3.00    -4400.00
03382              -2.00    -4400.00
03383              -2.20    -4200.00
03384              -2.40    -4200.00
03385              -1.80    -4200.00
03386              -2.00    -4200.00
03387              -2.80    -4200.00
03388              -2.60    -4000.00
03389              -2.20    -4200.00
03390              -2.20    -4200.00
03391              -2.20    -4000.00
03392              -2.20    -4000.00
03393              -2.60    -4000.00
03394              -2.60    -4000.00
03395              -2.40    -4000.00
03396              -1.40    -3800.00
03397              -2.00    -4000.00
03398              -2.60    -3800.00
03399              -1.80    -3800.00
03400              -2.00    -3600.00
03401              -2.80    -3800.00
03402              -1.80    -3600.00
03403              -1.20    -3600.00
03404              -2.20    -3600.00
03405              -2.00    -3600.00
03406              -1.40    -3600.00
03407              -2.00    -3600.00
03408              -2.80    -3600.00
03409              -1.20    -3600.00
03410              -1.00    -3600.00
03411              -1.80    -3200.00
03412              -1.80    -3400.00
03413              -1.20    -3400.00
03414              -1.80    -3400.00
03415              -2.00    -3200.00
03416              -1.40    -3200.00
03417              -1.20    -3200.00
03418              -1.80    -3200.00
03419              -1.20    -3200.00
03420              -1.20    -3000.00
03421              -1.80    -3200.00
03422              -2.00    -3000.00
03423              -1.80    -3000.00
03424              -1.40    -3000.00
03425              -1.20    -2800.00
03426              -1.40    -2800.00
03427              -1.20    -3000.00
03428              -1.20    -2800.00
03429              -1.80    -2800.00
03430              -1.40    -2800.00
03431              -1.60    -2800.00
03432              -1.20    -2600.00
03433              -1.00    -2600.00
03434              -1.20    -2600.00
03435              -1.00    -2600.00
03436              -1.20    -2600.00
03437              -1.80    -2600.00
03438              -1.40    -2400.00
03439              -1.80    -2400.00
03440              -1.40    -2400.00
03441              -1.40    -2400.00
03442              -1.00    -2400.00
03443              -0.60    -2400.00
03444              -1.20    -2400.00
03445              -1.40    -2400.00
03446              -1.40    -2200.00
03447              -1.60    -2200.00
03448              -1.60    -2200.00
03449              -1.20    -2200.00
03450              -0.60    -2000.00
03451              -1.00    -2000.00
03452              -1.40    -2000.00
03453              -1.80    -2000.00
03454              -1.20    -2000.00
03455              -1.40    -2000.00
03456              -1.60    -2000.00
03457              -0.20    -1800.00
03458              -0.40    -1800.00
03459              -1.40    -1800.00
03460              -1.20    -1600.00
03461              -1.20    -1800.00
03462              -1.40    -1600.00
03463              -1.20    -1600.00
03464              -1.00    -1600.00
03465              -0.60    -1600.00
03466              -0.60    -1600.00
03467              -1.00    -1600.00
03468              -0.80    -1600.00
03469              -1.00    -1400.00
03470              -1.40    -1400.00
03471              -1.20    -1400.00
03472              -0.40    -1400.00
03473              -0.40    -1200.00
03474              -0.80    -1200.00
03475              -1.00    -1000.00
03476              -0.60    -1200.00
03477              -0.80    -1000.00
03478              -1.00    -1000.00
03479              -0.60    -1000.00
03480              -0.20     -800.00
03481              -0.40     -800.00
03482              -1.00    -1000.00
03483              -1.00     -800.00
03484              -1.00     -800.00
03485              -0.60     -800.00
03486              -0.60     -800.00
03487              -0.60     -800.00
03488               0.20     -800.00
03489              -0.60     -600.00
03490              -0.60     -800.00
03491              -0.20     -800.00
03492              -0.60     -600.00
03493              -1.20     -400.00
03494               0.20     -400.00
03495               0.20     -400.00
03496              -0.40     -400.00
03497              -0.60     -400.00
03498              -0.60     -400.00
03499              -0.40     -200.00
03500              -0.20     -200.00
03501              -0.20        0.00
03502               0.40     -200.00
03503              -0.60     -200.00
03504              -1.20        0.00
03505              -0.40     -200.00
03506              -0.20        0.00
03507              -0.20        0.00
03508              -0.40        0.00
03509               0.40        0.00
03510               0.40      200.00
03511              -0.60        0.00
03512              -1.00      400.00
03513              -0.20      200.00
03514               0.40      400.00
03515               4.40      400.00
03516              13.20      400.00
03517             -10.80      400.00
03518             -25.00      400.00
03519              -3.60      600.00
03520              25.00      600.00
03521               6.00      600.00
03522             -25.00      600.00
03523              25.00      400.00
03524              25.00      800.00
03525             -25.00      600.00
03526             -25.00     1000.00
03527              25.00      600.00
03528              25.00      800.00
03529             -25.00     1000.00
03530              25.00      800.00
03531              25.00     1200.00
03532             -25.00     1000.00
03533             -25.00     1400.00
03534              25.00      800.00
03535              -9.80     1200.00
03536             -25.00     1200.00
03537              25.00     1200.00
03538              25.00     1200.00
03539             -25.00     1400.00
03540             -25.00     1400.00
03541              25.00     1200.00
03542               3.40     1800.00
03543             -25.00     1400.00
03544              25.00     1400.00
03545              25.00     1600.00
03546             -25.00     1600.00
03547             -22.60     1600.00
03548              25.00     1800.00
03549             -20.20     1800.00
03550             -25.00     1600.00
03551              25.00     1800.00
03552              20.40     2000.00
03553             -25.00     2000.00
03554              23.00     1800.00
03555              25.00     2000.00
03556             -25.00     2000.00
03557             -11.80     2000.00
03558              25.00     2000.00
03559             -10.80     2200.00
03560             -25.00     2200.00
03561              24.20     2000.00
03562               9.60     2200.00
03563             -23.00     2200.00
03564               5.40     2200.00
03565              17.40     2400.00
03566             -12.40     2400.00
03567              -7.00     2400.00
03568              15.80     2400.00
03569               1.20     2400.00
03570             -13.20     2400.00
03571               5.80     2400.00
03572              10.80     2600.00
03573              -9.60     2400.00
03574              -3.60     2600.00
03575              12.20     2600.00
03576              -1.80     2600.00
03577              -8.20     2800.00
03578               7.60     2800.00
03579               4.60     2800.00
03580              -8.20     2800.00
03581               2.20     2800.00
03582               8.20     3000.00
03583              -3.60     3000.00
03584              -2.80     2800.00
03585               6.20     2800.00
03586               1.00     3000.00
03587              -4.60     3000.00
03588               3.00     3000.00
03589               4.20     3200.00
03590              -2.00     3000.00
03591              -0.20     3200.00
03592               3.80     3000.00
03593               0.40     3200.00
03594              -2.20     3200.00
03595               2.60     3400.00
03596               3.00     3200.00
03597              -1.20     3200.00
03598               0.40     3400.00
03599               3.60     3600.00
03600               0.60     3200.00
03601              -1.00     3600.00
03602               2.60     3400.00
03603               2.20     3600.00
03604              -0.40     3600.00
03605               1.20     3600.00
03606               2.60     3600.00
03607               0.80     3800.00
03608               0.40     3600.00
03609               2.00     3800.00
03610               2.00     3800.00
03611               1.00     3800.00
03612               1.00     3800.00
03613               2.20     3800.00
03614               1.80     4000.00
03615               1.20     3800.00
03616               2.00     4000.00
03617               1.20     3800.00
03618               1.80     4000.00
03619               1.40     3800.00
03620               2.00     4000.00
03621               2.20     4000.00
03622               1.00     4200.00
03623               2.00     4000.00
03624               2.60     4400.00
03625               1.00     4000.00
03626               1.40     4200.00
03627               3.20     4400.00
03628               1.20     4200.00
03629               1.40     4400.00
03630               3.20     4200.00
03631               2.00     4400.00
03632               1.40     4400.00
03633               2.80     4400.00
03634               1.80     4400.00
03635               1.80     4400.00
03636               2.60     4400.00
03637               1.60     4600.00
03638               2.00     4600.00
03639               2.80     4600.00
03640               2.00     4600.00
03641               2.00     4600.00
03642               2.60     4800.00
03643               2.00     4600.00
03644               2.00     4800.00
03645               2.80     4800.00
03646               2.60     4600.00
03647               2.20     4800.00
03648               2.60     4600.00
03649               2.20     4800.00
03650               2.80     4800.00
03651               2.60     4800.00
03652               2.20     4800.00
03653               2.60     5200.00
03654               2.80     5000.00
03655               2.60     5000.00
03656               2.60     5200.00
03657               2.80     5200.00
03658               3.40     5000.00
03659               2.60     5200.00
03660               2.80     5200.00
03661               3.20     5200.00
03662               2.80     5200.00
03663               3.00     5200.00
03664               3.40     5200.00
03665               3.40     5400.00
03666               3.40     5200.00
03667               2.80     5400.00
03668               3.40     5200.00
03669               3.60     5400.00
03670               3.00     5400.00
03671               3.80     5400.00
03672               3.60     5400.00
03673               3.40     5400.00
03674               4.20     5600.00
03675               3.60     5600.00
03676               3.60     5400.00
03677               3.80     5400.00
03678               4.20     5400.00
03679               4.00     5600.00
03680               3.80     5600.00
03681               4.40     5600.00
03682               3.80     5600.00
03683               3.80     5600.00
03684               4.40     5600.00
03685               4.40     5600.00
03686               4.20     5600.00
03687               4.20     5600.00
03688               4.60     5600.00
03689               4.20     5800.00
03690               4.20     5600.00
03691               5.00     5600.00
03692               5.20     5800.00
03693               4.60     5800.00
03694               5.00     5800.00
03695               5.20     5800.00
03696               5.00     6000.00
03697               5.00     6000.00
03698               5.20     6000.00
03699               5.00     6000.00
03700               5.20     6000.00
03701               5.20     6000.00
03702               5.40     5800.00
03703               5.40     6000.00
03704               5.40     6000.00
03705               5.80     6000.00
03706               5.80     6000.00
03707               5.80     6000.00
03708               6.00     6000.00
03709               5.80     6000.00
03710               6.00     6000.00
03711               6.00     6000.00
03712               6.00     6000.00
03713               6.20     6000.00
03714               6.20     6200.00
03715               6.60     6000.00
03716               6.60     6000.00
03717               6.60     6000.00
03718               6.80     6000.00
03719               6.80     6000.00
03720               6.60     6000.00
03721               7.00     6000.00
03722               7.60     6000.00
03723               7.00     6000.00
03724               7.40     6200.00
03725               7.80     6200.00
03726               7.60     6000.00
03727               7.40     6000.00
03728               7.80     6000.00
03729               8.20     6200.00
03730               8.20     6200.00
03731               8.20     6200.00
03732               8.60     6200.00
03733               8.60     6400.00
03734               8.40     6200.00
03735               9.00     6200.00
03736               9.00     6200.00
03737               9.00     6200.00
03738               9.20     6200.00
03739               9.60     6200.00
03740               9.20     6200.00
03741               9.60     6200.00
03742               9.80     6200.00
03743               9.80     6400.00
03744               9.80     6200.00
03745              10.20     6200.00
03746              10.00     6200.00
03747              10.20     6400.00
03748              10.60     6200.00
03749              10.60     6400.00
03750              10.60     6200.00
03751              10.80     6200.00
03752              10.80     6400.00
03753              11.00     6200.00
03754              11.00     6400.00
03755              11.60     6200.00
03756              11.20     6200.00
03757              11.20     6200.00
03758              11.80     6400.00
03759              11.40     6200.00
03760              11.60     6200.00
03761              11.80     6400.00
03762              11.60     6200.00
03763              11.60     6200.00
03764              11.60     6400.00
03765              11.40     6200.00
03766              11.00     6200.00
03767              11.00     6200.00
03768              10.80     6200.00
03769              10.60     6200.00
03770              10.60     6400.00
03771              10.20     6200.00
03772              10.40     6200.00
03773               9.80     6200.00
03774               9.40     6400.00
03775               9.40     6200.00
03776               9.00     6200.00
03777               9.00     6200.00
03778               9.00     6400.00
03779               8.80     6200.00
03780               8.60     6200.00
03781               8.60     6200.00
03782               8.40     6200.00
03783               8.40     6000.00
03784               8.20     6000.00
03785               8.20     6200.00
03786               7.80     6200.00
03787               7.20     6200.00
03788               8.20     6200.00
03789               7.40     6200.00
03790               6.80     6200.00
03791               7.80     6200.00
03792               7.40     6200.00
03793               6.80     6200.00
03794               7.40     6000.00
03795               6.80     6200.00
03796               7.00     6200.00
03797               6.40     6200.00
03798               6.80     6200.00
03799               6.80     6200.00
03800               6.00     6200.00
03801               6.20     6000.00
03802               6.80     6000.00
03803               5.80     6000.00
03804               6.20     6000.00
03805               6.00     6000.00
03806               6.00     6000.00
03807               6.60     6000.00
03808               5.40     6000.00
03809               5.00     6000.00
03810               6.80     6000.00
03811               5.00     6000.00
03812               4.60     6000.00
03813               6.80     6000.00
03814               5.80     6000.00
03815               4.60     6000.00
03816               5.80     5800.00
03817               6.00     5800.00
03818               4.20     6000.00
03819               5.20     5800.00
03820               5.40     5800.00
03821               4.60     6000.00
03822               4.40     5800.00
03823               5.20     5600.00
03824               4.40     5800.00
03825               5.00     5800.00
03826               4.40     5600.00
03827               4.40     5800.00
03828               4.60     5600.00
03829               4.20     5800.00
03830               4.60     5600.00
03831               3.80     5600.00
03832               4.40     5600.00
03833               4.60     5600.00
03834               3.60     5600.00
03835               3.60     5600.00
03836               4.40     5600.00
03837               4.20     5600.00
03838               3.40     5600.00
03839               3.60     5600.00
03840               4.40     5600.00
03841               4.20     5600.00
03842               3.40     5400.00
03843               3.40     5400.00
03844               3.80     5400.00
03845               3.20     5400.00
03846               3.60     5400.00
03847               3.60     5400.00
03848               3.40     5400.00
03849               3.00     5400.00
03850               3.20     5400.00
03851               3.00     5400.00
03852               2.80     5200.00
03853               3.40     5200.00
03854               3.00     5200.00
03855               3.00     5200.00
03856               3.40     5200.00
03857               3.20     5200.00
03858               2.60     5200.00
03859               2.60     5200.00
03860               3.00     5000.00
03861               3.20     5200.00
03862               2.60     4800.00
03863               3.00     5000.00
03864               3.40     5000.00
03865               2.60     5000.00
03866               2.20     4800.00
03867               2.60     4800.00
03868               2.60     4800.00
03869               2.20     4800.00
03870               3.00     4800.00
03871               3.00     4800.00
03872               2.80     4800.00
03873               2.60     4800.00
03874               2.60     4600.00
03875               2.60     4800.00
03876               2.60     4800.00
03877               2.40     4800.00
03878               2.60     4600.00
03879               2.20     4600.00
03880               2.60     4600.00
03881               2.00     4400.00
03882               2.00     4600.00
03883               2.60     4600.00
03884               2.40     4400.00
03885               2.00     4400.00
03886               2.00     4400.00
03887               2.00     4400.00
03888               2.00     4400.00
03889               1.80     4400.00
03890               2.00     4400.00
03891               2.00     4400.00
03892               2.00     4200.00
03893               2.00     4400.00
03894               1.80     4000.00
03895               1.60     4000.00
03896               1.80     4200.00
03897               1.40     4000.00
03898               1.60     4000.00
03899               1.80     4000.00
03900               1.00     4000.00
03901               1.80     4000.00
03902               1.80     4000.00
03903               1.00     3800.00
03904               1.80     3800.00
03905               1.80     4000.00
03906               0.40     3800.00
03907               1.20     3800.00
03908               1.80     3800.00
03909               0.40     3600.00
03910               1.20     3800.00
03911               2.00     3800.00
03912               0.80     3600.00
03913               1.00     3600.00
03914               1.80     3600.00
03915               0.60     3600.00
03916               0.60     3600.00
03917               1.80     3600.00
03918               1.20     3600.00
03919               0.40     3600.00
03920               1.20     3400.00
03921               1.20     3600.00
03922               1.20     3400.00
03923               1.20     3200.00
03924               0.60     3400.00
03925               0.60     3200.00
03926               1.00     3200.00
03927               1.00     3200.00
03928               0.60     3200.00
03929               1.20     3200.00
03930               1.20     3000.00
03931               0.20     3000.00
03932               1.00     3000.00
03933               1.40     3000.00
03934               0.40     3200.00
03935               0.60     3000.00
03936               1.40     3000.00
03937               0.60     2800.00
03938               0.40     2800.00
03939               1.20     2800.00
03940               1.00     2800.00
03941               0.40     2800.00
03942               0.60     2800.00
03943               1.00     2800.00
03944               0.40     2600.00
03945               0.40     2600.00
03946               1.00     2600.00
03947               0.80     2600.00
03948               0.40     2600.00
03949               1.00     2400.00
03950               1.00     2400.00
03951               0.20     2400.00
03952               1.00     2400.00
03953               0.60     2400.00
03954              -0.20     2400.00
03955               0.40     2200.00
03956               0.40     2200.00
03957               0.20     2200.00
03958               0.60     2400.00
03959               0.40     2000.00
03960               0.20     2000.00
03961               0.40     2200.00
03962               0.40     2200.00
03963              -0.20     2000.00
03964               0.00     2000.00
03965               0.40     1800.00
03966               0.40     2000.00
03967               0.20     2000.00
03968              -0.20     1800.00
03969               0.40     2000.00
03970              -0.20     1800.00
03971              -0.40     1600.00
03972               0.40     1600.00
03973               0.20     1600.00
03974              -0.40     1600.00
03975               0.40     1600.00
03976               0.00     1400.00
03977              -0.20     1600.00
03978              -0.20     1400.00
03979               0.20     1400.00
03980               0.20     1400.00
03981              -0.20     1200.00
03982              -0.20     1200.00
03983               0.20     1400.00
03984              -0.40     1200.00
03985              -0.20     1200.00
03986              -0.20     1000.00
03987              -0.40     1000.00
03988              -0.20     1000.00
03989              -0.40      800.00
03990               0.20     1000.00
03991              -0.20     1000.00
03992               0.00      800.00
03993               0.20      800.00
03994              -0.20      800.00
03995              -0.20      800.00
03996               0.00      800.00
03997              -0.20      600.00
03998              -0.20      600.00
03999              -0.20      800.00
04000              -0.40      600.00
04001              -0.20      600.00
04002               0.00      600.00
04003              -0.20      400.00
04004              -0.60      400.00
04005              -0.20      400.00
04006              -0.20      400.00
04007              -0.40      400.00
04008              -0.20      400.00
04009              -0.40      400.00
04010              -0.20      400.00
04011              -0.20        0.00
04012              -0.40      200.00
04013              -0.40        0.00
04014              -0.20        0.00
04015              -0.60        0.00
04016              -0.40        0.00
04017               0.20        0.00
04018              -0.40        0.00
04019              -0.20        0.00
04020               0.20     -200.00
04021               0.20     -200.00
04022              -0.60     -200.00
04023              -0.80     -200.00
04024               0.40     -400.00
04025               5.80     -200.00
04026              20.20     -400.00
04027             -18.00     -400.00
04028             -25.00     -800.00
04029              18.60     -400.00
04030              25.00     -400.00
04031             -19.20     -600.00
04032             -25.00     -400.00
04033              25.00     -800.00
04034              25.00     -400.00
04035             -25.00    -1000.00
04036             -25.00     -600.00
04037              25.00    -1000.00
04038              25.00     -800.00
04039             -25.00     -800.00
04040              25.00    -1000.00
04041              25.00    -1000.00
04042             -25.00    -1000.00
04043             -25.00     -800.00
04044              25.00    -1200.00
04045               2.80    -1000.00
04046             -25.00    -1000.00
04047              25.00    -1400.00
04048              25.00    -1200.00
04049             -25.00    -1000.00
04050             -13.80    -1400.00
04051              25.00    -1600.00
04052              -4.20    -1200.00
04053             -25.00    -1600.00
04054              25.00    -1600.00
04055              25.00    -1400.00
04056             -25.00    -1600.00
04057             -25.00    -1600.00
04058              25.00    -1600.00
04059             -25.00    -1600.00
04060             -25.00    -1800.00
04061              25.00    -1800.00
04062              19.60    -1600.00
04063             -25.00    -1800.00
04064              25.00    -2000.00
04065              25.00    -1800.00
04066             -25.00    -2000.00
04067              -5.60    -2000.00
04068              25.00    -1800.00
04069             -15.00    -2000.00
04070             -25.00    -2000.00
04071              25.00    -2200.00
04072              11.60    -2000.00
04073             -25.00    -2200.00
04074               7.20    -2400.00
04075              21.80    -2200.00
04076             -21.20    -2400.00
04077              -7.80    -2400.00
04078              18.00    -2400.00
04079              -3.60    -2400.00
04080             -17.20    -2400.00
04081               7.80    -2600.00
04082              10.60    -2600.00
04083             -17.40    -2600.00
04084              -2.00    -2400.00
04085              14.60    -2600.00
04086              -9.40    -2600.00
04087             -10.00    -2800.00
04088               9.40    -2800.00
04089               1.20    -2800.00
04090             -13.20    -2800.00
04091               3.00    -2600.00
04092               7.80    -2800.00
04093             -11.40    -2800.00
04094              -3.60    -3000.00
04095               7.00    -3000.00
04096              -4.60    -3200.00
04097              -7.80    -3000.00
04098               3.00    -3000.00
04099               2.00    -3200.00
04100              -7.40    -3200.00
04101              -1.20    -3200.00
04102               3.40    -3200.00
04103              -4.60    -3200.00
04104              -4.40    -3400.00
04105               1.80    -3400.00
04106              -1.20    -3400.00
04107              -4.60    -3200.00
04108              -1.20    -3600.00
04109               0.60    -3200.00
04110              -3.60    -3400.00
04111              -3.40    -3600.00
04112               0.00    -3600.00
04113              -1.40    -3600.00
04114              -3.80    -3600.00
04115              -1.40    -3600.00
04116              -0.40    -3600.00
04117              -2.80    -3600.00
04118              -2.80    -3600.00
04119              -1.20    -3800.00
04120              -2.00    -3600.00
04121              -1.80    -4000.00
04122              -2.00    -3800.00
04123              -2.20    -4000.00
04124              -1.80    -3800.00
04125              -2.00    -4000.00
04126              -3.00    -4000.00
04127              -1.60    -4000.00
04128              -1.60    -4000.00
04129              -3.00    -4000.00
04130              -1.60    -4200.00
04131              -1.40    -4000.00
04132              -2.80    -4200.00
04133              -2.20    -4000.00
04134              -1.40    -4000.00
04135              -2.20    -4200.00
04136              -2.60    -4200.00
04137              -2.20    -4200.00
04138              -2.60    -4200.00
04139              -2.20    -4400.00
04140              -2.40    -4200.00
04141              -2.60    -4400.00
04142              -2.00    -4400.00
04143              -2.60    -4400.00
04144              -2.80    -4400.00
04145              -2.00    -4400.00
04146              -2.60    -4400.00
04147              -3.40    -4400.00
04148              -2.00    -4400.00
04149              -1.80    -4600.00
04150              -3.60    -4400.00
04151              -2.80    -4600.00
04152              -1.20    -4800.00
04153              -3.40    -4600.00
04154              -3.80    -4800.00
04155              -1.20    -4600.00
04156              -3.00    -4800.00
04157              -4.60    -4600.00
04158              -1.80    -4800.00
04159              -2.00    -4600.00
04160              -4.40    -4800.00
04161              -3.00    -5000.00
04162              -2.00    -4800.00
04163              -3.40    -4800.00
04164              -4.40    -5000.00
04165              -2.20    -5000.00
04166              -2.60    -5000.00
04167              -4.40    -5000.00
04168              -3.80    -5000.00
04169              -2.00    -5000.00
04170              -3.40    -5000.00
04171              -4.60    -5000.00
04172              -2.60    -5200.00
04173              -2.80    -5200.00
04174              -4.60    -5200.00
04175              -3.60    -5200.00
04176              -3.40    -5200.00
04177              -3.20    -5200.00
04178              -3.60    -5200.00
04179              -3.80    -5400.00
04180              -4.40    -5400.00
04181              -4.40    -5200.00
04182              -2.80    -5600.00
04183              -3.00    -5600.00
04184              -4.60    -5200.00
04185              -3.60    -5400.00
04186              -3.20    -5200.00
04187              -5.00    -5600.00
04188              -5.00    -5600.00
04189              -3.60    -5400.00
04190              -4.20    -5600.00
04191              -3.80    -5600.00
04192              -3.60    -5600.00
04193              -4.40    -5600.00
04194              -4.80    -5600.00
04195              -5.20    -5600.00
04196              -4.40    -5600.00
04197              -4.20    -5800.00
04198              -4.20    -5600.00
04199              -4.40    -5600.00
04200              -4.40    -5600.00
04201              -4.20    -5800.00
04202              -5.20    -5800.00
04203              -5.60    -5800.00
04204              -4.40    -5800.00
04205              -4.40    -5800.00
04206              -5.40    -5800.00
04207              -5.00    -5800.00
04208              -4.40    -5800.00
04209              -5.20    -5800.00
04210              -5.80    -6000.00
04211              -4.60    -6000.00
04212              -5.40    -6000.00
04213              -6.00    -6000.00
04214              -5.40    -6000.00
04215              -5.40    -5800.00
04216              -5.80    -6000.00
04217              -5.40    -5800.00
04218              -6.00    -6000.00
04219              -5.40    -6000.00
04220              -6.20    -6000.00
04221              -6.40    -6000.00
04222              -6.00    -6000.00
04223              -6.20    -6000.00
04224              -6.60    -6000.00
04225              -6.60    -6000.00
04226              -6.60    -6000.00
04227              -7.00    -6000.00
04228              -7.60    -6000.00
04229              -6.80    -6000.00
04230              -6.60    -6000.00
04231              -7.40    -6000.00
04232              -7.40    -6200.00
04233              -7.60    -6000.00
04234              -7.60    -6000.00
04235              -7.20    -6000.00
04236              -8.20    -6200.00
04237              -8.00    -6000.00
04238              -7.40    -6200.00
04239              -7.80    -6000.00
04240              -9.00    -6200.00
04241              -8.40    -6200.00
04242              -7.80    -6200.00
04243              -8.40    -6400.00
04244              -8.60    -6200.00
04245              -8.60    -6000.00
04246              -8.80    -6200.00
04247              -9.40    -6000.00
04248             -10.00    -6400.00
04249              -9.00    -6200.00
04250              -9.20    -6400.00
04251              -9.40    -6000.00
04252              -9.00    -6200.00
04253              -9.40    -6000.00
04254             -10.80    -6400.00
04255             -10.20    -6400.00
04256              -9.20    -6400.00
04257             -10.60    -6400.00
04258             -11.00    -6400.00
04259             -10.20    -6200.00
04260              -9.80    -6400.00
04261             -10.60    -6400.00
04262             -11.60    -6400.00
04263             -10.40    -6400.00
04264             -11.00    -6200.00
04265             -11.60    -6400.00
04266             -11.00    -6400.00
04267             -11.00    -6200.00
04268             -10.80    -6200.00
04269             -12.00    -6400.00
04270             -12.20    -6400.00
04271             -11.00    -6400.00
04272             -11.60    -6400.00
04273             -11.80    -6200.00
04274             -11.40    -6400.00
04275             -11.00    -6400.00
04276             -12.20    -6200.00
04277             -12.20    -6400.00
04278             -11.00    -6000.00
04279             -10.60    -6400.00
04280             -10.20    -6200.00
04281             -10.60    -6200.00
04282             -10.80    -6200.00
04283             -10.40    -6400.00
04284             -10.60    -6200.00
04285             -10.60    -6400.00
04286              -9.20    -6400.00
04287              -9.20    -6200.00
04288             -10.00    -6200.00
04289              -9.20    -6400.00
04290              -9.00    -6200.00
04291              -9.20    -6400.00
04292              -9.40    -6200.00
04293              -9.00    -6200.00
04294              -8.60    -6200.00
04295              -8.40    -6000.00
04296              -8.20    -6200.00
04297              -8.40    -6200.00
04298              -8.60    -6200.00
04299              -7.60    -6200.00
04300              -7.60    -6000.00
04301              -8.00    -6200.00
04302              -7.40    -6200.00
04303              -7.40    -6200.00
04304              -7.60    -6000.00
04305              -7.40    -6200.00
04306              -7.00    -6000.00
04307              -7.40    -6000.00
04308              -7.40    -6000.00
04309              -6.80    -6000.00
04310              -6.80    -6000.00
04311              -7.00    -6000.00
04312              -6.60    -6000.00
04313              -6.20    -6000.00
04314              -6.60    -6000.00
04315              -6.60    -6000.00
04316              -6.20    -5800.00
04317              -6.00    -6000.00
04318              -6.20    -6000.00
04319              -5.80    -5800.00
04320              -6.20    -6000.00
04321              -6.00    -6000.00
04322              -5.80    -6000.00
04323              -5.80    -6000.00
04324              -5.60    -6000.00
04325              -5.20    -6000.00
04326              -5.40    -6000.00
04327              -5.40    -5800.00
04328              -5.40    -5800.00
04329              -5.20    -6000.00
04330              -5.20    -5800.00
04331              -5.20    -5800.00
04332              -5.00    -5800.00
04333              -4.60    -6000.00
04334              -4.80    -5800.00
04335              -4.60    -5800.00
04336              -4.60    -5800.00
04337              -5.00    -5800.00
04338              -4.80    -5800.00
04339              -5.00    -5800.00
04340              -4.60    -5800.00
04341              -4.60    -5800.00
04342              -4.40    -5600.00
04343              -4.40    -5600.00
04344              -4.40    -5600.00
04345              -3.80    -5600.00
04346              -4.40    -5600.00
04347              -4.20    -5600.00
04348              -4.20    -5600.00
04349              -3.80    -5600.00
04350              -3.80    -5600.00
04351              -4.40    -5600.00
04352              -3.80    -5600.00
04353              -3.80    -5400.00
04354              -4.40    -5600.00
04355              -3.80    -5600.00
04356              -4.20    -5600.00
04357              -3.80    -5200.00
04358              -3.00    -5400.00
04359              -3.80    -5200.00
04360              -4.40    -5400.00
04361              -4.20    -5200.00
04362              -3.20    -5200.00
04363              -3.60    -5400.00
04364              -3.80    -5200.00
04365              -3.00    -5200.00
04366              -3.80    -5200.00
04367              -3.80    -5000.00
04368              -3.00    -5200.00
04369              -3.60    -5200.00
04370              -4.00    -5000.00
04371              -2.80    -5200.00
04372              -2.80    -5000.00
04373              -3.60    -5200.00
04374              -3.60    -5000.00
04375              -3.20    -5000.00
04376              -2.80    -5000.00
04377              -2.80    -5000.00
04378              -3.80    -5000.00
04379              -2.80    -4600.00
04380              -2.00    -4800.00
04381              -3.80    -4600.00
04382              -3.60    -4600.00
04383              -2.20    -4800.00
04384              -2.80    -4600.00
04385              -3.40    -4600.00
04386              -3.00    -4800.00
04387              -2.40    -4600.00
04388              -2.80    -4600.00
04389              -3.00    -4400.00
04390              -2.20    -4400.00
04391              -2.60    -4600.00
04392              -2.80    -4400.00
04393              -2.20    -4400.00
04394              -2.20    -4400.00
04395              -2.80    -4600.00
04396              -2.20    -4400.00
04397              -2.20    -4400.00
04398              -3.00    -4400.00
04399              -2.20    -4200.00
04400              -2.00    -4400.00
04401              -2.60    -4400.00
04402              -2.20    -4200.00
04403              -2.20    -4400.00
04404              -2.20    -4400.00
04405              -2.20    -4200.00
04406              -2.00    -4200.00
04407              -2.00    -4200.00
04408              -2.00    -4200.00
04409              -2.00    -4200.00
04410              -2.20    -4000.00
04411              -2.00    -4000.00
04412              -2.20    -4000.00
04413              -2.00    -4000.00
04414              -2.00    -4000.00
04415              -2.20    -4000.00
04416              -2.20    -4000.00
04417              -2.20    -3800.00
04418              -2.00    -4000.00
04419              -2.00    -3800.00
04420              -2.00    -3800.00
04421              -2.00    -3800.00
04422              -1.80    -3800.00
04423              -2.20    -3800.00
04424              -2.00    -4000.00
04425              -1.80    -3600.00
04426              -2.00    -3600.00
04427              -2.00    -3600.00
04428              -2.00    -3600.00
04429              -1.40    -3600.00
04430              -2.00    -3600.00
04431              -2.20    -3400.00
04432              -1.40    -3400.00
04433              -2.00    -3400.00
04434              -2.00    -3400.00
04435              -2.00    -3400.00
04436              -1.40    -3400.00
04437              -1.80    -3200.00
04438              -2.60    -3200.00
04439              -1.20    -3200.00
04440              -1.40    -3200.00
04441              -2.20    -3200.00
04442              -1.80    -3000.00
04443              -1.00    -3000.00
04444              -2.00    -3000.00
04445              -2.00    -2800.00
04446              -1.00    -3000.00
04447              -1.80    -2800.00
04448              -1.80    -2800.00
04449              -1.80    -2800.00
04450              -1.60    -2800.00
04451              -1.20    -2800.00
04452              -1.80    -2800.00
04453              -1.20    -2600.00
04454              -0.60    -2600.00
04455              -2.20    -2600.00
04456              -2.00    -2800.00
04457              -0.20    -2400.00
04458              -1.20    -2600.00
04459              -2.20    -2600.00
04460              -0.60    -2400.00
04461              -1.20    -2400.00
04462              -2.20    -2400.00
04463              -1.00    -2400.00
04464              -0.60    -2400.00
04465              -1.80    -2200.00
04466              -1.20    -2200.00
04467              -0.40    -2200.00
04468              -1.00    -2200.00
04469              -1.40    -2000.00
04470              -1.20    -2000.00
04471              -0.60    -2000.00
04472              -1.20    -2000.00
04473              -1.20    -2000.00
04474              -0.60    -2000.00
04475              -1.00    -2000.00
04476              -1.40    -2000.00
04477              -1.00    -2000.00
04478              -0.40    -1800.00
04479              -1.80    -1800.00
04480              -1.20    -1800.00
04481              -0.40    -1800.00
04482              -1.20    -1600.00
04483              -1.20    -1800.00
04484              -1.00    -1600.00
04485              -0.60    -1600.00
04486              -0.60    -1600.00
04487              -1.40    -1600.00
04488              -1.20    -1600.00
04489              -1.00    -1600.00
04490              -1.20    -1600.00
04491              -0.60    -1200.00
04492              -1.00    -1400.00
04493              -1.40    -1200.00
04494              -1.00    -1400.00
04495              -0.80    -1400.00
04496              -1.40    -1200.00
04497              -1.00    -1200.00
04498              -0.40    -1000.00
04499              -0.60    -1000.00
04500              -1.00    -1200.00
04501              -0.60    -1000.00
04502              -0.60    -1000.00
04503              -1.00     -800.00
04504              -1.20     -800.00
04505              -0.40     -800.00
04506              -1.20     -800.00
04507              -1.00     -800.00
04508              -0.40     -600.00
04509              -0.60     -800.00
04510              -1.00     -600.00
04511              -0.40     -600.00
04512              -0.40     -600.00
04513              -1.00     -600.00
04514              -0.60     -400.00
04515              -0.40     -400.00
04516              -0.60     -400.00
04517              -1.00     -400.00
04518              -0.60     -200.00
04519               0.20     -200.00
04520              -0.60     -200.00
04521              -1.20     -200.00
04522              -0.20     -200.00
04523              -0.40     -200.00
04524              -1.00        0.00
04525              -0.20        0.00
04526              -0.40        0.00
04527              -1.00        0.00
04528               0.40        0.00
04529               0.20        0.00
04530              -0.60      200.00
04531               0.40        0.00
04532               0.40      200.00
04533              -0.60      200.00
04534              -0.20      200.00
04535               1.00      400.00
04536               2.00      200.00
04537              12.20      400.00
04538               1.20      400.00
04539             -25.00      400.00
04540             -25.00      600.00
04541              25.00      400.00
04542              25.00      600.00
04543             -25.00      600.00
04544             -25.00      600.00
04545              25.00      800.00
04546              11.40      600.00
04547             -25.00      800.00
04548              25.00      600.00
04549              25.00     1000.00
04550             -25.00      800.00
04551             -25.00     1000.00
04552              25.00     1000.00
04553             -16.60      800.00
04554             -25.00     1200.00
04555              25.00      800.00
04556              25.00     1200.00
04557             -25.00     1200.00
04558               2.00     1200.00
04559              25.00     1200.00
04560             -25.00     1400.00
04561             -25.00     1400.00
04562              25.00     1200.00
04563              25.00     1400.00
04564             -25.00     1600.00
04565             -16.60     1400.00
04566              25.00     1600.00
04567             -19.80     1800.00
04568             -25.00     1400.00
04569              25.00     1600.00
04570              25.00     1800.00
04571             -25.00     1600.00
04572              21.40     1800.00
04573              25.00     1800.00
04574             -25.00     2000.00
04575             -14.20     1800.00
04576              25.00     1800.00
04577             -15.80     2000.00
04578             -25.00     2000.00
04579              25.00     2000.00
04580              14.80     2000.00
04581             -25.00     2200.00
04582               7.80     2000.00
04583              24.00     2000.00
04584             -18.00     2200.00
04585              -9.00     2200.00
04586              20.20     2200.00
04587              -1.20     2200.00
04588             -15.40     2400.00
04589              10.20     2400.00
04590              10.60     2400.00
04591             -12.40     2400.00
04592              -2.20     2400.00
04593              14.20     2400.00
04594              -2.80     2400.00
04595              -9.80     2400.00
04596               9.80     2800.00
04597               5.80     2600.00
04598              -9.80     2800.00
04599               2.00     2600.00
04600               9.80     2800.00
04601              -5.40     2800.00
04602              -3.60     2800.00
04603               9.40     2800.00
04604               0.60     2800.00
04605              -5.80     3000.00
04606               4.40     3000.00
04607               5.20     3000.00
04608              -4.20     3200.00
04609              -0.40     3000.00
04610               6.00     3200.00
04611               0.20     3000.00
04612              -2.60     3200.00
04613               3.60     3000.00
04614               2.60     3200.00
04615              -2.60     3000.00
04616               1.00     3200.00
04617               3.60     3200.00
04618               0.20     3200.00
04619              -1.00     3400.00
04620               2.80     3200.00
04621               2.20     3400.00
04622              -1.80     3600.00
04623               2.00     3400.00
04624               3.40     3600.00
04625              -0.60     3600.00
04626               1.00     3600.00
04627               2.60     3600.00
04628               0.40     3600.00
04629               0.80     3600.00
04630               2.40     3800.00
04631               0.40     3800.00
04632               1.00     3600.00
04633               2.60     3800.00
04634               0.40     3800.00
04635               1.40     4000.00
04636               2.00     4000.00
04637               1.20     4000.00
04638               1.40     4000.00
04639               1.60     4000.00
04640               1.80     4000.00
04641               1.80     4000.00
04642               1.40     4000.00
04643               1.80     4200.00
04644               2.00     4000.00
04645               1.80     4200.00
04646               1.60     4400.00
04647               1.80     4200.00
04648               2.00     4400.00
04649               1.80     4400.00
04650               2.00     4400.00
04651               1.40     4400.00
04652               2.60     4400.00
04653               3.00     4400.00
04654               1.20     4600.00
04655               1.40     4400.00
04656               2.80     4400.00
04657               2.20     4600.00
04658               2.00     4600.00
04659               2.00     4600.00
04660               2.60     4600.00
04661               2.00     4600.00
04662               1.80     4600.00
04663               2.60     4600.00
04664               2.60     4600.00
04665               2.00     4800.00
04666               2.60     4800.00
04667               2.60     4800.00
04668               2.00     4800.00
04669               2.20     4800.00
04670               2.80     4800.00
04671               3.00     4800.00
04672               2.00     4800.00
04673               2.60     4800.00
04674               3.40     5200.00
04675               2.80     4800.00
04676               2.00     5000.00
04677               3.00     5000.00
04678               3.00     4800.00
04679               1.80     5200.00
04680               2.80     5000.00
04681               3.60     5200.00
04682               2.60     5200.00
04683               3.00     5200.00
04684               3.60     5200.00
04685               2.80     5200.00
04686               3.00     5200.00
04687               3.60     5200.00
04688               3.40     5200.00
04689               2.60     5200.00
04690               3.40     5200.00
04691               3.60     5400.00
04692               2.80     5400.00
04693               3.20     5600.00
04694               4.20     5400.00
04695               3.60     5400.00
04696               3.00     5600.00
04697               3.60     5400.00
04698               4.20     5400.00
04699               3.40     5600.00
04700               3.40     5400.00
04701               4.20     5600.00
04702               3.80     5600.00
04703               4.20     5600.00
04704               4.40     5600.00
04705               3.60     5600.00
04706               4.20     5600.00
04707               4.40     5600.00
04708               3.60     5600.00
04709               4.40     5600.00
04710               5.40     5600.00
04711               4.00     5800.00
04712               4.20     5600.00
04713               5.60     5600.00
04714               4.60     5600.00
04715               3.80     5800.00
04716               5.80     5800.00
04717               5.20     5800.00
04718               4.00     6000.00
04719               5.40     5800.00
04720               5.80     5800.00
04721               4.40     5800.00
04722               5.20     5800.00
04723               5.80     6000.00
04724               5.40     6000.00
04725               5.40     6000.00
04726               5.40     6000.00
04727               6.00     6000.00
04728               6.00     5800.00
04729               5.80     6000.00
04730               6.00     6000.00
04731               6.00     6000.00
04732               6.00     6000.00
04733               6.60     6000.00
04734               6.60     6000.00
04735               6.40     6000.00
04736               6.60     6000.00
04737               6.80     6000.00
04738               6.40     6000.00
04739               6.60     6000.00
04740               7.40     6000.00
04741               7.00     6200.00
04742               6.80     6000.00
04743               6.80     6000.00
04744               7.00     6000.00
04745               7.80     6200.00
04746               7.60     6000.00
04747               7.40     6200.00
04748               7.60     6000.00
04749               7.60     6200.00
04750               7.80     6200.00
04751               8.20     6200.00
04752               7.80     6200.00
04753               8.40     6000.00
04754               8.60     6200.00
04755               8.20     6200.00
04756               8.40     6200.00
04757               9.00     6200.00
04758               8.20     6200.00
04759               8.60     6200.00
04760              10.80     6200.00
04761               9.20     6200.00
04762               7.60     6200.00
04763              10.20     6200.00
04764              10.00     6200.00
04765               9.00     6200.00
04766              10.60     6200.00
04767              10.60     6200.00
04768               9.40     6200.00
04769              10.20     6400.00
04770              10.60     6200.00
04771              10.00     6200.00
04772              10.80     6400.00
04773              11.60     6400.00
04774              10.20     6200.00
04775              11.60     6200.00
04776              11.60     6200.00
04777              10.20     6200.00
04778              11.60     6200.00
04779              12.40     6400.00
04780              11.40     6200.00
04781              11.40     6200.00
04782              11.80     6400.00
04783              12.20     6200.00
04784              11.00     6200.00
04785              11.40     6400.00
04786              12.20     6200.00
04787              11.40     6200.00
04788              10.60     6200.00
04789              11.40     6200.00
04790              11.40     6200.00
04791              10.20     6200.00
04792              10.60     6000.00
04793              10.60     6200.00
04794              10.00     6200.00
04795               9.80     6400.00
04796               9.80     6200.00
04797               9.40     6200.00
04798               9.40     6400.00
04799               9.40     6200.00
04800               8.60     6200.00
04801               8.80     6200.00
04802               9.00     6400.00
04803               8.60     6200.00
04804               8.80     6400.00
04805               8.40     6200.00
04806               8.20     6200.00
04807               8.20     6200.00
04808               7.60     6200.00
04809               7.40     6200.00
04810               7.60     6200.00
04811               7.00     6200.00
04812               7.40     6000.00
04813               7.60     6200.00
04814               6.80     6000.00
04815               6.60     6200.00
04816               7.40     6200.00
04817               7.00     6200.00
04818               6.20     6200.00
04819               6.80     6200.00
04820               6.80     6000.00
04821               6.20     6200.00
04822               6.00     6000.00
04823               6.80     6000.00
04824               6.20     6200.00
04825               5.20     6000.00
04826               6.20     6000.00
04827               5.80     6000.00
04828               5.80     6000.00
04829               5.80     5800.00
04830               5.40     6000.00
04831               5.20     6000.00
04832               5.40     6000.00
04833               5.80     6000.00
04834               5.20     6000.00
04835               5.20     6000.00
04836               5.40     6000.00
04837               5.20     6000.00
04838               5.20     6000.00
04839               5.00     5800.00
04840               5.20     5800.00
04841               5.00     5600.00
04842               4.40     5800.00
04843               4.40     5800.00
04844               5.00     5600.00
04845               4.60     5600.00
04846               4.40     5600.00
04847               5.00     5800.00
04848               4.60     5800.00
04849               4.40     5600.00
04850               4.60     5600.00
04851               4.40     5600.00
04852               4.20     5600.00
04853               4.20     5600.00
04854               4.20     5600.00
04855               4.20     5600.00
04856               3.80     5600.00
04857               4.20     5600.00
04858               4.20     5600.00
04859               3.80     5600.00
04860               3.80     5400.00
04861               4.20     5400.00
04862               3.80     5600.00
04863               3.60     5600.00
04864               3.80     5400.00
04865               3.60     5400.00
04866               3.60     5400.00
04867               3.60     5600.00
04868               3.60     5400.00
04869               3.60     5400.00
04870               3.60     5200.00
04871               3.60     5200.00
04872               3.60     5200.00
04873               3.40     5200.00
04874               3.40     5200.00
04875               2.80     5200.00
04876               2.60     5200.00
04877               3.40     5200.00
04878               2.80     5200.00
04879               2.80     5000.00
04880               3.00     5000.00
04881               2.80     5000.00
04882               3.00     5200.00
04883               3.00     5000.00
04884               2.60     4800.00
04885               2.60     4800.00
04886               2.60     4800.00
04887               2.60     4800.00
04888               2.60     4800.00
04889               2.40     4800.00
04890               2.60     4800.00
04891               2.60     4800.00
04892               2.20     4800.00
04893               2.20     4800.00
04894               2.80     4600.00
04895               2.40     4800.00
04896               1.80     4800.00
04897               2.60     4800.00
04898               2.20     4600.00
04899               2.00     4800.00
04900               2.60     4600.00
04901               2.00     4400.00
04902               1.80     4600.00
04903               2.00     4600.00
04904               2.40     4400.00
04905               2.00     4400.00
04906               2.00     4400.00
04907               2.20     4400.00
04908               2.00     4400.00
04909               1.80     4400.00
04910               2.00     4400.00
04911               2.20     4400.00
04912               1.80     4400.00
04913               1.80     4400.00
04914               2.20     4400.00
04915               1.80     4000.00
04916               1.80     4000.00
04917               1.80     4400.00
04918               1.80     4200.00
04919               1.40     4000.00
04920               1.80     4000.00
04921               1.80     4200.00
04922               1.60     4000.00
04923               1.80     4000.00
04924               1.80     4000.00
04925               1.40     4000.00
04926               2.00     4000.00
04927               1.40     3800.00
04928               1.60     3800.00
04929               1.80     3800.00
04930               1.40     3800.00
04931               1.20     3600.00
04932               1.40     3600.00
04933               1.80     3600.00
04934               1.20     3800.00
04935               1.20     3400.00
04936               1.40     3600.00
04937               1.20     3600.00
04938               1.00     3400.00
04939               1.00     3400.00
04940               1.40     3600.00
04941               1.00     3600.00
04942               0.60     3400.00
04943               1.20     3200.00
04944               1.20     3200.00
04945               1.00     3200.00
04946               1.20     3200.00
04947               1.00     3200.00
04948               0.60     3200.00
04949               1.00     3200.00
04950               1.00     3200.00
04951               0.80     3000.00
04952               0.60     3200.00
04953               1.00     3200.00
04954               1.00     3000.00
04955               0.60     3000.00
04956               0.40     3000.00
04957               1.00     2800.00
04958               1.00     2800.00
04959               0.40     2800.00
04960               1.00     2800.00
04961               1.00     2800.00
04962               0.40     2800.00
04963               0.40     2600.00
04964               0.60     2800.00
04965               1.00     2800.00
04966               0.60     2800.00
04967               0.40     2400.00
04968               0.60     2400.00
04969               0.40     2400.00
04970               0.40     2400.00
04971               0.40     2400.00
04972               0.20     2400.00
04973               0.60     2400.00
04974               0.60     2400.00
04975               0.40     2400.00
04976               0.40     2200.00
04977               0.60     2200.00
04978               0.60     2200.00
04979               0.40     2200.00
04980               0.40     2000.00
04981               0.20     2000.00
04982               0.40     2000.00
04983               0.20     2000.00
04984               0.20     2000.00
04985               0.60     2000.00
04986               0.60     2000.00
04987               0.20     1800.00
04988               0.40     1800.00
04989               0.40     1800.00
04990               0.40     1800.00
04991               0.20     1600.00
04992               0.00     1600.00
04993               0.60     1800.00
04994               0.40     1600.00
04995               0.40     1600.00
04996              -0.20     1800.00
04997               0.40     1400.00
04998               0.20     1600.00
04999               0.20     1400.00
05000              -0.20     1400.00
