Unit:(mV)
                     CH1         CH2
Frequency              ?  97.850 kHz
00001              -0.20    -2200.00
00002               6.00    -2400.00
00003              -6.60    -2200.00
00004              -5.20    -2400.00
00005               5.80    -2400.00
00006              -1.00    -2400.00
00007              -6.80    -2400.00
00008               1.40    -2600.00
00009               2.00    -2600.00
00010              -6.20    -2600.00
00011              -2.00    -2400.00
00012               3.60    -2600.00
00013              -3.60    -2600.00
00014              -4.60    -2800.00
00015               2.20    -2600.00
00016              -1.00    -2600.00
00017              -5.40    -2800.00
00018              -0.20    -2800.00
00019               1.20    -2800.00
00020              -4.40    -2600.00
00021              -2.60    -2800.00
00022               1.40    -2800.00
00023              -3.40    -2800.00
00024              -4.20    -2800.00
00025               1.00    -2800.00
00026              -0.60    -2800.00
00027              -4.20    -3000.00
00028              -1.80    -3000.00
00029              -0.60    -3000.00
00030              -3.00    -3200.00
00031              -2.20    -3000.00
00032              -0.60    -3000.00
00033              -2.20    -3200.00
00034              -2.60    -3200.00
00035              -1.20    -3200.00
00036              -1.80    -3200.00
00037              -2.40    -3200.00
00038              -2.00    -3200.00
00039              -1.80    -3200.00
00040              -2.20    -3200.00
00041              -2.00    -3400.00
00042              -1.80    -3200.00
00043              -2.20    -3400.00
00044              -2.20    -3400.00
00045              -1.80    -3400.00
00046              -2.20    -3400.00
00047              -2.60    -3400.00
00048              -2.20    -3400.00
00049              -2.20    -3600.00
00050              -2.20    -3600.00
00051              -2.20    -3600.00
00052              -2.00    -3600.00
00053              -2.20    -3600.00
00054              -2.40    -3600.00
00055              -1.40    -3600.00
00056              -2.20    -3600.00
00057              -2.80    -3600.00
00058              -2.00    -3600.00
00059              -2.20    -3800.00
00060              -2.80    -3600.00
00061              -2.60    -3600.00
00062              -2.20    -3800.00
00063              -2.40    -3600.00
00064              -2.80    -3800.00
00065              -2.60    -4000.00
00066              -2.20    -3800.00
00067              -3.00    -4000.00
00068              -2.80    -4000.00
00069              -1.80    -4000.00
00070              -3.00    -4000.00
00071              -3.40    -4000.00
00072              -2.00    -4000.00
00073              -2.80    -4000.00
00074              -3.60    -4000.00
00075              -2.20    -4200.00
00076              -2.20    -4000.00
00077              -3.60    -4000.00
00078              -3.00    -4200.00
00079              -2.40    -4000.00
00080              -3.40    -4200.00
00081              -3.60    -4200.00
00082              -3.00    -4000.00
00083              -2.40    -4200.00
00084              -3.80    -4200.00
00085              -3.40    -4200.00
00086              -3.00    -4200.00
00087              -3.60    -4200.00
00088              -3.40    -4200.00
00089              -3.40    -4400.00
00090              -3.00    -4200.00
00091              -3.00    -4200.00
00092              -4.20    -4400.00
00093              -3.80    -4400.00
00094              -3.80    -4400.00
00095              -3.60    -4200.00
00096              -3.80    -4400.00
00097              -3.40    -4400.00
00098              -4.20    -4400.00
00099              -3.60    -4400.00
00100              -3.20    -4400.00
00101              -4.40    -4400.00
00102              -3.80    -4400.00
00103              -4.40    -4600.00
00104              -4.40    -4600.00
00105              -3.60    -4600.00
00106              -4.20    -4400.00
00107              -4.40    -4400.00
00108              -3.80    -4400.00
00109              -3.80    -4600.00
00110              -4.40    -4600.00
00111              -4.40    -4600.00
00112              -3.60    -4600.00
00113              -4.60    -4600.00
00114              -4.60    -4400.00
00115              -4.20    -4800.00
00116              -4.40    -4600.00
00117              -4.60    -4800.00
00118              -4.60    -4400.00
00119              -4.60    -4600.00
00120              -4.60    -4600.00
00121              -5.00    -4800.00
00122              -4.60    -4600.00
00123              -4.60    -4800.00
00124              -5.40    -4600.00
00125              -4.60    -4800.00
00126              -4.80    -4600.00
00127              -6.00    -4800.00
00128              -5.00    -4800.00
00129              -4.60    -4600.00
00130              -6.00    -4800.00
00131              -5.40    -4800.00
00132              -4.60    -4600.00
00133              -5.40    -4800.00
00134              -6.00    -4800.00
00135              -5.00    -4800.00
00136              -5.80    -4600.00
00137              -6.20    -4800.00
00138              -5.40    -4800.00
00139              -5.80    -4600.00
00140              -6.60    -4800.00
00141              -5.80    -5000.00
00142              -5.80    -4800.00
00143              -6.80    -4800.00
00144              -6.00    -5000.00
00145              -6.00    -5000.00
00146              -6.80    -5000.00
00147              -6.80    -5000.00
00148              -6.20    -5000.00
00149              -7.00    -5000.00
00150              -7.00    -5000.00
00151              -6.60    -4800.00
00152              -7.40    -5000.00
00153              -7.60    -5000.00
00154              -6.60    -4600.00
00155              -7.40    -5000.00
00156              -7.60    -5000.00
00157              -7.40    -5000.00
00158              -7.40    -5000.00
00159              -7.60    -5000.00
00160              -7.60    -5000.00
00161              -7.60    -5000.00
00162              -7.60    -5000.00
00163              -7.80    -5000.00
00164              -7.80    -5200.00
00165              -8.20    -4600.00
00166              -7.80    -5000.00
00167              -8.20    -5000.00
00168              -8.60    -5000.00
00169              -8.60    -5000.00
00170              -8.40    -5000.00
00171              -9.00    -5000.00
00172              -8.60    -5000.00
00173              -8.60    -5000.00
00174              -8.60    -5000.00
00175              -9.00    -5000.00
00176              -8.60    -5200.00
00177              -9.00    -5000.00
00178              -9.00    -5000.00
00179              -8.60    -5000.00
00180              -9.20    -5000.00
00181              -9.20    -5000.00
00182              -9.00    -5000.00
00183              -9.20    -5000.00
00184              -9.20    -5000.00
00185              -9.20    -5000.00
00186              -9.20    -5000.00
00187              -9.20    -5000.00
00188              -8.60    -5200.00
00189              -9.20    -5000.00
00190              -9.00    -5000.00
00191              -8.40    -5000.00
00192              -8.60    -5000.00
00193              -8.60    -5000.00
00194              -7.80    -5000.00
00195              -8.20    -5000.00
00196              -8.20    -5000.00
00197              -7.80    -5000.00
00198              -7.60    -5000.00
00199              -8.20    -5200.00
00200              -7.80    -5000.00
00201              -7.20    -5000.00
00202              -7.40    -5000.00
00203              -7.60    -5000.00
00204              -7.00    -5000.00
00205              -6.80    -4800.00
00206              -7.00    -4800.00
00207              -7.80    -5000.00
00208              -6.80    -4800.00
00209              -6.00    -5000.00
00210              -7.00    -5000.00
00211              -6.60    -5000.00
00212              -6.40    -4600.00
00213              -7.20    -5000.00
00214              -6.60    -5000.00
00215              -6.00    -4800.00
00216              -6.80    -5000.00
00217              -6.00    -5000.00
00218              -5.80    -5000.00
00219              -6.80    -5000.00
00220              -6.20    -5000.00
00221              -5.40    -4600.00
00222              -6.80    -4600.00
00223              -5.60    -5000.00
00224              -3.80    -4800.00
00225              -6.20    -4800.00
00226              -6.80    -4600.00
00227              -4.60    -4800.00
00228              -5.80    -4800.00
00229              -6.00    -4800.00
00230              -4.60    -4600.00
00231              -4.60    -4600.00
00232              -5.60    -4800.00
00233              -5.20    -4600.00
00234              -5.20    -4800.00
00235              -5.20    -4600.00
00236              -4.60    -4800.00
00237              -5.00    -4600.00
00238              -4.60    -4600.00
00239              -4.40    -4800.00
00240              -5.00    -4600.00
00241              -5.00    -4600.00
00242              -4.20    -4600.00
00243              -4.40    -4800.00
00244              -5.20    -4600.00
00245              -4.20    -4800.00
00246              -4.20    -4600.00
00247              -5.00    -4600.00
00248              -4.40    -4600.00
00249              -3.80    -4600.00
00250              -4.40    -4600.00
00251              -4.60    -4400.00
00252              -3.60    -4600.00
00253              -3.80    -4600.00
00254              -4.40    -4600.00
00255              -3.60    -4400.00
00256              -3.60    -4600.00
00257              -3.80    -4400.00
00258              -3.80    -4400.00
00259              -3.80    -4400.00
00260              -3.80    -4600.00
00261              -3.80    -4400.00
00262              -3.80    -4400.00
00263              -3.80    -4400.00
00264              -3.80    -4400.00
00265              -3.60    -4400.00
00266              -3.60    -4400.00
00267              -3.60    -4400.00
00268              -3.00    -4400.00
00269              -3.20    -4400.00
00270              -3.40    -4200.00
00271              -3.00    -4400.00
00272              -3.40    -4400.00
00273              -3.40    -4200.00
00274              -3.60    -4200.00
00275              -2.80    -4200.00
00276              -3.40    -4200.00
00277              -3.40    -4200.00
00278              -3.40    -4200.00
00279              -3.00    -4200.00
00280              -3.40    -4200.00
00281              -3.00    -4000.00
00282              -2.80    -4000.00
00283              -2.80    -4200.00
00284              -3.20    -4000.00
00285              -2.80    -4000.00
00286              -3.00    -4200.00
00287              -3.40    -4000.00
00288              -2.80    -4000.00
00289              -2.80    -4000.00
00290              -3.40    -4000.00
00291              -2.80    -4000.00
00292              -3.00    -4000.00
00293              -2.60    -4000.00
00294              -2.80    -4000.00
00295              -3.40    -4000.00
00296              -2.20    -3800.00
00297              -2.20    -3800.00
00298              -3.40    -3600.00
00299              -2.20    -4000.00
00300              -1.80    -3600.00
00301              -3.00    -3800.00
00302              -3.00    -3600.00
00303              -2.00    -3600.00
00304              -2.60    -3800.00
00305              -2.80    -3600.00
00306              -2.20    -3600.00
00307              -2.20    -3600.00
00308              -2.20    -3600.00
00309              -2.60    -3600.00
00310              -2.00    -3600.00
00311              -2.40    -3600.00
00312              -2.40    -3400.00
00313              -2.00    -3400.00
00314              -2.60    -3600.00
00315              -1.40    -3400.00
00316              -1.80    -3400.00
00317              -3.00    -3400.00
00318              -1.40    -3400.00
00319              -2.20    -3400.00
00320              -2.20    -3400.00
00321              -2.20    -3200.00
00322              -2.20    -3200.00
00323              -1.00    -3200.00
00324              -2.60    -3200.00
00325              -2.40    -3200.00
00326              -1.40    -3200.00
00327              -1.80    -3400.00
00328              -2.20    -3200.00
00329              -2.00    -3200.00
00330              -1.20    -3200.00
00331              -1.80    -3200.00
00332              -2.60    -3000.00
00333              -1.20    -3000.00
00334              -1.40    -2800.00
00335              -2.20    -2800.00
00336              -1.80    -3000.00
00337              -1.20    -2800.00
00338              -2.00    -3000.00
00339              -2.40    -2800.00
00340              -1.20    -2800.00
00341              -1.80    -2800.00
00342              -2.80    -2800.00
00343              -1.00    -2800.00
00344              -1.40    -2800.00
00345              -2.20    -2800.00
00346              -1.20    -2600.00
00347              -1.80    -2800.00
00348              -1.80    -2600.00
00349              -1.20    -2600.00
00350              -1.80    -2600.00
00351              -2.20    -2600.00
00352              -1.20    -2600.00
00353              -1.80    -2400.00
00354              -1.80    -2400.00
00355              -1.40    -2400.00
00356              -1.60    -2400.00
00357              -1.40    -2400.00
00358              -1.20    -2400.00
00359              -1.20    -2400.00
00360              -1.80    -2200.00
00361              -1.40    -2400.00
00362              -1.00    -2400.00
00363              -1.40    -2200.00
00364              -1.80    -2200.00
00365              -1.00    -2200.00
00366              -1.20    -2200.00
00367              -1.80    -2200.00
00368              -1.20    -2200.00
00369              -1.00    -2000.00
00370              -1.80    -2000.00
00371              -1.40    -2000.00
00372              -0.80    -2000.00
00373              -1.00    -2000.00
00374              -1.40    -2000.00
00375              -1.20    -2000.00
00376              -1.00    -2000.00
00377              -1.40    -1800.00
00378              -1.20    -1800.00
00379              -0.60    -1800.00
00380              -1.00    -2000.00
00381              -1.00    -1800.00
00382              -1.20    -1800.00
00383              -1.20    -1800.00
00384              -1.20    -1600.00
00385              -1.00    -1600.00
00386              -0.60    -1600.00
00387              -1.00    -1600.00
00388              -1.00    -1600.00
00389              -0.80    -1600.00
00390              -1.00    -1600.00
00391              -1.40    -1200.00
00392              -0.40    -1600.00
00393              -0.60    -1400.00
00394              -1.20    -1400.00
00395              -0.60    -1200.00
00396              -1.00    -1400.00
00397              -1.00    -1400.00
00398              -1.00    -1200.00
00399              -1.00    -1200.00
00400              -0.60    -1200.00
00401              -0.60    -1000.00
00402              -0.60    -1000.00
00403              -0.60    -1200.00
00404              -0.60    -1000.00
00405              -1.00    -1000.00
00406              -1.00     -800.00
00407              -0.60    -1000.00
00408              -0.60    -1000.00
00409              -1.00    -1000.00
00410              -1.00     -800.00
00411              -0.40    -1000.00
00412              -0.60     -800.00
00413              -1.00     -800.00
00414              -0.60     -800.00
00415              -0.60     -800.00
00416              -1.00     -600.00
00417              -1.00     -800.00
00418              -0.60     -800.00
00419              -1.00     -800.00
00420              -1.00     -600.00
00421              -0.40     -400.00
00422              -0.60     -600.00
00423              -0.80     -400.00
00424              -0.40     -400.00
00425              -0.40     -400.00
00426              -0.60     -400.00
00427              -0.60     -400.00
00428              -1.20     -200.00
00429              -0.40     -200.00
00430              -1.00     -200.00
00431              -1.20     -200.00
00432              -0.20     -200.00
00433              -0.60     -200.00
00434              -0.80     -200.00
00435              -0.20        0.00
00436              -1.00        0.00
00437               0.20     -200.00
00438              -0.40        0.00
00439               0.00        0.00
00440               0.00        0.00
00441              -0.60        0.00
00442              -0.20        0.00
00443               1.00        0.00
00444              -0.60        0.00
00445              -1.40      200.00
00446               1.80      200.00
00447               5.20      400.00
00448              10.20      400.00
00449             -12.40      400.00
00450             -25.00      200.00
00451              23.40      400.00
00452              25.00      400.00
00453             -25.00      400.00
00454             -25.00      600.00
00455              25.00      400.00
00456              25.00      600.00
00457             -25.00      600.00
00458               0.40      400.00
00459              25.00      800.00
00460             -25.00      400.00
00461             -25.00      800.00
00462              25.00      600.00
00463              25.00      800.00
00464             -25.00      800.00
00465               3.00      800.00
00466              25.00      800.00
00467             -25.00      800.00
00468             -25.00     1200.00
00469              25.00      800.00
00470              25.00     1000.00
00471             -25.00     1200.00
00472              21.00     1000.00
00473              25.00     1000.00
00474             -25.00     1200.00
00475             -25.00     1200.00
00476              25.00     1000.00
00477              10.20     1200.00
00478             -25.00     1200.00
00479              18.60     1200.00
00480              25.00     1400.00
00481             -25.00     1400.00
00482             -21.60     1200.00
00483              25.00     1400.00
00484              -4.40     1600.00
00485             -25.00     1400.00
00486              25.00     1400.00
00487              25.00     1400.00
00488             -25.00     1600.00
00489               0.60     1600.00
00490              25.00     1800.00
00491             -22.20     1600.00
00492             -19.80     1800.00
00493              25.00     1800.00
00494               0.40     2000.00
00495             -25.00     1800.00
00496              14.80     1800.00
00497              13.80     1800.00
00498             -19.20     2000.00
00499               0.40     2000.00
00500              17.20     2000.00
00501              -7.00     2000.00
00502              -9.40     1800.00
00503              12.20     2000.00
00504               3.60     2000.00
00505             -11.00     2000.00
00506               3.40     2000.00
00507               9.00     2200.00
00508              -6.60     2200.00
00509              -2.80     2200.00
00510               8.80     2000.00
00511              -0.60     2200.00
00512              -5.00     2200.00
00513               5.80     2400.00
00514               3.80     2400.00
00515              -4.60     2400.00
00516               1.40     2200.00
00517               5.80     2400.00
00518              -2.20     2400.00
00519              -2.00     2400.00
00520               5.20     2400.00
00521               1.40     2600.00
00522              -2.60     2400.00
00523               2.60     2400.00
00524               3.40     2600.00
00525              -1.80     2400.00
00526               0.20     2600.00
00527               4.20     2800.00
00528               0.40     2600.00
00529              -1.00     2800.00
00530               3.00     2800.00
00531               2.60     2800.00
00532              -1.20     2800.00
00533               1.20     3000.00
00534               3.60     2800.00
00535               0.20     3000.00
00536              -0.20     2800.00
00537               2.80     3000.00
00538               1.80     3000.00
00539              -0.80     3000.00
00540               2.00     3000.00
00541               2.60     3000.00
00542              -0.20     3000.00
00543               1.20     3000.00
00544               2.60     3000.00
00545               1.00     3000.00
00546               0.40     3000.00
00547               2.40     3200.00
00548               1.80     3200.00
00549               0.60     3200.00
00550               1.80     3000.00
00551               2.00     3200.00
00552               1.00     3200.00
00553               1.00     3200.00
00554               2.00     3200.00
00555               1.60     3400.00
00556               1.00     3200.00
00557               1.80     3400.00
00558               2.00     3600.00
00559               1.40     3600.00
00560               1.60     3400.00
00561               2.20     3600.00
00562               1.80     3600.00
00563               1.20     3600.00
00564               2.00     3600.00
00565               2.00     3600.00
00566               1.40     3600.00
00567               2.00     3600.00
00568               2.40     3600.00
00569               1.80     3600.00
00570               2.00     3800.00
00571               2.40     3600.00
00572               1.80     3800.00
00573               2.00     3800.00
00574               2.20     3800.00
00575               2.20     3800.00
00576               2.20     3800.00
00577               3.00     3800.00
00578               2.00     3800.00
00579               2.20     3800.00
00580               3.00     4000.00
00581               2.00     3800.00
00582               2.20     4000.00
00583               3.00     4000.00
00584               2.20     4000.00
00585               2.20     4000.00
00586               3.40     4000.00
00587               2.80     4000.00
00588               2.00     4000.00
00589               3.40     4000.00
00590               3.00     4000.00
00591               2.40     4000.00
00592               3.00     4000.00
00593               2.80     4200.00
00594               2.80     4200.00
00595               2.80     4200.00
00596               3.20     4200.00
00597               2.80     4200.00
00598               2.60     4200.00
00599               3.40     4200.00
00600               2.80     4000.00
00601               2.80     4000.00
00602               3.20     4000.00
00603               3.00     4200.00
00604               3.20     4400.00
00605               3.60     4400.00
00606               3.40     4200.00
00607               3.00     4200.00
00608               3.40     4400.00
00609               3.60     4400.00
00610               3.40     4400.00
00611               3.40     4400.00
00612               3.40     4400.00
00613               3.40     4400.00
00614               3.80     4400.00
00615               3.60     4400.00
00616               3.40     4400.00
00617               3.80     4600.00
00618               4.20     4600.00
00619               3.60     4400.00
00620               4.20     4400.00
00621               3.80     4400.00
00622               3.40     4400.00
00623               4.60     4600.00
00624               4.20     4400.00
00625               3.80     4600.00
00626               4.60     4600.00
00627               4.20     4600.00
00628               3.80     4600.00
00629               5.00     4800.00
00630               4.20     4600.00
00631               4.40     4400.00
00632               5.00     4600.00
00633               4.60     4600.00
00634               4.20     4800.00
00635               4.40     4600.00
00636               5.20     4800.00
00637               4.40     4800.00
00638               5.00     4600.00
00639               5.80     4600.00
00640               5.20     4800.00
00641               5.00     4600.00
00642               5.80     4600.00
00643               5.60     4800.00
00644               4.80     4800.00
00645               5.40     4800.00
00646               5.80     4800.00
00647               5.80     4800.00
00648               5.40     4600.00
00649               5.80     4800.00
00650               6.00     4800.00
00651               6.00     4800.00
00652               5.80     4800.00
00653               6.20     4800.00
00654               6.20     4800.00
00655               5.80     4800.00
00656               6.20     5000.00
00657               6.80     4800.00
00658               6.00     4800.00
00659               6.20     4800.00
00660               6.80     4800.00
00661               6.60     5000.00
00662               6.60     4800.00
00663               7.00     5200.00
00664               7.40     4800.00
00665               6.60     4800.00
00666               7.00     5000.00
00667               7.40     4800.00
00668               6.80     4800.00
00669               7.20     5000.00
00670               7.80     4800.00
00671               7.60     5200.00
00672               7.20     4800.00
00673               7.80     5000.00
00674               7.40     5000.00
00675               7.40     5200.00
00676               8.20     5000.00
00677               7.80     5200.00
00678               7.60     5000.00
00679               8.40     5000.00
00680               7.60     5000.00
00681               8.40     5000.00
00682               8.60     4800.00
00683               8.00     5000.00
00684               8.60     5000.00
00685               8.60     4800.00
00686               8.20     5000.00
00687               8.60     5000.00
00688               8.40     4800.00
00689               8.60     5200.00
00690               8.60     5000.00
00691               8.60     5000.00
00692               9.00     4800.00
00693               9.00     5000.00
00694               9.00     5000.00
00695               9.00     5200.00
00696               8.60     5200.00
00697               9.00     5000.00
00698               9.00     5200.00
00699               8.60     5000.00
00700               9.00     5200.00
00701               8.60     5200.00
00702               8.40     5200.00
00703               8.60     4800.00
00704               8.40     4800.00
00705               7.80     5000.00
00706               8.20     5000.00
00707               8.20     5000.00
00708               7.80     5000.00
00709               8.20     4800.00
00710               7.40     4800.00
00711               7.60     4800.00
00712               7.80     4800.00
00713               7.40     5000.00
00714               7.40     4800.00
00715               7.40     4800.00
00716               6.80     5200.00
00717               6.80     4800.00
00718               6.80     4800.00
00719               6.80     4800.00
00720               6.20     5000.00
00721               6.60     5000.00
00722               6.40     4800.00
00723               6.20     4800.00
00724               6.40     4800.00
00725               6.40     4800.00
00726               6.20     5000.00
00727               6.20     4800.00
00728               6.20     4800.00
00729               5.80     4800.00
00730               5.80     4800.00
00731               5.80     4800.00
00732               5.40     4800.00
00733               5.40     4800.00
00734               5.40     4800.00
00735               5.40     4800.00
00736               5.20     4800.00
00737               5.40     4800.00
00738               5.00     4800.00
00739               5.20     4800.00
00740               5.20     4800.00
00741               4.60     4800.00
00742               5.00     4800.00
00743               5.00     4800.00
00744               4.40     4800.00
00745               4.60     4800.00
00746               4.80     4800.00
00747               4.40     4800.00
00748               4.60     4600.00
00749               4.60     4800.00
00750               4.20     4600.00
00751               4.40     4600.00
00752               4.40     4600.00
00753               4.20     4600.00
00754               4.20     4600.00
00755               3.80     4600.00
00756               4.20     4600.00
00757               4.20     4600.00
00758               4.20     4600.00
00759               4.00     4600.00
00760               4.20     4600.00
00761               3.60     4600.00
00762               3.20     4400.00
00763               3.60     4400.00
00764               3.60     4400.00
00765               3.60     4600.00
00766               4.40     4400.00
00767               4.40     4400.00
00768               4.20     4400.00
00769               3.80     4400.00
00770               3.60     4400.00
00771               2.60     4400.00
00772               2.20     4400.00
00773               2.80     4400.00
00774               2.60     4400.00
00775               3.80     4400.00
00776               4.60     4200.00
00777               4.40     4400.00
00778               4.40     4400.00
00779               3.40     4400.00
00780               2.00     4200.00
00781               2.60     4400.00
00782               1.60     4200.00
00783               2.00     4400.00
00784               3.80     4200.00
00785               3.80     4200.00
00786               4.20     4200.00
00787               4.20     4200.00
00788               2.80     4200.00
00789               2.20     4400.00
00790               1.80     4000.00
00791               1.80     4000.00
00792               2.20     4000.00
00793               2.60     4000.00
00794               3.40     4000.00
00795               3.60     4000.00
00796               2.80     4000.00
00797               2.60     4000.00
00798               2.40     4000.00
00799               1.80     3800.00
00800               1.80     4000.00
00801               1.80     4000.00
00802               1.80     3800.00
00803               2.40     4000.00
00804               2.60     3800.00
00805               2.60     3800.00
00806               2.60     3800.00
00807               2.20     3800.00
00808               2.00     4000.00
00809               2.20     3800.00
00810               1.80     3800.00
00811               1.40     3600.00
00812               1.80     3600.00
00813               1.80     3600.00
00814               2.00     3600.00
00815               2.40     3600.00
00816               2.20     3800.00
00817               2.20     3600.00
00818               1.80     3600.00
00819               1.40     3600.00
00820               1.20     3600.00
00821               1.00     3600.00
00822               1.20     3400.00
00823               1.60     3600.00
00824               1.80     3600.00
00825               2.20     3600.00
00826               2.40     3400.00
00827               1.60     3400.00
00828               1.80     3400.00
00829               1.80     3200.00
00830               0.80     3400.00
00831               1.00     3400.00
00832               1.40     3200.00
00833               1.80     3200.00
00834               1.60     3200.00
00835               1.40     3200.00
00836               2.00     3200.00
00837               2.00     3200.00
00838               0.20     3200.00
00839               1.20     3200.00
00840               2.40     3200.00
00841              -0.40     3000.00
00842               1.00     3200.00
00843               3.20     3000.00
00844               0.60     3000.00
00845               1.00     2800.00
00846               2.00     2800.00
00847               1.80     3000.00
00848               0.20     3000.00
00849               0.40     2800.00
00850               2.00     2800.00
00851               1.00     2800.00
00852               1.00     2800.00
00853               1.40     2800.00
00854               1.60     2800.00
00855               1.00     2800.00
00856               1.00     2800.00
00857               1.80     2800.00
00858               0.20     2800.00
00859               0.60     2400.00
00860               1.80     2600.00
00861               0.40     2400.00
00862               0.20     2400.00
00863               1.40     2600.00
00864               1.40     2400.00
00865              -0.20     2400.00
00866               0.40     2400.00
00867               1.80     2400.00
00868              -0.20     2400.00
00869              -0.20     2200.00
00870               1.40     2400.00
00871               1.00     2200.00
00872              -0.20     2400.00
00873               1.20     2200.00
00874               1.60     2200.00
00875               0.60     2000.00
00876               0.00     2200.00
00877               0.20     2200.00
00878               0.40     2000.00
00879               0.20     2000.00
00880               0.40     2000.00
00881               1.00     2000.00
00882               1.00     2200.00
00883               0.80     2000.00
00884               0.40     2000.00
00885               0.20     1800.00
00886               0.40     2000.00
00887               0.40     1800.00
00888              -0.20     1800.00
00889               0.20     1800.00
00890               1.00     1800.00
00891               0.40     1800.00
00892               0.60     1800.00
00893               0.60     1600.00
00894               0.20     1600.00
00895               0.20     1800.00
00896              -0.20     1600.00
00897               0.20     1600.00
00898               0.20     1800.00
00899               0.20     1600.00
00900               0.60     1400.00
00901               1.00     1400.00
00902              -0.20     1400.00
00903               0.20     1400.00
00904               0.40     1200.00
00905               0.20     1400.00
00906              -0.40     1200.00
00907               0.40     1200.00
00908               0.40     1200.00
00909              -0.40     1200.00
00910               0.20     1200.00
00911               0.40     1200.00
00912               0.00     1000.00
00913               0.20     1200.00
00914               0.40     1200.00
00915               0.20     1000.00
00916              -0.40     1000.00
00917               0.20      800.00
00918               0.40      800.00
00919               0.20      800.00
00920              -0.20      800.00
00921               0.40      800.00
00922               0.20      800.00
00923              -0.20      800.00
00924               0.20      800.00
00925               0.20      800.00
00926              -0.20      600.00
00927              -0.60      600.00
00928               0.40      600.00
00929               0.20      600.00
00930              -0.40      600.00
00931              -0.20      400.00
00932              -0.20      400.00
00933              -1.00      400.00
00934              -0.40      400.00
00935              -0.40      400.00
00936              -0.60      400.00
00937               0.20      400.00
00938              -0.40      400.00
00939              -0.60      400.00
00940               0.20      200.00
00941              -1.00      400.00
00942              -0.80        0.00
00943               0.20      200.00
00944              -1.00        0.00
00945              -0.60        0.00
00946               0.40        0.00
00947              -1.20        0.00
00948              -0.60        0.00
00949               1.00        0.00
00950              -0.60        0.00
00951              -1.00     -200.00
00952               0.40     -200.00
00953              -0.60        0.00
00954              -1.20     -200.00
00955               0.20     -200.00
00956              -0.80     -400.00
00957               2.00     -400.00
00958              16.60     -400.00
00959              -4.20     -400.00
00960             -25.00     -400.00
00961              10.80     -400.00
00962              25.00     -400.00
00963             -25.00     -400.00
00964             -25.00     -400.00
00965              25.00     -400.00
00966              25.00     -400.00
00967             -25.00     -800.00
00968             -25.00     -400.00
00969              25.00     -800.00
00970              11.80     -600.00
00971             -25.00     -400.00
00972              25.00     -800.00
00973              25.00     -800.00
00974             -25.00     -800.00
00975             -25.00     -800.00
00976              25.00     -800.00
00977              18.60     -800.00
00978             -25.00     -800.00
00979              25.00    -1000.00
00980              25.00    -1000.00
00981             -25.00     -800.00
00982             -25.00    -1000.00
00983              25.00    -1200.00
00984             -16.60    -1000.00
00985             -25.00    -1200.00
00986              25.00    -1200.00
00987              25.00    -1200.00
00988             -25.00    -1000.00
00989             -13.40    -1400.00
00990              25.00    -1600.00
00991             -12.00    -1200.00
00992             -25.00    -1400.00
00993              25.00    -1600.00
00994              25.00    -1600.00
00995             -25.00    -1400.00
00996              -5.80    -1600.00
00997              25.00    -1600.00
00998             -25.00    -1600.00
00999             -25.00    -1800.00
01000              25.00    -1600.00
01001              -0.60    -1600.00
01002             -25.00    -1800.00
01003              25.00    -1800.00
01004              17.00    -1800.00
01005             -25.00    -1800.00
01006               2.60    -1800.00
01007              21.20    -1800.00
01008             -14.60    -1800.00
01009             -12.20    -2000.00
01010              15.00    -2000.00
01011               1.00    -1800.00
01012             -17.00    -2000.00
01013               4.60    -2000.00
01014              10.60    -2000.00
01015             -14.00    -2000.00
01016              -4.40    -2000.00
01017              11.80    -2000.00
01018              -6.00    -2000.00
01019              -9.20    -2000.00
01020               6.80    -2200.00
01021               1.80    -2200.00
01022             -10.20    -2400.00
01023               1.00    -2400.00
01024               6.00    -2400.00
01025              -7.80    -2400.00
01026              -4.20    -2400.00
01027               6.20    -2400.00
01028              -3.60    -2400.00
01029              -7.00    -2400.00
01030               3.40    -2400.00
01031               1.00    -2600.00
01032              -7.00    -2400.00
01033              -0.60    -2600.00
01034               2.80    -2600.00
01035              -4.60    -2600.00
01036              -4.00    -2600.00
01037               2.80    -2600.00
01038              -1.40    -2800.00
01039              -5.00    -2600.00
01040               1.00    -2800.00
01041               0.20    -2800.00
01042              -4.40    -2600.00
01043              -2.00    -2800.00
01044               1.20    -2800.00
01045              -3.00    -2800.00
01046              -3.40    -3000.00
01047               0.40    -2800.00
01048              -1.20    -2800.00
01049              -3.00    -2800.00
01050              -1.20    -3000.00
01051              -0.60    -2800.00
01052              -2.60    -3000.00
01053              -2.20    -3200.00
01054              -0.60    -3200.00
01055              -1.80    -3200.00
01056              -2.20    -3200.00
01057              -1.40    -3000.00
01058              -2.00    -3200.00
01059              -2.20    -3200.00
01060              -1.80    -3200.00
01061              -2.00    -3400.00
01062              -2.20    -3400.00
01063              -1.80    -3200.00
01064              -2.00    -3400.00
01065              -2.60    -3400.00
01066              -2.20    -3400.00
01067              -1.40    -3400.00
01068              -2.20    -3400.00
01069              -3.00    -3400.00
01070              -2.00    -3600.00
01071              -1.80    -3600.00
01072              -2.80    -3600.00
01073              -2.60    -3600.00
01074              -1.40    -3600.00
01075              -2.60    -3600.00
01076              -2.80    -3600.00
01077              -2.00    -3600.00
01078              -2.20    -3600.00
01079              -3.00    -3600.00
01080              -2.80    -3600.00
01081              -2.00    -3800.00
01082              -2.60    -3600.00
01083              -2.80    -3800.00
01084              -2.00    -3800.00
01085              -2.20    -3800.00
01086              -2.80    -3800.00
01087              -2.80    -4000.00
01088              -2.00    -4000.00
01089              -2.80    -4000.00
01090              -2.80    -4000.00
01091              -2.20    -3800.00
01092              -2.80    -4000.00
01093              -3.00    -4000.00
01094              -2.60    -4000.00
01095              -2.60    -4000.00
01096              -3.00    -4000.00
01097              -3.00    -4200.00
01098              -2.20    -4200.00
01099              -2.80    -4200.00
01100              -3.00    -4200.00
01101              -2.80    -4200.00
01102              -2.80    -4000.00
01103              -3.00    -4200.00
01104              -3.80    -4000.00
01105              -2.20    -4200.00
01106              -3.00    -4200.00
01107              -4.20    -4400.00
01108              -2.60    -4200.00
01109              -2.20    -4200.00
01110              -4.60    -4200.00
01111              -3.40    -4200.00
01112              -2.00    -4200.00
01113              -3.80    -4200.00
01114              -4.20    -4400.00
01115              -2.20    -4400.00
01116              -3.80    -4200.00
01117              -4.20    -4400.00
01118              -2.80    -4400.00
01119              -3.00    -4400.00
01120              -4.40    -4400.00
01121              -3.40    -4400.00
01122              -3.40    -4400.00
01123              -4.60    -4400.00
01124              -4.00    -4400.00
01125              -3.60    -4600.00
01126              -4.40    -4400.00
01127              -4.20    -4600.00
01128              -3.80    -4600.00
01129              -4.20    -4600.00
01130              -4.40    -4600.00
01131              -4.20    -4600.00
01132              -4.40    -4600.00
01133              -4.60    -4600.00
01134              -3.80    -4600.00
01135              -4.80    -4800.00
01136              -5.00    -4600.00
01137              -4.20    -4600.00
01138              -4.40    -4600.00
01139              -4.60    -4600.00
01140              -4.60    -4800.00
01141              -4.80    -4600.00
01142              -4.60    -4800.00
01143              -5.40    -4600.00
01144              -5.20    -4800.00
01145              -4.60    -4600.00
01146              -5.20    -4800.00
01147              -5.20    -4600.00
01148              -4.60    -4600.00
01149              -5.60    -4800.00
01150              -5.20    -4800.00
01151              -4.60    -4800.00
01152              -6.60    -4800.00
01153              -4.80    -4600.00
01154              -5.20    -4800.00
01155              -6.60    -4600.00
01156              -4.20    -4800.00
01157              -6.60    -4800.00
01158              -6.00    -4800.00
01159              -6.20    -4800.00
01160              -5.20    -4800.00
01161              -5.40    -5000.00
01162              -7.00    -4600.00
01163              -6.00    -5000.00
01164              -5.20    -4800.00
01165              -6.80    -5000.00
01166              -8.20    -4800.00
01167              -5.00    -5000.00
01168              -6.00    -4800.00
01169              -8.40    -5000.00
01170              -5.00    -4800.00
01171              -6.60    -5000.00
01172              -8.60    -4800.00
01173              -4.00    -5000.00
01174              -7.40    -5000.00
01175              -8.20    -5000.00
01176              -6.80    -5000.00
01177              -7.40    -5000.00
01178              -6.60    -5000.00
01179              -7.20    -5000.00
01180              -7.60    -5000.00
01181              -6.80    -5000.00
01182              -7.60    -5000.00
01183              -9.20    -4800.00
01184              -6.60    -5000.00
01185              -7.00    -4800.00
01186              -9.80    -5000.00
01187              -7.00    -5000.00
01188              -6.80    -5000.00
01189             -10.00    -5000.00
01190              -8.80    -5000.00
01191              -7.40    -5000.00
01192              -8.60    -5000.00
01193              -9.00    -5000.00
01194              -7.60    -5000.00
01195              -8.60    -5000.00
01196              -9.80    -5000.00
01197              -8.60    -5000.00
01198              -9.00    -5000.00
01199              -9.40    -5000.00
01200              -8.60    -5000.00
01201              -8.40    -5200.00
01202             -10.20    -5000.00
01203              -9.80    -4800.00
01204              -9.00    -5000.00
01205              -9.40    -5000.00
01206              -9.00    -5000.00
01207              -8.20    -5000.00
01208              -9.20    -5000.00
01209              -9.40    -5000.00
01210              -9.20    -5000.00
01211              -9.40    -5200.00
01212              -9.20    -5000.00
01213              -8.60    -5000.00
01214              -8.60    -5000.00
01215              -8.20    -5200.00
01216              -8.40    -5000.00
01217              -8.60    -5000.00
01218              -8.40    -4800.00
01219              -8.60    -5000.00
01220              -8.20    -5000.00
01221              -7.60    -5000.00
01222              -7.00    -5000.00
01223              -7.60    -5000.00
01224              -7.80    -5000.00
01225              -7.40    -5000.00
01226              -7.00    -5200.00
01227              -7.60    -5000.00
01228              -7.00    -5000.00
01229              -6.00    -5000.00
01230              -6.80    -4600.00
01231              -7.00    -5000.00
01232              -6.80    -5000.00
01233              -6.60    -5000.00
01234              -7.00    -5000.00
01235              -6.60    -5000.00
01236              -5.80    -4800.00
01237              -6.00    -4600.00
01238              -6.40    -5000.00
01239              -6.00    -4800.00
01240              -6.00    -5000.00
01241              -6.20    -4600.00
01242              -6.00    -4800.00
01243              -5.40    -5000.00
01244              -5.60    -4800.00
01245              -5.80    -4600.00
01246              -6.00    -4800.00
01247              -5.80    -4800.00
01248              -5.40    -4600.00
01249              -5.60    -4600.00
01250              -5.40    -4800.00
01251              -5.20    -4800.00
01252              -5.20    -4600.00
01253              -5.00    -4600.00
01254              -5.20    -4800.00
01255              -5.40    -4600.00
01256              -5.40    -4800.00
01257              -5.00    -4600.00
01258              -5.20    -4800.00
01259              -5.00    -4800.00
01260              -4.60    -4600.00
01261              -5.00    -4600.00
01262              -5.00    -4600.00
01263              -4.60    -4800.00
01264              -4.60    -4600.00
01265              -5.00    -4800.00
01266              -4.20    -4600.00
01267              -4.40    -4600.00
01268              -5.00    -4400.00
01269              -4.40    -4600.00
01270              -4.20    -4600.00
01271              -4.60    -4400.00
01272              -4.80    -4600.00
01273              -3.80    -4400.00
01274              -4.00    -4600.00
01275              -4.40    -4600.00
01276              -4.00    -4400.00
01277              -3.60    -4800.00
01278              -4.60    -4400.00
01279              -4.20    -4400.00
01280              -3.00    -4600.00
01281              -3.40    -4400.00
01282              -4.40    -4400.00
01283              -3.80    -4400.00
01284              -2.20    -4400.00
01285              -4.40    -4400.00
01286              -5.20    -4400.00
01287              -2.60    -4400.00
01288              -3.00    -4200.00
01289              -4.80    -4400.00
01290              -3.00    -4400.00
01291              -2.20    -4200.00
01292              -4.20    -4400.00
01293              -4.00    -4400.00
01294              -2.60    -4400.00
01295              -3.00    -4200.00
01296              -3.80    -4200.00
01297              -3.00    -4200.00
01298              -2.60    -4200.00
01299              -3.60    -4200.00
01300              -3.00    -4200.00
01301              -2.60    -4200.00
01302              -3.00    -4200.00
01303              -3.00    -4200.00
01304              -2.80    -4400.00
01305              -3.00    -4000.00
01306              -3.60    -4000.00
01307              -2.80    -4000.00
01308              -2.20    -4000.00
01309              -3.60    -4000.00
01310              -2.60    -4000.00
01311              -2.20    -4000.00
01312              -3.00    -4000.00
01313              -3.40    -3800.00
01314              -2.20    -4000.00
01315              -2.60    -4000.00
01316              -3.40    -4000.00
01317              -2.20    -4000.00
01318              -1.80    -3800.00
01319              -3.20    -4000.00
01320              -2.80    -3800.00
01321              -2.00    -3600.00
01322              -2.80    -3600.00
01323              -3.00    -4000.00
01324              -2.20    -3600.00
01325              -2.60    -3600.00
01326              -2.80    -3600.00
01327              -2.40    -3600.00
01328              -2.20    -3600.00
01329              -2.60    -3600.00
01330              -2.20    -3600.00
01331              -2.20    -3600.00
01332              -2.40    -3600.00
01333              -2.20    -3600.00
01334              -2.20    -3600.00
01335              -2.20    -3400.00
01336              -2.60    -3400.00
01337              -2.20    -3600.00
01338              -2.00    -3400.00
01339              -2.40    -3400.00
01340              -2.20    -3400.00
01341              -2.20    -3400.00
01342              -1.80    -3200.00
01343              -2.80    -3400.00
01344              -2.20    -3200.00
01345              -1.60    -3200.00
01346              -2.20    -3200.00
01347              -2.40    -3200.00
01348              -1.40    -3200.00
01349              -2.00    -3200.00
01350              -2.20    -3200.00
01351              -1.80    -3200.00
01352              -1.80    -3200.00
01353              -2.00    -3200.00
01354              -2.00    -3200.00
01355              -2.00    -3000.00
01356              -2.00    -3000.00
01357              -2.00    -3000.00
01358              -1.40    -3000.00
01359              -1.00    -3000.00
01360              -2.00    -2800.00
01361              -2.00    -3000.00
01362              -1.60    -3000.00
01363              -1.80    -2800.00
01364              -1.80    -2800.00
01365              -1.80    -2600.00
01366              -1.20    -2800.00
01367              -1.60    -2600.00
01368              -1.80    -2800.00
01369              -1.80    -2600.00
01370              -1.80    -2600.00
01371              -1.40    -2600.00
01372              -1.40    -2600.00
01373              -1.80    -2600.00
01374              -1.20    -2600.00
01375              -1.20    -2600.00
01376              -1.80    -2400.00
01377              -1.20    -2400.00
01378              -1.20    -2400.00
01379              -1.40    -2400.00
01380              -1.40    -2400.00
01381              -1.40    -2400.00
01382              -1.40    -2400.00
01383              -1.40    -2400.00
01384              -1.40    -2400.00
01385              -1.80    -2400.00
01386              -1.20    -2200.00
01387              -1.20    -2200.00
01388              -1.20    -2000.00
01389              -1.40    -2400.00
01390              -1.20    -2000.00
01391              -1.40    -2000.00
01392              -1.40    -2000.00
01393              -1.20    -2000.00
01394              -1.40    -2000.00
01395              -1.20    -2000.00
01396              -1.20    -1800.00
01397              -1.40    -1800.00
01398              -1.00    -2000.00
01399              -1.20    -1800.00
01400              -1.40    -1800.00
01401              -1.20    -1800.00
01402              -1.20    -1800.00
01403              -1.40    -1800.00
01404              -1.20    -1800.00
01405              -1.00    -1600.00
01406              -1.00    -1600.00
01407              -1.20    -1600.00
01408              -1.20    -1600.00
01409              -0.80    -1600.00
01410              -1.20    -1600.00
01411              -1.20    -1600.00
01412              -0.60    -1600.00
01413              -1.00    -1400.00
01414              -1.20    -1600.00
01415              -0.80    -1600.00
01416              -1.00    -1400.00
01417              -1.20    -1200.00
01418              -1.00    -1200.00
01419              -0.60    -1200.00
01420              -1.00    -1200.00
01421              -0.60    -1200.00
01422              -0.60    -1200.00
01423              -0.60    -1000.00
01424              -1.00    -1200.00
01425              -0.60    -1000.00
01426              -0.60    -1000.00
01427              -0.80    -1000.00
01428              -0.60    -1000.00
01429              -0.60    -1000.00
01430              -1.00    -1000.00
01431              -0.60     -800.00
01432              -0.60     -800.00
01433              -0.80     -800.00
01434              -0.60     -800.00
01435              -0.60     -800.00
01436              -0.80     -800.00
01437              -0.40     -800.00
01438              -0.60     -800.00
01439              -0.60     -600.00
01440              -0.60     -800.00
01441              -0.80     -400.00
01442              -0.40     -600.00
01443              -0.20     -400.00
01444              -0.80     -400.00
01445              -0.40     -400.00
01446              -0.60     -400.00
01447              -1.00     -400.00
01448              -0.40     -400.00
01449              -0.60     -400.00
01450              -1.20     -400.00
01451               0.40     -400.00
01452              -1.20     -200.00
01453              -0.80     -400.00
01454               0.60     -200.00
01455              -1.00     -200.00
01456              -0.60     -200.00
01457              -0.20     -200.00
01458              -0.60     -200.00
01459              -1.00     -200.00
01460               0.20        0.00
01461              -0.80        0.00
01462              -0.40        0.00
01463               0.20        0.00
01464              -0.60        0.00
01465               0.20        0.00
01466              -0.20      400.00
01467              -1.20      200.00
01468               1.00      200.00
01469               5.20      200.00
01470              10.60      400.00
01471             -14.00      400.00
01472             -25.00      200.00
01473              25.00      400.00
01474              25.00      400.00
01475             -25.00      400.00
01476             -25.00      400.00
01477              25.00      400.00
01478              25.00      600.00
01479             -25.00      600.00
01480               6.60      400.00
01481              25.00      600.00
01482             -25.00      600.00
01483             -25.00      800.00
01484              25.00      600.00
01485              25.00      600.00
01486             -25.00      800.00
01487               9.40      600.00
01488              25.00      800.00
01489             -25.00      800.00
01490             -25.00     1000.00
01491              25.00      800.00
01492              22.40      800.00
01493             -25.00     1200.00
01494              25.00     1000.00
01495              25.00     1000.00
01496             -25.00     1200.00
01497             -25.00     1000.00
01498              25.00     1200.00
01499               6.00     1400.00
01500             -25.00     1200.00
01501              22.60     1200.00
01502              25.00     1400.00
01503             -25.00     1400.00
01504             -18.20     1400.00
01505              25.00     1400.00
01506              -7.80     1400.00
01507             -25.00     1400.00
01508              25.00     1200.00
01509              24.20     1800.00
01510             -25.00     1600.00
01511               3.80     1600.00
01512              25.00     1600.00
01513             -23.80     1800.00
01514             -17.40     1800.00
01515              25.00     1800.00
01516              -2.00     1600.00
01517             -24.20     1800.00
01518              15.80     1800.00
01519              12.40     1800.00
01520             -19.40     1800.00
01521               1.80     1800.00
01522              16.40     2000.00
01523              -8.40     2000.00
01524              -8.60     2000.00
01525              12.20     2000.00
01526               2.60     2000.00
01527             -10.80     2000.00
01528               4.20     2000.00
01529               8.60     2200.00
01530              -6.20     2000.00
01531              -3.40     2200.00
01532               8.80     2200.00
01533              -0.20     2200.00
01534              -6.60     2200.00
01535               5.20     2200.00
01536               5.00     2400.00
01537              -6.00     2200.00
01538              -0.20     2400.00
01539               7.00     2400.00
01540              -2.60     2400.00
01541              -3.60     2400.00
01542               5.80     2400.00
01543               2.00     2600.00
01544              -3.80     2400.00
01545               2.60     2400.00
01546               4.20     2400.00
01547              -2.60     2400.00
01548              -0.40     2600.00
01549               4.60     2800.00
01550              -0.20     2600.00
01551              -1.40     2800.00
01552               3.00     2600.00
01553               2.60     2800.00
01554              -1.40     2800.00
01555               1.20     2800.00
01556               3.40     2800.00
01557               0.20     2800.00
01558              -0.20     2800.00
01559               2.80     2800.00
01560               1.80     2800.00
01561              -0.40     3000.00
01562               2.00     3000.00
01563               2.60     3000.00
01564               0.20     3000.00
01565               1.40     3200.00
01566               2.40     3000.00
01567               1.00     3200.00
01568               1.20     3200.00
01569               2.20     3200.00
01570               1.60     3200.00
01571               1.20     3200.00
01572               2.00     3200.00
01573               2.00     3200.00
01574               1.00     3200.00
01575               1.80     3200.00
01576               2.20     3400.00
01577               1.20     3200.00
01578               1.80     3400.00
01579               2.60     3400.00
01580               1.80     3400.00
01581               1.20     3400.00
01582               2.20     3400.00
01583               2.00     3600.00
01584               1.20     3600.00
01585               1.80     3600.00
01586               2.20     3600.00
01587               1.40     3600.00
01588               1.40     3600.00
01589               2.20     3600.00
01590               2.60     3600.00
01591               1.00     3600.00
01592               2.20     3600.00
01593               3.20     3600.00
01594               1.00     3800.00
01595               1.20     3800.00
01596               3.40     3600.00
01597               2.60     3600.00
01598               0.60     3600.00
01599               2.60     3800.00
01600               3.00     3800.00
01601               0.80     3800.00
01602               2.60     3800.00
01603               4.20     3800.00
01604               0.40     4000.00
01605               1.20     3800.00
01606               4.60     4000.00
01607               2.00     4000.00
01608               1.00     4000.00
01609               4.20     4000.00
01610               3.00     4000.00
01611               1.20     4000.00
01612               2.80     4000.00
01613               3.60     4000.00
01614               2.20     4000.00
01615               2.00     4000.00
01616               3.60     4000.00
01617               3.00     4200.00
01618               2.20     4000.00
01619               2.80     4200.00
01620               4.20     4200.00
01621               2.80     4200.00
01622               2.60     4400.00
01623               3.60     4000.00
01624               3.00     4400.00
01625               2.60     4400.00
01626               3.80     4200.00
01627               3.80     4400.00
01628               2.60     4400.00
01629               3.60     4400.00
01630               4.20     4400.00
01631               3.00     4400.00
01632               3.00     4400.00
01633               4.20     4400.00
01634               3.60     4400.00
01635               2.80     4400.00
01636               4.20     4400.00
01637               4.60     4400.00
01638               3.00     4400.00
01639               3.60     4400.00
01640               4.40     4400.00
01641               3.80     4600.00
01642               3.60     4400.00
01643               4.40     4600.00
01644               3.80     4400.00
01645               3.80     4600.00
01646               4.20     4600.00
01647               4.20     4600.00
01648               4.20     4600.00
01649               4.20     4600.00
01650               4.20     4600.00
01651               4.60     4600.00
01652               4.20     4600.00
01653               4.40     4800.00
01654               5.00     4600.00
01655               4.40     4600.00
01656               4.40     4600.00
01657               5.00     4800.00
01658               4.40     4600.00
01659               4.80     4800.00
01660               5.20     4600.00
01661               5.00     4600.00
01662               4.60     4800.00
01663               5.20     4600.00
01664               5.20     4800.00
01665               5.20     4800.00
01666               5.40     4600.00
01667               5.40     4600.00
01668               5.20     4800.00
01669               5.20     4800.00
01670               5.80     4800.00
01671               5.80     4800.00
01672               5.40     4800.00
01673               5.80     4800.00
01674               6.20     4800.00
01675               5.20     4800.00
01676               6.00     4800.00
01677               7.00     4800.00
01678               5.40     4800.00
01679               6.20     5000.00
01680               7.40     4800.00
01681               5.80     5000.00
01682               6.20     4800.00
01683               7.60     4800.00
01684               6.40     4800.00
01685               6.20     4800.00
01686               7.60     5000.00
01687               7.00     4800.00
01688               6.20     5000.00
01689               7.80     4800.00
01690               7.80     5000.00
01691               6.60     4800.00
01692               7.40     4800.00
01693               8.20     5000.00
01694               7.00     4800.00
01695               7.60     5000.00
01696               8.20     4800.00
01697               7.80     5000.00
01698               7.60     5200.00
01699               8.40     5000.00
01700               8.40     5000.00
01701               8.20     5000.00
01702               8.20     5000.00
01703               8.40     5000.00
01704               8.40     4800.00
01705               8.40     4800.00
01706               8.40     4800.00
01707               8.40     5200.00
01708               8.40     5000.00
01709               8.60     5000.00
01710               8.80     4800.00
01711               8.80     5000.00
01712               8.60     5000.00
01713               9.00     5000.00
01714               9.00     4800.00
01715               8.60     5000.00
01716               9.00     5000.00
01717               9.20     5200.00
01718               8.60     5200.00
01719               8.60     5200.00
01720               9.20     5200.00
01721               8.40     5200.00
01722               8.20     5200.00
01723               9.00     5200.00
01724               8.40     5000.00
01725               7.60     4800.00
01726               8.40     5000.00
01727               8.20     4800.00
01728               7.40     5000.00
01729               7.80     5200.00
01730               8.20     5000.00
01731               7.40     5000.00
01732               7.60     4800.00
01733               7.60     5200.00
01734               7.40     5000.00
01735               6.80     5000.00
01736               7.20     5000.00
01737               7.20     5000.00
01738               6.80     5000.00
01739               6.80     5000.00
01740               7.00     4800.00
01741               6.20     5200.00
01742               6.20     5000.00
01743               6.80     4800.00
01744               6.60     4800.00
01745               5.80     5000.00
01746               6.20     4800.00
01747               6.80     4800.00
01748               6.00     4800.00
01749               5.20     4800.00
01750               6.60     4800.00
01751               6.40     4800.00
01752               5.20     4800.00
01753               5.40     4800.00
01754               6.60     4800.00
01755               5.40     4800.00
01756               5.00     5000.00
01757               6.00     4800.00
01758               5.40     4800.00
01759               5.00     4800.00
01760               5.40     4800.00
01761               5.20     4800.00
01762               5.00     4800.00
01763               5.00     4800.00
01764               5.20     4800.00
01765               5.20     4800.00
01766               4.60     4800.00
01767               5.00     4800.00
01768               5.00     4800.00
01769               4.40     4800.00
01770               4.40     4600.00
01771               4.80     4600.00
01772               4.40     4400.00
01773               4.00     4600.00
01774               4.40     4600.00
01775               4.20     4600.00
01776               4.20     4600.00
01777               3.80     4600.00
01778               4.20     4800.00
01779               4.40     4600.00
01780               3.60     4600.00
01781               3.60     4400.00
01782               4.60     4600.00
01783               3.60     4600.00
01784               3.00     4600.00
01785               4.00     4600.00
01786               3.80     4600.00
01787               3.40     4600.00
01788               3.40     4400.00
01789               3.80     4600.00
01790               3.40     4400.00
01791               3.40     4400.00
01792               3.60     4400.00
01793               3.40     4400.00
01794               3.20     4600.00
01795               3.40     4400.00
01796               3.40     4400.00
01797               3.00     4400.00
01798               3.40     4400.00
01799               3.00     4400.00
01800               3.00     4400.00
01801               3.00     4400.00
01802               3.40     4400.00
01803               3.40     4400.00
01804               2.80     4400.00
01805               3.00     4200.00
01806               2.80     4200.00
01807               2.80     4000.00
01808               2.60     4200.00
01809               2.60     4400.00
01810               3.00     4000.00
01811               2.60     4200.00
01812               2.80     4200.00
01813               3.00     4000.00
01814               2.60     4000.00
01815               2.60     4000.00
01816               2.60     4000.00
01817               2.80     4000.00
01818               2.20     4200.00
01819               2.40     4000.00
01820               2.20     4000.00
01821               2.60     4000.00
01822               2.80     4000.00
01823               2.20     3800.00
01824               2.60     3800.00
01825               2.60     3800.00
01826               2.20     3800.00
01827               2.00     3800.00
01828               2.40     4000.00
01829               2.60     3800.00
01830               2.00     3800.00
01831               2.20     3800.00
01832               2.20     3600.00
01833               2.00     3800.00
01834               2.00     3800.00
01835               2.00     3600.00
01836               2.00     3600.00
01837               1.80     3600.00
01838               2.00     3600.00
01839               1.80     3600.00
01840               2.00     3600.00
01841               1.80     3600.00
01842               1.80     3600.00
01843               1.80     3600.00
01844               1.80     3400.00
01845               1.80     3600.00
01846               1.80     3400.00
01847               1.20     3400.00
01848               1.40     3400.00
01849               1.60     3400.00
01850               1.20     3400.00
01851               1.20     3200.00
01852               1.80     3200.00
01853               1.40     3200.00
01854               1.00     3200.00
01855               1.40     3200.00
01856               1.80     3200.00
01857               1.00     3200.00
01858               1.20     3200.00
01859               1.40     3000.00
01860               1.40     3200.00
01861               1.00     3200.00
01862               1.20     3200.00
01863               1.40     3000.00
01864               1.00     3000.00
01865               1.20     3000.00
01866               1.00     3000.00
01867               1.20     3000.00
01868               1.40     2800.00
01869               0.80     3000.00
01870               1.20     3000.00
01871               1.80     2800.00
01872               1.00     2800.00
01873               1.00     2800.00
01874               1.40     2800.00
01875               1.20     2800.00
01876               0.60     2800.00
01877               1.20     2800.00
01878               1.20     2800.00
01879               0.60     2800.00
01880               1.20     2600.00
01881               1.20     2800.00
01882               1.00     2400.00
01883               0.60     2400.00
01884               1.20     2400.00
01885               1.00     2400.00
01886               1.00     2400.00
01887               0.60     2400.00
01888               1.00     2400.00
01889               0.60     2400.00
01890               0.80     2400.00
01891               0.60     2400.00
01892               0.80     2400.00
01893               0.60     2200.00
01894               0.80     2400.00
01895               0.80     2200.00
01896               0.60     2400.00
01897               0.60     2200.00
01898               0.40     2200.00
01899               0.60     2200.00
01900               1.00     2000.00
01901               0.40     2000.00
01902               0.40     2200.00
01903               0.60     2000.00
01904               0.60     2000.00
01905               0.20     2000.00
01906               0.20     1800.00
01907               1.00     2000.00
01908               0.20     1800.00
01909              -0.20     2000.00
01910               0.60     1800.00
01911               0.20     1600.00
01912              -0.20     1800.00
01913               0.40     1600.00
01914               0.20     1800.00
01915               0.20     1600.00
01916               0.40     1800.00
01917               0.20     1600.00
01918               0.20     1600.00
01919               0.20     1800.00
01920               0.20     1400.00
01921              -0.20     1600.00
01922               0.40     1400.00
01923               0.60     1400.00
01924              -0.60     1400.00
01925               0.00     1400.00
01926               1.00     1400.00
01927              -0.60     1400.00
01928              -1.00     1200.00
01929               1.00     1200.00
01930               1.00     1200.00
01931              -0.60     1200.00
01932              -0.60     1200.00
01933               1.20     1200.00
01934               0.20     1000.00
01935              -0.60     1200.00
01936               0.40     1000.00
01937               1.00      800.00
01938              -0.60      800.00
01939              -0.40     1000.00
01940               0.40      800.00
01941              -0.20      800.00
01942              -0.60      800.00
01943               0.20      800.00
01944               0.40      800.00
01945              -0.20      800.00
01946              -0.40      600.00
01947               0.20      800.00
01948               0.40      600.00
01949              -0.80      600.00
01950               0.20      600.00
01951               0.40      600.00
01952              -0.60      400.00
01953              -0.40      600.00
01954               0.20      600.00
01955              -0.20      400.00
01956              -0.80      400.00
01957              -0.20      400.00
01958               0.20      400.00
01959              -0.20      200.00
01960              -0.40      400.00
01961              -0.20      400.00
01962               0.20      200.00
01963              -0.60      400.00
01964              -0.40      400.00
01965               0.20      200.00
01966              -0.40        0.00
01967              -0.60      400.00
01968               0.20        0.00
01969              -0.60        0.00
01970              -0.60        0.00
01971               0.20        0.00
01972              -0.60        0.00
01973              -0.60     -200.00
01974              -0.20        0.00
01975              -0.60     -200.00
01976              -0.40     -200.00
01977              -0.60     -200.00
01978              -0.60     -200.00
01979               2.80     -200.00
01980              16.60     -200.00
01981              -5.80     -400.00
01982             -25.00     -400.00
01983              13.20     -400.00
01984              25.00     -400.00
01985             -25.00     -600.00
01986             -25.00     -200.00
01987              25.00     -600.00
01988              25.00     -400.00
01989             -25.00     -800.00
01990             -25.00     -400.00
01991              25.00     -800.00
01992               4.80     -800.00
01993             -25.00     -600.00
01994              25.00     -800.00
01995              25.00     -800.00
01996             -25.00     -800.00
01997             -25.00     -800.00
01998              25.00    -1000.00
01999              11.60    -1000.00
02000             -25.00     -800.00
02001              25.00    -1000.00
02002              25.00    -1000.00
02003             -25.00     -800.00
02004             -23.40    -1000.00
02005              25.00    -1200.00
02006             -22.60    -1200.00
02007             -25.00    -1000.00
02008              25.00    -1200.00
02009              25.00    -1200.00
02010             -25.00    -1200.00
02011              -9.80    -1400.00
02012              25.00    -1200.00
02013             -15.20    -1400.00
02014             -25.00    -1600.00
02015              25.00    -1600.00
02016              25.00    -1200.00
02017             -25.00    -1400.00
02018              -2.20    -1600.00
02019              25.00    -1600.00
02020             -25.00    -1600.00
02021             -25.00    -1600.00
02022              25.00    -1600.00
02023              -4.40    -1600.00
02024             -25.00    -1600.00
02025              25.00    -1800.00
02026              14.60    -1800.00
02027             -25.00    -1800.00
02028               5.00    -1800.00
02029              20.20    -1600.00
02030             -15.80    -2000.00
02031             -10.20    -1800.00
02032              15.40    -2000.00
02033              -0.60    -2000.00
02034             -16.60    -2000.00
02035               6.00    -2000.00
02036               8.60    -2000.00
02037             -13.80    -2000.00
02038              -2.60    -2000.00
02039              10.60    -2200.00
02040              -6.40    -2000.00
02041              -8.40    -2000.00
02042               6.60    -2200.00
02043               1.00    -2200.00
02044              -9.60    -2400.00
02045               0.60    -2400.00
02046               5.40    -2400.00
02047              -7.60    -2400.00
02048              -4.40    -2200.00
02049               6.00    -2400.00
02050              -3.00    -2400.00
02051              -7.60    -2400.00
02052               3.20    -2400.00
02053               1.00    -2600.00
02054              -7.20    -2400.00
02055              -1.00    -2600.00
02056               3.40    -2600.00
02057              -4.60    -2600.00
02058              -4.00    -2600.00
02059               2.60    -2600.00
02060              -2.00    -2600.00
02061              -5.00    -2600.00
02062               0.20    -2800.00
02063               0.40    -2600.00
02064              -4.20    -2800.00
02065              -2.40    -2800.00
02066               0.80    -2800.00
02067              -2.60    -2800.00
02068              -3.60    -2800.00
02069              -0.40    -2800.00
02070              -1.00    -3000.00
02071              -3.00    -2800.00
02072              -1.40    -3000.00
02073              -0.60    -3200.00
02074              -2.20    -3000.00
02075              -2.40    -3000.00
02076              -0.80    -3200.00
02077              -2.20    -3200.00
02078              -2.80    -3200.00
02079              -1.40    -3200.00
02080              -1.80    -3200.00
02081              -2.20    -3200.00
02082              -1.80    -3400.00
02083              -1.40    -3400.00
02084              -2.00    -3200.00
02085              -2.00    -3400.00
02086              -1.40    -3200.00
02087              -2.00    -3400.00
02088              -2.20    -3400.00
02089              -1.80    -3400.00
02090              -2.00    -3400.00
02091              -2.20    -3400.00
02092              -2.20    -3400.00
02093              -2.00    -3600.00
02094              -2.00    -3600.00
02095              -2.40    -3600.00
02096              -2.20    -3400.00
02097              -2.00    -3600.00
02098              -2.40    -3600.00
02099              -2.20    -3600.00
02100              -2.20    -3600.00
02101              -2.60    -3800.00
02102              -2.80    -3600.00
02103              -2.00    -3600.00
02104              -2.60    -3800.00
02105              -2.80    -3800.00
02106              -1.60    -3800.00
02107              -2.60    -3800.00
02108              -3.80    -4000.00
02109              -2.20    -3800.00
02110              -2.60    -4000.00
02111              -3.60    -3800.00
02112              -2.20    -4000.00
02113              -2.20    -3800.00
02114              -3.60    -4000.00
02115              -2.60    -4000.00
02116              -2.20    -4000.00
02117              -3.00    -4000.00
02118              -3.40    -4000.00
02119              -2.60    -4000.00
02120              -2.80    -4200.00
02121              -3.00    -4200.00
02122              -3.40    -4200.00
02123              -2.60    -4000.00
02124              -3.00    -4200.00
02125              -3.80    -4200.00
02126              -2.80    -4200.00
02127              -2.80    -4200.00
02128              -3.60    -4200.00
02129              -3.60    -4200.00
02130              -2.80    -4000.00
02131              -3.00    -4200.00
02132              -3.60    -4200.00
02133              -3.00    -4200.00
02134              -3.20    -4200.00
02135              -3.40    -4200.00
02136              -3.40    -4400.00
02137              -3.60    -4400.00
02138              -3.40    -4400.00
02139              -3.60    -4400.00
02140              -3.40    -4200.00
02141              -3.80    -4400.00
02142              -3.80    -4400.00
02143              -3.60    -4400.00
02144              -3.60    -4400.00
02145              -3.60    -4400.00
02146              -3.80    -4400.00
02147              -3.80    -4400.00
02148              -4.20    -4400.00
02149              -3.60    -4400.00
02150              -3.80    -4600.00
02151              -3.80    -4400.00
02152              -4.20    -4600.00
02153              -4.00    -4600.00
02154              -4.20    -4600.00
02155              -4.40    -4600.00
02156              -4.40    -4400.00
02157              -4.40    -4600.00
02158              -4.40    -4600.00
02159              -4.20    -4600.00
02160              -4.40    -4600.00
02161              -4.40    -4600.00
02162              -4.60    -4600.00
02163              -4.40    -4800.00
02164              -5.00    -4600.00
02165              -4.80    -4800.00
02166              -4.60    -4600.00
02167              -5.20    -4800.00
02168              -4.60    -4600.00
02169              -5.20    -4600.00
02170              -5.40    -4800.00
02171              -4.60    -4800.00
02172              -5.60    -4800.00
02173              -5.40    -4800.00
02174              -5.20    -4600.00
02175              -5.80    -4600.00
02176              -5.20    -5000.00
02177              -6.20    -4600.00
02178              -5.20    -4800.00
02179              -5.40    -4800.00
02180              -6.20    -4800.00
02181              -5.40    -4800.00
02182              -5.80    -4800.00
02183              -6.00    -4800.00
02184              -6.20    -4800.00
02185              -6.20    -5000.00
02186              -6.00    -5000.00
02187              -6.80    -4800.00
02188              -6.60    -4600.00
02189              -6.60    -5000.00
02190              -6.40    -4800.00
02191              -7.00    -5000.00
02192              -6.20    -4600.00
02193              -6.60    -5000.00
02194              -7.20    -5000.00
02195              -6.60    -5000.00
02196              -6.60    -5000.00
02197              -7.80    -5000.00
02198              -7.00    -5000.00
02199              -6.80    -5000.00
02200              -7.80    -5000.00
02201              -7.60    -5000.00
02202              -7.60    -5000.00
02203              -7.00    -5000.00
02204              -7.80    -4800.00
02205              -7.80    -5000.00
02206              -7.60    -5000.00
02207              -7.80    -5000.00
02208              -8.20    -5000.00
02209              -7.60    -5200.00
02210              -7.60    -5000.00
02211              -8.40    -5000.00
02212              -8.20    -5000.00
02213              -8.40    -4800.00
02214              -8.60    -5000.00
02215              -8.20    -5000.00
02216              -8.60    -4800.00
02217              -8.60    -5000.00
02218              -8.20    -5200.00
02219              -9.00    -5000.00
02220              -9.20    -5000.00
02221              -8.60    -5000.00
02222              -9.20    -5000.00
02223              -9.20    -5000.00
02224              -8.60    -5000.00
02225              -8.40    -5000.00
02226              -9.20    -5000.00
02227              -9.20    -5000.00
02228              -8.60    -4600.00
02229              -9.40    -5000.00
02230              -9.40    -5000.00
02231              -9.00    -5000.00
02232              -9.20    -5000.00
02233              -9.00    -5000.00
02234              -8.60    -5000.00
02235              -9.20    -5000.00
02236              -8.60    -5200.00
02237              -8.60    -5000.00
02238              -8.60    -5000.00
02239              -8.40    -5000.00
02240              -8.60    -5000.00
02241              -8.00    -5000.00
02242              -7.60    -5000.00
02243              -8.40    -5200.00
02244              -8.20    -5000.00
02245              -7.40    -5000.00
02246              -7.60    -5000.00
02247              -8.20    -5000.00
02248              -7.00    -5000.00
02249              -7.60    -5000.00
02250              -7.60    -4800.00
02251              -6.60    -5000.00
02252              -7.00    -5000.00
02253              -7.40    -5000.00
02254              -6.60    -5000.00
02255              -6.80    -5000.00
02256              -6.60    -5000.00
02257              -6.60    -5000.00
02258              -6.20    -4800.00
02259              -6.80    -5000.00
02260              -6.00    -5000.00
02261              -5.60    -4600.00
02262              -6.20    -4800.00
02263              -6.20    -5000.00
02264              -5.80    -4800.00
02265              -6.20    -5000.00
02266              -6.00    -4800.00
02267              -5.60    -4800.00
02268              -5.40    -5000.00
02269              -5.80    -5000.00
02270              -5.40    -4800.00
02271              -5.20    -4600.00
02272              -5.40    -4800.00
02273              -5.40    -4800.00
02274              -5.20    -4600.00
02275              -5.20    -5000.00
02276              -5.20    -5000.00
02277              -5.00    -4600.00
02278              -5.00    -4600.00
02279              -5.20    -4800.00
02280              -4.60    -4600.00
02281              -5.00    -4600.00
02282              -4.80    -4600.00
02283              -4.60    -4600.00
02284              -4.40    -4800.00
02285              -4.60    -4600.00
02286              -4.60    -4600.00
02287              -3.80    -4600.00
02288              -4.40    -4800.00
02289              -4.80    -4600.00
02290              -3.80    -4800.00
02291              -3.80    -4600.00
02292              -4.60    -4600.00
02293              -4.40    -4600.00
02294              -3.80    -4600.00
02295              -4.40    -4400.00
02296              -4.60    -4600.00
02297              -3.80    -4400.00
02298              -4.20    -4400.00
02299              -4.40    -4400.00
02300              -3.80    -4600.00
02301              -4.20    -4400.00
02302              -4.20    -4400.00
02303              -3.80    -4600.00
02304              -3.80    -4400.00
02305              -4.20    -4400.00
02306              -3.80    -4400.00
02307              -3.80    -4400.00
02308              -3.80    -4400.00
02309              -3.80    -4400.00
02310              -3.60    -4400.00
02311              -3.80    -4400.00
02312              -3.60    -4400.00
02313              -3.60    -4400.00
02314              -3.40    -4400.00
02315              -3.40    -4400.00
02316              -3.80    -4200.00
02317              -3.20    -4200.00
02318              -3.40    -4200.00
02319              -3.40    -4200.00
02320              -3.00    -4200.00
02321              -3.60    -4200.00
02322              -3.00    -4000.00
02323              -3.00    -4000.00
02324              -3.80    -4000.00
02325              -2.60    -4000.00
02326              -2.80    -4200.00
02327              -3.80    -4200.00
02328              -2.80    -4000.00
02329              -2.60    -4000.00
02330              -3.00    -4000.00
02331              -3.60    -4000.00
02332              -2.20    -4000.00
02333              -2.00    -4000.00
02334              -3.80    -4000.00
02335              -2.80    -4000.00
02336              -1.40    -4000.00
02337              -2.80    -4000.00
02338              -3.80    -4000.00
02339              -1.40    -4000.00
02340              -2.20    -3800.00
02341              -3.80    -3600.00
02342              -2.00    -3800.00
02343              -1.80    -4000.00
02344              -3.40    -3800.00
02345              -2.60    -3800.00
02346              -2.00    -3600.00
02347              -2.20    -3600.00
02348              -3.00    -3800.00
02349              -2.20    -3600.00
02350              -1.20    -3600.00
02351              -2.80    -3600.00
02352              -3.00    -3600.00
02353              -1.40    -3600.00
02354              -2.00    -3600.00
02355              -3.40    -3600.00
02356              -2.20    -3600.00
02357              -1.80    -3400.00
02358              -2.40    -3400.00
02359              -2.00    -3400.00
02360              -2.00    -3400.00
02361              -2.40    -3400.00
02362              -2.20    -3400.00
02363              -2.60    -3400.00
02364              -2.00    -3200.00
02365              -1.80    -3200.00
02366              -2.20    -3400.00
02367              -2.00    -3200.00
02368              -2.00    -3400.00
02369              -2.20    -3200.00
02370              -2.60    -3200.00
02371              -2.00    -3400.00
02372              -1.40    -3200.00
02373              -2.40    -3200.00
02374              -2.00    -3200.00
02375              -1.20    -3000.00
02376              -2.20    -3000.00
02377              -2.80    -3200.00
02378              -1.40    -3000.00
02379              -1.40    -3000.00
02380              -2.80    -3000.00
02381              -1.80    -3000.00
02382              -1.00    -2800.00
02383              -2.20    -2800.00
02384              -2.20    -2800.00
02385              -1.20    -2800.00
02386              -1.80    -2800.00
02387              -2.20    -2800.00
02388              -1.40    -2600.00
02389              -1.20    -2600.00
02390              -2.00    -2800.00
02391              -1.80    -2800.00
02392              -1.20    -2600.00
02393              -2.00    -2600.00
02394              -1.80    -2400.00
02395              -1.20    -2600.00
02396              -1.40    -2600.00
02397              -2.00    -2600.00
02398              -1.20    -2400.00
02399              -1.80    -2400.00
02400              -1.20    -2400.00
02401              -0.60    -2600.00
02402              -2.20    -2400.00
02403              -1.80    -2400.00
02404              -0.40    -2400.00
02405              -2.20    -2000.00
02406              -1.20    -2400.00
02407              -0.60    -2400.00
02408              -2.00    -2400.00
02409              -1.00    -2200.00
02410              -1.00    -2200.00
02411              -2.00    -2000.00
02412              -1.20    -2000.00
02413              -1.20    -2000.00
02414              -1.40    -2000.00
02415              -1.00    -2000.00
02416              -1.00    -2000.00
02417              -1.40    -2000.00
02418              -1.40    -2000.00
02419              -0.80    -1800.00
02420              -1.20    -1800.00
02421              -1.40    -1800.00
02422              -0.60    -2000.00
02423              -1.40    -1800.00
02424              -1.20    -1800.00
02425              -0.40    -1800.00
02426              -1.40    -1800.00
02427              -1.40    -1600.00
02428              -0.80    -1800.00
02429              -1.20    -1800.00
02430              -1.60    -1600.00
02431              -1.00    -1600.00
02432              -1.00    -1600.00
02433              -1.20    -1600.00
02434              -1.20    -1400.00
02435              -1.20    -1400.00
02436              -1.20    -1600.00
02437              -1.00    -1400.00
02438              -1.00    -1200.00
02439              -1.20    -1200.00
02440              -0.40    -1200.00
02441              -1.20    -1200.00
02442              -1.20    -1200.00
02443              -0.60    -1200.00
02444              -0.60    -1000.00
02445              -1.20    -1200.00
02446              -1.00    -1200.00
02447              -0.60    -1000.00
02448              -1.20    -1000.00
02449              -1.40    -1000.00
02450              -0.40    -1000.00
02451              -0.60    -1000.00
02452              -1.20     -800.00
02453              -0.60     -800.00
02454              -0.20     -800.00
02455              -0.80     -800.00
02456              -1.40     -800.00
02457              -0.20     -800.00
02458              -0.60     -800.00
02459              -1.40     -800.00
02460              -0.40     -600.00
02461               0.00     -600.00
02462              -1.20     -600.00
02463              -1.00     -600.00
02464               0.20     -600.00
02465              -0.60     -800.00
02466              -1.20     -400.00
02467              -0.20     -400.00
02468               0.20     -400.00
02469              -1.20     -400.00
02470              -0.60     -400.00
02471               0.20     -400.00
02472              -1.00     -200.00
02473              -0.60     -400.00
02474               0.20     -200.00
02475              -0.40     -200.00
02476              -0.60     -200.00
02477              -0.40     -200.00
02478              -0.20     -200.00
02479              -0.40        0.00
02480              -0.60     -200.00
02481              -0.60     -200.00
02482               0.00        0.00
02483               0.00        0.00
02484              -0.20        0.00
02485               0.20        0.00
02486               0.40      200.00
02487              -0.20        0.00
02488              -0.60      200.00
02489               0.20      200.00
02490               0.60      400.00
02491               5.00      200.00
02492              10.60      400.00
02493             -14.80      200.00
02494             -25.00      400.00
02495              25.00      400.00
02496              25.00      400.00
02497             -25.00      400.00
02498             -25.00      600.00
02499              25.00      600.00
02500              25.00      600.00
02501             -25.00      600.00
02502               8.40      600.00
02503              25.00      600.00
02504             -25.00      600.00
02505             -25.00      800.00
02506              25.00      600.00
02507              25.00      600.00
02508             -25.00      800.00
02509              11.20      800.00
02510              25.00      800.00
02511             -25.00      800.00
02512             -25.00     1000.00
02513              25.00      800.00
02514              19.80      800.00
02515             -25.00     1000.00
02516              25.00      800.00
02517              25.00     1000.00
02518             -25.00     1200.00
02519             -25.00     1200.00
02520              25.00     1000.00
02521               5.20     1200.00
02522             -25.00     1400.00
02523              22.00     1200.00
02524              25.00     1200.00
02525             -25.00     1400.00
02526             -18.00     1400.00
02527              25.00     1400.00
02528              -8.00     1600.00
02529             -25.00     1400.00
02530              25.00     1400.00
02531              24.20     1600.00
02532             -25.00     1400.00
02533               4.40     1800.00
02534              25.00     1800.00
02535             -24.20     1600.00
02536             -17.20     1600.00
02537              25.00     1800.00
02538              -1.40     1800.00
02539             -24.20     1800.00
02540              15.80     1800.00
02541              13.00     2000.00
02542             -19.20     2000.00
02543               1.00     1800.00
02544              17.00     2000.00
02545              -7.60     2000.00
02546              -9.00     2000.00
02547              12.40     2000.00
02548               3.20     2200.00
02549             -10.60     2000.00
02550               4.20     2200.00
02551               8.60     2000.00
02552              -6.00     2200.00
02553              -3.00     2200.00
02554               8.60     2200.00
02555               0.00     2200.00
02556              -6.20     2200.00
02557               5.20     2200.00
02558               4.20     2200.00
02559              -5.40     2200.00
02560               0.40     2200.00
02561               6.80     2400.00
02562              -2.20     2400.00
02563              -2.60     2400.00
02564               5.40     2400.00
02565               1.60     2400.00
02566              -3.60     2400.00
02567               2.60     2600.00
02568               3.60     2400.00
02569              -2.60     2600.00
02570               0.40     2400.00
02571               4.20     2400.00
02572              -0.40     2800.00
02573              -1.20     2600.00
02574               3.00     2800.00
02575               2.00     2800.00
02576              -1.20     2800.00
02577               1.20     2800.00
02578               3.00     2800.00
02579              -0.60     2800.00
02580               0.40     2800.00
02581               3.00     2800.00
02582               1.00     2800.00
02583               0.20     3000.00
02584               2.00     2800.00
02585               2.00     3000.00
02586               0.40     3000.00
02587               1.20     3000.00
02588               2.60     3000.00
02589               0.80     3200.00
02590               0.40     3200.00
02591               1.60     3000.00
02592               2.20     3200.00
02593               1.00     3200.00
02594               2.00     3200.00
02595               2.60     3200.00
02596               0.40     3200.00
02597               1.60     3200.00
02598               2.60     3400.00
02599               1.00     3200.00
02600               1.80     3400.00
02601               2.80     3400.00
02602               1.20     3400.00
02603               1.00     3600.00
02604               2.40     3600.00
02605               1.60     3600.00
02606               0.60     3600.00
02607               3.60     3600.00
02608               2.80     3600.00
02609               0.40     3600.00
02610               2.00     3600.00
02611               2.80     3600.00
02612               1.40     3600.00
02613               1.80     3600.00
02614               2.80     3600.00
02615               2.20     3800.00
02616               2.00     3600.00
02617               1.40     3600.00
02618               2.60     3800.00
02619               2.20     3800.00
02620               1.80     3800.00
02621               2.80     3800.00
02622               2.80     3800.00
02623               1.40     3800.00
02624               2.00     3800.00
02625               3.00     4000.00
02626               1.80     4000.00
02627               2.00     4000.00
02628               3.40     3800.00
02629               2.40     4000.00
02630               2.00     4000.00
02631               3.00     4000.00
02632               2.60     4000.00
02633               2.20     4000.00
02634               2.60     4000.00
02635               2.80     4000.00
02636               2.60     4000.00
02637               2.60     4000.00
02638               2.60     4000.00
02639               2.80     4000.00
02640               2.60     4000.00
02641               2.80     4200.00
02642               2.80     4000.00
02643               3.00     4200.00
02644               2.60     4400.00
02645               3.40     4400.00
02646               3.40     4200.00
02647               2.20     4200.00
02648               3.40     4400.00
02649               3.40     4400.00
02650               2.80     4400.00
02651               3.60     4400.00
02652               3.60     4400.00
02653               3.00     4400.00
02654               3.60     4400.00
02655               3.40     4400.00
02656               3.00     4400.00
02657               3.60     4400.00
02658               4.20     4600.00
02659               3.60     4400.00
02660               3.40     4600.00
02661               4.40     4600.00
02662               4.40     4400.00
02663               3.80     4600.00
02664               3.60     4400.00
02665               4.20     4600.00
02666               3.80     4600.00
02667               4.40     4400.00
02668               4.40     4600.00
02669               3.80     4600.00
02670               4.20     4600.00
02671               5.00     4400.00
02672               4.20     4600.00
02673               4.40     4600.00
02674               4.60     4600.00
02675               5.00     4800.00
02676               4.60     4600.00
02677               4.60     4600.00
02678               5.00     4600.00
02679               4.60     4800.00
02680               5.00     4600.00
02681               5.00     4800.00
02682               4.60     4800.00
02683               5.20     4600.00
02684               5.20     4800.00
02685               5.00     4800.00
02686               5.40     4600.00
02687               5.80     4800.00
02688               5.20     4800.00
02689               5.20     4800.00
02690               5.80     4800.00
02691               5.80     4800.00
02692               5.40     4800.00
02693               5.60     4800.00
02694               5.80     4800.00
02695               6.20     4800.00
02696               5.80     4800.00
02697               5.60     4800.00
02698               6.20     4800.00
02699               6.20     4800.00
02700               6.00     4800.00
02701               6.20     4800.00
02702               6.60     5000.00
02703               6.00     4800.00
02704               6.60     4800.00
02705               6.80     4800.00
02706               6.60     4800.00
02707               6.80     5000.00
02708               7.00     4800.00
02709               7.00     5000.00
02710               6.80     4800.00
02711               7.00     4800.00
02712               7.40     4800.00
02713               7.20     5000.00
02714               7.20     5200.00
02715               7.60     4800.00
02716               7.60     5000.00
02717               7.40     5000.00
02718               7.80     4800.00
02719               7.80     5200.00
02720               7.80     5000.00
02721               8.20     4800.00
02722               8.40     5200.00
02723               7.80     5000.00
02724               8.60     5000.00
02725               8.60     5000.00
02726               7.60     5000.00
02727               8.60     5000.00
02728               9.00     4800.00
02729               8.60     4800.00
02730               8.40     5000.00
02731               9.00     5200.00
02732               9.20     5200.00
02733               8.20     5200.00
02734               9.60     5000.00
02735               9.20     5000.00
02736               8.40     4800.00
02737               9.20     4800.00
02738               9.20     5000.00
02739               9.00     5000.00
02740               8.60     5000.00
02741               9.20     5000.00
02742               9.80     4800.00
02743               8.20     5200.00
02744               8.40     5200.00
02745               9.00     5000.00
02746               8.80     4800.00
02747               7.80     5000.00
02748               8.20     5000.00
02749               9.20     4800.00
02750               7.60     5000.00
02751               7.40     4800.00
02752               8.60     4800.00
02753               7.60     4800.00
02754               6.80     4800.00
02755               7.80     5000.00
02756               7.60     5000.00
02757               6.60     4800.00
02758               6.80     4800.00
02759               7.40     5000.00
02760               6.80     4800.00
02761               6.40     4800.00
02762               6.80     4800.00
02763               6.20     5000.00
02764               6.20     4800.00
02765               6.60     4800.00
02766               6.60     4800.00
02767               6.00     4800.00
02768               6.00     4800.00
02769               6.60     4800.00
02770               6.00     4800.00
02771               5.40     4800.00
02772               5.80     4800.00
02773               6.00     4800.00
02774               5.20     4800.00
02775               5.40     4800.00
02776               5.80     4800.00
02777               5.40     4800.00
02778               5.40     4800.00
02779               5.00     4800.00
02780               5.20     4800.00
02781               5.20     4800.00
02782               5.20     4800.00
02783               5.60     4800.00
02784               5.60     4800.00
02785               4.60     4800.00
02786               4.20     4600.00
02787               5.40     4800.00
02788               4.60     4600.00
02789               3.80     4600.00
02790               5.20     4800.00
02791               5.20     4600.00
02792               4.20     4800.00
02793               4.60     4800.00
02794               4.20     4600.00
02795               4.20     4800.00
02796               5.00     4800.00
02797               5.00     4600.00
02798               4.60     4600.00
02799               4.20     4800.00
02800               3.40     4600.00
02801               4.40     4600.00
02802               4.40     4600.00
02803               3.40     4600.00
02804               4.20     4600.00
02805               4.40     4600.00
02806               3.40     4600.00
02807               4.00     4600.00
02808               4.20     4400.00
02809               3.60     4600.00
02810               3.60     4400.00
02811               4.20     4600.00
02812               3.60     4400.00
02813               3.00     4400.00
02814               3.40     4400.00
02815               3.40     4400.00
02816               3.20     4400.00
02817               3.40     4400.00
02818               3.60     4400.00
02819               3.40     4400.00
02820               3.00     4200.00
02821               2.80     4400.00
02822               3.20     4400.00
02823               3.40     4400.00
02824               2.60     4400.00
02825               3.00     4400.00
02826               3.40     4400.00
02827               2.80     4200.00
02828               2.80     4200.00
02829               3.00     4200.00
02830               3.00     4200.00
02831               2.60     4200.00
02832               2.60     4000.00
02833               3.00     4400.00
02834               2.80     4200.00
02835               2.00     4000.00
02836               2.80     4000.00
02837               2.80     4000.00
02838               2.00     4000.00
02839               2.60     4000.00
02840               2.60     4000.00
02841               2.60     4000.00
02842               2.20     4000.00
02843               2.40     4000.00
02844               2.60     4000.00
02845               2.80     3800.00
02846               2.00     3800.00
02847               2.60     4000.00
02848               2.80     3800.00
02849               1.80     3800.00
02850               1.80     3800.00
02851               2.20     3800.00
02852               2.20     3800.00
02853               2.00     3800.00
02854               2.00     3800.00
02855               2.00     3800.00
02856               2.00     3800.00
02857               2.60     3600.00
02858               2.60     3800.00
02859               1.40     3600.00
02860               1.80     3600.00
02861               2.60     3600.00
02862               1.20     3600.00
02863               2.00     3600.00
02864               2.60     3800.00
02865               1.40     3600.00
02866               2.00     3400.00
02867               2.20     3600.00
02868               1.40     3600.00
02869               1.80     3600.00
02870               1.80     3400.00
02871               1.00     3400.00
02872               2.00     3600.00
02873               1.80     3200.00
02874               1.00     3200.00
02875               2.00     3400.00
02876               2.00     3200.00
02877               1.00     3200.00
02878               2.00     3200.00
02879               1.80     3200.00
02880               0.40     3200.00
02881               1.20     3200.00
02882               1.80     3200.00
02883               1.00     3000.00
02884               1.80     3000.00
02885               1.80     3000.00
02886               0.20     3000.00
02887               1.20     3000.00
02888               1.40     3000.00
02889               0.80     3000.00
02890               1.40     2800.00
02891               1.80     3000.00
02892               0.60     3000.00
02893               0.60     2800.00
02894               1.20     3000.00
02895               0.60     2800.00
02896               0.80     2800.00
02897               1.40     2800.00
02898               1.20     2800.00
02899               0.60     2800.00
02900               1.20     2800.00
02901               0.60     2800.00
02902               0.60     2600.00
02903               1.00     2800.00
02904               1.20     2600.00
02905               0.80     2600.00
02906               0.40     2400.00
02907               0.60     2600.00
02908               1.00     2400.00
02909               0.40     2400.00
02910               0.60     2400.00
02911               1.20     2400.00
02912               0.40     2400.00
02913               0.40     2400.00
02914               1.40     2200.00
02915               0.60     2200.00
02916               0.20     2400.00
02917               1.00     2200.00
02918               0.60     2200.00
02919               0.60     2400.00
02920               0.60     2200.00
02921               1.00     2200.00
02922               1.00     2200.00
02923               0.40     2000.00
02924               0.40     2200.00
02925               0.60     2000.00
02926               0.60     2000.00
02927               0.20     2000.00
02928               0.60     2000.00
02929               0.60     2000.00
02930               0.40     2000.00
02931               0.40     2000.00
02932               0.60     2000.00
02933               0.40     1800.00
02934               0.40     1800.00
02935               0.40     1800.00
02936               1.00     1800.00
02937               0.40     1600.00
02938               0.20     1800.00
02939               0.60     1800.00
02940               0.20     1600.00
02941              -0.20     1800.00
02942               0.20     1400.00
02943               0.40     1600.00
02944              -0.20     1400.00
02945               0.20     1400.00
02946               0.40     1400.00
02947               0.20     1200.00
02948               0.20     1400.00
02949               0.20     1400.00
02950               0.20     1200.00
02951              -0.20     1200.00
02952               0.20     1200.00
02953               0.20     1200.00
02954               0.20     1200.00
02955              -0.20     1200.00
02956              -0.20     1200.00
02957              -0.20     1200.00
02958              -0.20     1200.00
02959              -0.20     1000.00
02960              -0.20     1000.00
02961               0.00      800.00
02962              -0.20     1000.00
02963              -0.40      800.00
02964               0.00      800.00
02965               0.20      800.00
02966              -0.40      600.00
02967               0.00      800.00
02968              -0.20      600.00
02969              -0.40      800.00
02970              -0.20      600.00
02971              -0.40      600.00
02972              -0.20      600.00
02973              -0.20      600.00
02974              -0.40      400.00
02975              -0.20      600.00
02976              -0.40      400.00
02977              -0.20      400.00
02978              -0.20      400.00
02979              -0.40      400.00
02980              -0.20      400.00
02981              -0.40      400.00
02982              -0.20      400.00
02983              -0.40      400.00
02984              -0.20      200.00
02985               0.20        0.00
02986              -0.40      200.00
02987              -0.40        0.00
02988              -0.20      200.00
02989              -0.40        0.00
02990              -0.60        0.00
02991              -0.60      200.00
02992              -0.20        0.00
02993               0.00        0.00
02994              -0.40     -200.00
02995               0.00     -200.00
02996              -0.20     -200.00
02997              -0.40     -200.00
02998               0.20     -200.00
02999              -0.40     -200.00
03000              -0.60     -200.00
03001               3.40     -200.00
03002              16.60     -400.00
03003              -6.80     -400.00
03004             -25.00     -400.00
03005              15.40     -400.00
03006              25.00     -400.00
03007             -25.00     -400.00
03008             -25.00     -400.00
03009              25.00     -600.00
03010              25.00     -600.00
03011             -25.00     -800.00
03012             -25.00     -600.00
03013              25.00     -800.00
03014               2.00     -600.00
03015             -25.00     -800.00
03016              25.00    -1000.00
03017              25.00     -600.00
03018             -25.00     -800.00
03019             -25.00     -800.00
03020              25.00     -800.00
03021               8.00    -1000.00
03022             -25.00     -800.00
03023              25.00    -1000.00
03024              25.00    -1000.00
03025             -25.00    -1000.00
03026             -20.40    -1200.00
03027              25.00    -1200.00
03028             -25.00    -1000.00
03029             -25.00    -1000.00
03030              25.00    -1200.00
03031              25.00    -1200.00
03032             -25.00    -1000.00
03033              -8.40    -1400.00
03034              25.00    -1200.00
03035             -17.80    -1400.00
03036             -25.00    -1200.00
03037              25.00    -1400.00
03038              25.00    -1200.00
03039             -25.00    -1400.00
03040              -0.60    -1600.00
03041              25.00    -1600.00
03042             -25.00    -1600.00
03043             -25.00    -1600.00
03044              25.00    -1600.00
03045              -5.80    -1600.00
03046             -25.00    -1800.00
03047              25.00    -1800.00
03048              14.20    -1600.00
03049             -25.00    -1800.00
03050               4.40    -1800.00
03051              21.00    -1800.00
03052             -16.60    -1800.00
03053             -10.20    -2000.00
03054              15.80    -2000.00
03055              -1.40    -1800.00
03056             -15.00    -2000.00
03057               6.20    -2000.00
03058               8.40    -2000.00
03059             -14.00    -2000.00
03060              -2.60    -2000.00
03061              10.60    -2000.00
03062              -6.20    -2200.00
03063              -8.20    -2200.00
03064               6.00    -2400.00
03065               2.00    -2200.00
03066             -10.20    -2200.00
03067               0.40    -2400.00
03068               7.00    -2400.00
03069              -8.80    -2400.00
03070              -4.00    -2400.00
03071               7.80    -2400.00
03072              -4.20    -2400.00
03073              -7.20    -2400.00
03074               3.40    -2400.00
03075               1.00    -2600.00
03076              -6.80    -2600.00
03077              -1.00    -2600.00
03078               3.20    -2600.00
03079              -5.20    -2600.00
03080              -3.40    -2600.00
03081               2.60    -2600.00
03082              -2.80    -2800.00
03083              -4.60    -2600.00
03084               0.60    -2600.00
03085              -0.40    -2800.00
03086              -4.60    -3000.00
03087              -2.20    -2800.00
03088               0.40    -2800.00
03089              -2.20    -2800.00
03090              -2.80    -2800.00
03091              -0.40    -3000.00
03092              -1.20    -3000.00
03093              -3.80    -3000.00
03094              -2.00    -2800.00
03095              -0.20    -3200.00
03096              -2.20    -3200.00
03097              -3.00    -3200.00
03098              -1.00    -3200.00
03099              -2.00    -3000.00
03100              -3.40    -3200.00
03101              -1.20    -3200.00
03102              -1.20    -3200.00
03103              -3.00    -3200.00
03104              -1.40    -3200.00
03105              -1.00    -3400.00
03106              -2.80    -3400.00
03107              -2.00    -3200.00
03108              -1.40    -3400.00
03109              -2.60    -3400.00
03110              -3.00    -3400.00
03111              -1.80    -3400.00
03112              -2.00    -3600.00
03113              -2.80    -3600.00
03114              -2.00    -3600.00
03115              -1.40    -3400.00
03116              -2.60    -3600.00
03117              -2.80    -3600.00
03118              -1.60    -3600.00
03119              -2.00    -3600.00
03120              -2.60    -3600.00
03121              -2.20    -3600.00
03122              -2.20    -3600.00
03123              -2.80    -3600.00
03124              -2.60    -3600.00
03125              -1.60    -3600.00
03126              -2.20    -3600.00
03127              -3.00    -3800.00
03128              -1.80    -3800.00
03129              -2.40    -3800.00
03130              -3.60    -4000.00
03131              -2.60    -4000.00
03132              -2.00    -4000.00
03133              -3.00    -4000.00
03134              -2.40    -4000.00
03135              -2.00    -3800.00
03136              -3.00    -4000.00
03137              -2.80    -4000.00
03138              -1.80    -4000.00
03139              -3.00    -4000.00
03140              -3.40    -4000.00
03141              -2.60    -4000.00
03142              -2.80    -4000.00
03143              -3.60    -4000.00
03144              -2.80    -4000.00
03145              -2.60    -4000.00
03146              -3.40    -4200.00
03147              -2.80    -4000.00
03148              -3.00    -4200.00
03149              -3.00    -4200.00
03150              -3.00    -4200.00
03151              -3.40    -4200.00
03152              -3.60    -4200.00
03153              -2.80    -4200.00
03154              -3.60    -4200.00
03155              -3.80    -4200.00
03156              -3.00    -4200.00
03157              -2.80    -4400.00
03158              -4.40    -4400.00
03159              -3.60    -4400.00
03160              -3.60    -4200.00
03161              -3.80    -4400.00
03162              -3.80    -4400.00
03163              -3.40    -4400.00
03164              -3.80    -4400.00
03165              -3.40    -4400.00
03166              -3.60    -4400.00
03167              -4.20    -4600.00
03168              -4.20    -4400.00
03169              -4.40    -4400.00
03170              -3.60    -4600.00
03171              -3.80    -4400.00
03172              -4.20    -4400.00
03173              -3.40    -4400.00
03174              -4.20    -4400.00
03175              -4.60    -4600.00
03176              -3.80    -4800.00
03177              -4.40    -4600.00
03178              -4.60    -4600.00
03179              -3.60    -4400.00
03180              -3.80    -4600.00
03181              -5.00    -4600.00
03182              -4.20    -4600.00
03183              -4.20    -4600.00
03184              -5.20    -4600.00
03185              -4.40    -4800.00
03186              -3.80    -4600.00
03187              -5.20    -4600.00
03188              -5.40    -4800.00
03189              -4.00    -4800.00
03190              -5.20    -4600.00
03191              -5.40    -4600.00
03192              -4.40    -4800.00
03193              -4.40    -4600.00
03194              -5.40    -4800.00
03195              -5.00    -4600.00
03196              -5.00    -4600.00
03197              -5.80    -4800.00
03198              -5.40    -4600.00
03199              -5.20    -5000.00
03200              -5.40    -4800.00
03201              -5.40    -4800.00
03202              -5.80    -4800.00
03203              -5.80    -4800.00
03204              -6.20    -5000.00
03205              -6.20    -4800.00
03206              -5.80    -4800.00
03207              -6.20    -5000.00
03208              -6.60    -5000.00
03209              -6.00    -5000.00
03210              -6.40    -4800.00
03211              -6.60    -5000.00
03212              -6.20    -5000.00
03213              -6.80    -4800.00
03214              -6.80    -5000.00
03215              -6.20    -5000.00
03216              -7.40    -4800.00
03217              -6.80    -5000.00
03218              -6.60    -4800.00
03219              -7.60    -5000.00
03220              -7.60    -5000.00
03221              -7.00    -5000.00
03222              -7.00    -5000.00
03223              -8.20    -5000.00
03224              -7.60    -5000.00
03225              -7.00    -5200.00
03226              -8.00    -5000.00
03227              -8.20    -5000.00
03228              -7.00    -5000.00
03229              -7.60    -5000.00
03230              -9.40    -5000.00
03231              -7.60    -5000.00
03232              -7.00    -5000.00
03233              -9.40    -5000.00
03234              -8.60    -5000.00
03235              -7.40    -5000.00
03236              -8.60    -5000.00
03237              -9.20    -5000.00
03238              -7.80    -5000.00
03239              -8.40    -5000.00
03240              -9.40    -5200.00
03241              -8.60    -5000.00
03242              -8.60    -5000.00
03243              -9.20    -5000.00
03244              -9.00    -5000.00
03245              -8.80    -5000.00
03246              -9.00    -5000.00
03247              -8.60    -5000.00
03248              -9.40    -5200.00
03249              -9.40    -5000.00
03250              -9.20    -5200.00
03251              -9.20    -5000.00
03252              -9.20    -5000.00
03253              -9.20    -5200.00
03254              -9.00    -5000.00
03255              -8.60    -5200.00
03256              -9.20    -5000.00
03257              -8.60    -5000.00
03258              -7.80    -5000.00
03259              -9.00    -5000.00
03260              -9.00    -5000.00
03261              -7.60    -5000.00
03262              -8.20    -5000.00
03263              -8.80    -5000.00
03264              -7.60    -5000.00
03265              -7.60    -5000.00
03266              -8.20    -5000.00
03267              -7.80    -4800.00
03268              -7.00    -5000.00
03269              -7.40    -5000.00
03270              -7.40    -5000.00
03271              -7.40    -5000.00
03272              -6.60    -5000.00
03273              -7.40    -5000.00
03274              -7.40    -5000.00
03275              -6.20    -5000.00
03276              -6.80    -5000.00
03277              -7.40    -5000.00
03278              -6.00    -5000.00
03279              -7.00    -4800.00
03280              -7.00    -5000.00
03281              -5.40    -5000.00
03282              -7.00    -4800.00
03283              -6.60    -5000.00
03284              -5.40    -5000.00
03285              -5.40    -4600.00
03286              -7.20    -5000.00
03287              -6.00    -4800.00
03288              -5.20    -5000.00
03289              -6.20    -4800.00
03290              -6.20    -4800.00
03291              -5.20    -5000.00
03292              -5.00    -5000.00
03293              -6.60    -4600.00
03294              -5.40    -4800.00
03295              -4.40    -5000.00
03296              -6.20    -4600.00
03297              -5.40    -4800.00
03298              -5.00    -4800.00
03299              -5.20    -4800.00
03300              -5.40    -4600.00
03301              -5.40    -4800.00
03302              -4.60    -4600.00
03303              -4.40    -4600.00
03304              -5.40    -4600.00
03305              -4.60    -4800.00
03306              -4.00    -4600.00
03307              -5.20    -4800.00
03308              -4.60    -4800.00
03309              -3.80    -4600.00
03310              -5.20    -4600.00
03311              -5.00    -4600.00
03312              -3.80    -4600.00
03313              -4.40    -4400.00
03314              -5.00    -4600.00
03315              -3.80    -4600.00
03316              -3.80    -4400.00
03317              -4.40    -4600.00
03318              -3.80    -4600.00
03319              -3.80    -4600.00
03320              -4.00    -4600.00
03321              -3.80    -4400.00
03322              -3.80    -4600.00
03323              -3.80    -4400.00
03324              -4.00    -4400.00
03325              -4.00    -4400.00
03326              -3.60    -4400.00
03327              -3.60    -4600.00
03328              -4.20    -4400.00
03329              -3.60    -4400.00
03330              -3.00    -4400.00
03331              -3.80    -4200.00
03332              -3.80    -4400.00
03333              -3.00    -4400.00
03334              -3.40    -4400.00
03335              -3.80    -4400.00
03336              -3.00    -4400.00
03337              -3.00    -4400.00
03338              -3.80    -4400.00
03339              -3.40    -4400.00
03340              -2.80    -4400.00
03341              -3.40    -4200.00
03342              -3.80    -4200.00
03343              -2.80    -4200.00
03344              -3.20    -4200.00
03345              -3.80    -4200.00
03346              -3.20    -4400.00
03347              -2.60    -4200.00
03348              -3.40    -4200.00
03349              -3.40    -4000.00
03350              -2.20    -4000.00
03351              -2.80    -4000.00
03352              -3.60    -4000.00
03353              -2.80    -4000.00
03354              -2.80    -4000.00
03355              -3.20    -4000.00
03356              -3.00    -4000.00
03357              -2.60    -4000.00
03358              -2.80    -3800.00
03359              -3.00    -4000.00
03360              -2.60    -4000.00
03361              -2.80    -4000.00
03362              -3.00    -4000.00
03363              -2.80    -3800.00
03364              -2.60    -3800.00
03365              -2.60    -3800.00
03366              -2.60    -3800.00
03367              -2.60    -3800.00
03368              -2.20    -3800.00
03369              -2.80    -3600.00
03370              -2.80    -3800.00
03371              -2.40    -3600.00
03372              -2.60    -3600.00
03373              -2.60    -3600.00
03374              -2.20    -3600.00
03375              -2.00    -3600.00
03376              -2.40    -3600.00
03377              -2.80    -3600.00
03378              -2.00    -3400.00
03379              -2.00    -3400.00
03380              -2.20    -3400.00
03381              -2.60    -3600.00
03382              -1.80    -3400.00
03383              -1.80    -3400.00
03384              -2.80    -3200.00
03385              -2.20    -3400.00
03386              -1.00    -3400.00
03387              -2.80    -3200.00
03388              -2.20    -3400.00
03389              -1.00    -3400.00
03390              -2.20    -3200.00
03391              -2.80    -3200.00
03392              -1.20    -3200.00
03393              -1.40    -3200.00
03394              -3.00    -3200.00
03395              -1.40    -3200.00
03396              -1.20    -3000.00
03397              -2.20    -3000.00
03398              -2.00    -2800.00
03399              -1.20    -3000.00
03400              -1.80    -3000.00
03401              -2.00    -3000.00
03402              -1.60    -2800.00
03403              -2.00    -2800.00
03404              -2.20    -2800.00
03405              -2.00    -2800.00
03406              -1.80    -2800.00
03407              -1.80    -2800.00
03408              -1.80    -2800.00
03409              -1.40    -2800.00
03410              -1.60    -2800.00
03411              -1.80    -2800.00
03412              -1.60    -2600.00
03413              -1.40    -2800.00
03414              -2.20    -2600.00
03415              -1.60    -2600.00
03416              -1.20    -2600.00
03417              -1.80    -2600.00
03418              -2.00    -2600.00
03419              -1.40    -2600.00
03420              -1.40    -2600.00
03421              -2.00    -2600.00
03422              -1.60    -2400.00
03423              -1.20    -2400.00
03424              -1.80    -2400.00
03425              -1.80    -2400.00
03426              -1.00    -2400.00
03427              -1.60    -2400.00
03428              -1.20    -2200.00
03429              -1.80    -2200.00
03430              -1.40    -2200.00
03431              -1.20    -2000.00
03432              -1.40    -2200.00
03433              -1.40    -2200.00
03434              -1.00    -2000.00
03435              -1.20    -2000.00
03436              -1.60    -2000.00
03437              -1.20    -2000.00
03438              -1.20    -2000.00
03439              -1.40    -2000.00
03440              -1.00    -2000.00
03441              -0.60    -2000.00
03442              -1.20    -2000.00
03443              -1.00    -1800.00
03444              -0.60    -1800.00
03445              -1.20    -1800.00
03446              -1.20    -1800.00
03447              -0.60    -1800.00
03448              -1.20    -1600.00
03449              -1.40    -1600.00
03450              -1.00    -1800.00
03451              -1.00    -1600.00
03452              -1.20    -1600.00
03453              -1.00    -1600.00
03454              -0.60    -1600.00
03455              -1.00    -1400.00
03456              -1.20    -1600.00
03457              -1.00    -1600.00
03458              -0.60    -1400.00
03459              -1.00    -1400.00
03460              -0.60    -1200.00
03461              -1.00    -1200.00
03462              -1.00    -1200.00
03463              -0.80    -1200.00
03464              -1.00    -1200.00
03465              -0.60    -1200.00
03466              -1.00    -1000.00
03467              -1.20    -1200.00
03468              -1.00    -1000.00
03469              -1.20    -1000.00
03470              -1.20    -1000.00
03471              -1.00    -1000.00
03472              -0.60    -1000.00
03473              -0.60     -800.00
03474              -1.00     -800.00
03475              -0.80    -1000.00
03476              -0.60    -1000.00
03477              -1.00     -800.00
03478              -0.60     -800.00
03479              -0.80     -800.00
03480              -0.80     -800.00
03481              -1.00     -800.00
03482              -0.60     -800.00
03483              -1.00     -600.00
03484              -0.60     -800.00
03485              -1.00     -600.00
03486              -0.60     -600.00
03487              -0.60     -400.00
03488              -1.00     -400.00
03489              -0.60     -400.00
03490              -0.60     -400.00
03491              -0.60     -400.00
03492              -0.60     -400.00
03493              -0.60     -400.00
03494              -0.60     -400.00
03495              -0.40     -200.00
03496              -0.40     -200.00
03497              -0.60     -200.00
03498              -0.60     -200.00
03499              -0.40     -200.00
03500              -0.40     -200.00
03501              -0.60     -200.00
03502              -0.60     -200.00
03503              -0.40     -200.00
03504               0.20        0.00
03505              -0.40        0.00
03506               0.20        0.00
03507               0.20        0.00
03508               0.20        0.00
03509              -0.40        0.00
03510              -0.20      400.00
03511              -0.20        0.00
03512               0.80      200.00
03513               5.40      400.00
03514              10.20      400.00
03515             -15.20      400.00
03516             -25.00      400.00
03517              25.00      400.00
03518              25.00      600.00
03519             -25.00      400.00
03520             -25.00      400.00
03521              25.00      600.00
03522              25.00      600.00
03523             -25.00      600.00
03524              13.80      600.00
03525              25.00      800.00
03526             -25.00      600.00
03527             -25.00      800.00
03528              25.00      600.00
03529              25.00      800.00
03530             -25.00      800.00
03531              16.60      600.00
03532              25.00     1000.00
03533             -25.00      800.00
03534             -25.00      800.00
03535              25.00      800.00
03536              14.80     1000.00
03537             -25.00     1200.00
03538              25.00      800.00
03539              25.00     1000.00
03540             -25.00     1200.00
03541             -25.00     1200.00
03542              25.00      800.00
03543               0.40     1200.00
03544             -25.00     1200.00
03545              25.00     1200.00
03546              25.00     1400.00
03547             -25.00     1400.00
03548             -15.00     1200.00
03549              25.00     1400.00
03550             -11.40     1400.00
03551             -25.00     1400.00
03552              25.00     1400.00
03553              21.80     1800.00
03554             -25.00     1400.00
03555               6.20     1600.00
03556              25.00     1800.00
03557             -25.00     1600.00
03558             -15.40     1600.00
03559              25.00     1800.00
03560              -3.60     1800.00
03561             -23.00     1800.00
03562              16.80     1800.00
03563              10.60     1800.00
03564             -19.00     2000.00
03565               3.60     2000.00
03566              15.80     2000.00
03567              -9.20     2000.00
03568              -7.80     2000.00
03569              12.60     2000.00
03570               1.80     2000.00
03571             -10.20     2000.00
03572               5.00     2200.00
03573               8.20     2000.00
03574              -6.60     2200.00
03575              -2.20     2200.00
03576               8.40     2200.00
03577              -0.60     2200.00
03578              -5.80     2200.00
03579               5.80     2400.00
03580               4.40     2200.00
03581              -5.40     2400.00
03582               1.20     2400.00
03583               6.60     2400.00
03584              -2.80     2400.00
03585              -2.00     2400.00
03586               6.00     2400.00
03587               1.00     2400.00
03588              -3.40     2600.00
03589               3.40     2400.00
03590               3.40     2600.00
03591              -2.20     2600.00
03592               0.40     2800.00
03593               4.20     2800.00
03594              -0.20     2800.00
03595              -1.00     2600.00
03596               3.40     2800.00
03597               2.00     2800.00
03598              -1.20     2800.00
03599               1.40     2800.00
03600               2.80     2800.00
03601              -0.60     2800.00
03602               0.00     3000.00
03603               3.60     2800.00
03604               1.40     3000.00
03605              -1.00     2800.00
03606               2.20     3000.00
03607               2.20     3000.00
03608              -0.20     3000.00
03609               1.60     3000.00
03610               2.80     2800.00
03611               0.40     3200.00
03612               0.40     3200.00
03613               2.20     3200.00
03614               1.40     3000.00
03615               0.60     3200.00
03616               2.00     3200.00
03617               2.00     3200.00
03618               0.80     3200.00
03619               1.40     3200.00
03620               2.20     3200.00
03621               1.20     3400.00
03622               1.00     3200.00
03623               2.20     3200.00
03624               1.80     3600.00
03625               1.00     3600.00
03626               2.00     3400.00
03627               2.60     3600.00
03628               1.40     3400.00
03629               1.40     3400.00
03630               2.20     3600.00
03631               1.80     3600.00
03632               1.40     3600.00
03633               2.20     3600.00
03634               2.60     3600.00
03635               1.20     3800.00
03636               2.00     3600.00
03637               2.60     3800.00
03638               1.40     3600.00
03639               2.20     3800.00
03640               2.80     3800.00
03641               1.80     3600.00
03642               2.00     3800.00
03643               2.80     3800.00
03644               2.40     3800.00
03645               1.80     3800.00
03646               2.60     3800.00
03647               2.60     4000.00
03648               2.20     3800.00
03649               2.20     4000.00
03650               2.60     4000.00
03651               2.60     4000.00
03652               2.00     3800.00
03653               2.80     4000.00
03654               2.80     4000.00
03655               2.60     4000.00
03656               2.60     4000.00
03657               3.00     4200.00
03658               3.20     4000.00
03659               2.40     4000.00
03660               2.60     4000.00
03661               3.20     4000.00
03662               2.80     4200.00
03663               2.60     4200.00
03664               3.00     4400.00
03665               3.00     4200.00
03666               2.60     4200.00
03667               3.40     4200.00
03668               3.00     4400.00
03669               2.80     4400.00
03670               3.40     4200.00
03671               3.40     4200.00
03672               3.00     4400.00
03673               3.40     4400.00
03674               3.40     4400.00
03675               3.40     4200.00
03676               3.40     4400.00
03677               3.40     4400.00
03678               3.60     4400.00
03679               3.40     4400.00
03680               3.40     4400.00
03681               3.80     4600.00
03682               3.60     4400.00
03683               3.40     4400.00
03684               4.20     4400.00
03685               3.60     4400.00
03686               3.60     4600.00
03687               4.20     4600.00
03688               4.20     4600.00
03689               4.00     4600.00
03690               4.20     4600.00
03691               4.40     4600.00
03692               4.80     4600.00
03693               3.80     4600.00
03694               5.00     4600.00
03695               6.20     4600.00
03696               1.00     4600.00
03697               4.20     4600.00
03698               9.00     4600.00
03699              -5.80     4800.00
03700               9.00     4600.00
03701               7.80     4800.00
03702               5.80     4800.00
03703               9.00     4800.00
03704               3.80     4600.00
03705               4.00     4800.00
03706               5.60     4800.00
03707               0.40     4800.00
03708               6.20     4800.00
03709               2.20     4800.00
03710              10.00     4800.00
03711               8.40     4800.00
03712               4.60     4800.00
03713              10.00     4800.00
03714               1.40     4800.00
03715               5.80     4800.00
03716               1.40     4800.00
03717               3.60     4800.00
03718              10.60     4800.00
03719               6.60     5200.00
03720               5.80     4800.00
03721               9.00     4800.00
03722               9.20     4800.00
03723               1.40     5000.00
03724               6.60     5000.00
03725               5.40     4800.00
03726               6.80     5000.00
03727               6.40     5000.00
03728               5.60     5000.00
03729               9.40     4800.00
03730               6.80     5000.00
03731               7.40     4800.00
03732               7.00     4800.00
03733               6.80     5000.00
03734               6.20     5000.00
03735               7.00     5000.00
03736               7.20     5200.00
03737               6.60     5000.00
03738               8.40     5000.00
03739               7.80     5000.00
03740               7.80     5200.00
03741               8.80     5000.00
03742               7.00     5000.00
03743               7.00     5200.00
03744               8.40     5000.00
03745               7.40     4800.00
03746               6.60     5000.00
03747               9.00     5200.00
03748               9.00     5000.00
03749               7.60     5000.00
03750               9.60     5000.00
03751               9.80     5000.00
03752               7.60     5200.00
03753               8.20     5000.00
03754               9.80     5200.00
03755               7.00     5200.00
03756               8.20     5200.00
03757              10.20     5000.00
03758               8.40     5200.00
03759               9.40     5000.00
03760               9.40     5000.00
03761               9.40     5000.00
03762               7.80     4800.00
03763               8.60     5200.00
03764               9.00     5000.00
03765               8.20     5200.00
03766               9.00     4800.00
03767               9.40     5000.00
03768               9.80     5000.00
03769               8.00     5200.00
03770               8.80     5200.00
03771               8.60     4800.00
03772               7.40     5200.00
03773               7.60     5000.00
03774               7.60     5000.00
03775               8.40     5200.00
03776               7.40     5000.00
03777               7.60     4800.00
03778               8.40     4800.00
03779               7.40     5000.00
03780               6.00     5000.00
03781               7.80     5000.00
03782               7.80     4800.00
03783               5.80     4800.00
03784               7.20     4800.00
03785               7.40     5000.00
03786               6.20     4800.00
03787               6.20     5000.00
03788               7.60     4800.00
03789               6.60     4800.00
03790               5.40     4800.00
03791               6.80     4800.00
03792               5.80     4800.00
03793               5.00     4800.00
03794               6.00     4800.00
03795               6.00     4800.00
03796               5.60     4800.00
03797               6.20     4800.00
03798               6.20     4800.00
03799               5.20     4800.00
03800               5.20     4800.00
03801               5.20     4800.00
03802               5.20     4600.00
03803               5.00     4800.00
03804               5.20     4800.00
03805               5.40     4800.00
03806               4.60     4800.00
03807               5.00     4800.00
03808               5.20     4600.00
03809               4.40     4800.00
03810               4.40     4600.00
03811               5.20     4800.00
03812               4.20     4800.00
03813               3.80     4600.00
03814               5.80     4800.00
03815               4.60     4600.00
03816               3.40     4600.00
03817               5.20     4800.00
03818               5.00     4600.00
03819               2.80     4600.00
03820               4.20     4800.00
03821               5.00     4600.00
03822               3.40     4600.00
03823               3.60     4600.00
03824               5.00     4600.00
03825               4.20     4600.00
03826               3.40     4600.00
03827               4.20     4600.00
03828               4.20     4400.00
03829               3.40     4600.00
03830               3.60     4600.00
03831               4.00     4400.00
03832               4.00     4400.00
03833               3.40     4400.00
03834               3.60     4400.00
03835               3.60     4400.00
03836               3.60     4400.00
03837               3.00     4400.00
03838               3.40     4400.00
03839               3.40     4400.00
03840               3.40     4400.00
03841               3.00     4400.00
03842               3.60     4400.00
03843               3.60     4400.00
03844               3.40     4400.00
03845               3.00     4400.00
03846               3.40     4400.00
03847               3.00     4200.00
03848               2.80     4400.00
03849               2.80     4400.00
03850               2.80     4400.00
03851               2.80     4200.00
03852               3.20     4400.00
03853               3.00     4400.00
03854               2.80     4200.00
03855               2.80     4200.00
03856               2.80     4000.00
03857               2.60     4000.00
03858               2.60     4000.00
03859               2.80     4000.00
03860               2.60     4000.00
03861               2.40     4000.00
03862               2.60     4000.00
03863               2.60     4000.00
03864               2.60     4000.00
03865               2.20     4000.00
03866               2.60     4000.00
03867               2.20     4000.00
03868               1.80     4000.00
03869               2.20     3800.00
03870               2.60     4000.00
03871               2.20     3800.00
03872               2.00     4000.00
03873               2.20     3800.00
03874               2.20     3800.00
03875               2.00     3800.00
03876               2.20     3800.00
03877               2.00     3800.00
03878               2.20     3600.00
03879               1.80     3800.00
03880               2.00     3600.00
03881               1.80     3600.00
03882               1.60     3800.00
03883               1.80     3800.00
03884               2.00     3600.00
03885               1.80     3600.00
03886               1.80     3600.00
03887               2.00     3600.00
03888               1.80     3600.00
03889               1.80     3600.00
03890               1.80     3600.00
03891               1.80     3400.00
03892               1.40     3400.00
03893               1.60     3400.00
03894               1.40     3400.00
03895               1.80     3600.00
03896               1.80     3400.00
03897               1.40     3200.00
03898               1.60     3200.00
03899               1.40     3200.00
03900               1.20     3200.00
03901               1.80     3200.00
03902               1.40     3200.00
03903               1.20     3000.00
03904               1.40     3200.00
03905               1.40     3200.00
03906               1.40     3000.00
03907               1.20     3000.00
03908               1.20     3200.00
03909               1.80     3000.00
03910               1.20     3000.00
03911               1.00     2800.00
03912               1.60     3000.00
03913               1.00     2800.00
03914               1.00     3000.00
03915               1.20     2800.00
03916               1.20     2800.00
03917               1.00     2800.00
03918               1.20     3000.00
03919               1.00     2800.00
03920               1.20     2800.00
03921               1.40     2800.00
03922               0.60     2800.00
03923               1.00     2600.00
03924               1.40     2600.00
03925               0.20     2600.00
03926               0.60     2800.00
03927               1.40     2600.00
03928               0.40     2600.00
03929               0.20     2400.00
03930               1.40     2400.00
03931               0.40     2400.00
03932               0.20     2400.00
03933               1.00     2400.00
03934               0.80     2400.00
03935               0.20     2400.00
03936               0.60     2200.00
03937               1.00     2200.00
03938               0.20     2200.00
03939               0.60     2200.00
03940               1.00     2200.00
03941               0.20     2000.00
03942               0.40     2200.00
03943               1.00     2000.00
03944               0.40     2200.00
03945               0.20     2200.00
03946               0.40     2000.00
03947               0.40     2000.00
03948               0.20     2000.00
03949               0.20     2000.00
03950               0.20     2000.00
03951               0.20     1800.00
03952               0.20     2000.00
03953               0.40     1800.00
03954               0.40     1800.00
03955               0.40     1800.00
03956               0.40     1800.00
03957               0.40     1800.00
03958               0.20     1600.00
03959               0.20     1800.00
03960               0.40     1800.00
03961               0.20     1600.00
03962               0.20     1800.00
03963               0.40     1600.00
03964               0.20     1600.00
03965               0.20     1400.00
03966               0.40     1400.00
03967               0.40     1400.00
03968               0.20     1400.00
03969               0.20     1400.00
03970               0.40     1400.00
03971               0.40     1400.00
03972               0.00     1400.00
03973               0.20     1200.00
03974               0.20     1200.00
03975              -0.20     1200.00
03976               0.20     1200.00
03977               0.20     1200.00
03978               0.20     1200.00
03979              -0.20     1200.00
03980              -0.20      800.00
03981              -0.20     1000.00
03982               0.20     1200.00
03983              -0.20      800.00
03984               0.20      800.00
03985              -0.20      800.00
03986              -0.20      800.00
03987              -0.40      800.00
03988               0.00      800.00
03989              -0.20      800.00
03990              -0.40      800.00
03991              -0.40      600.00
03992              -0.40      600.00
03993              -0.20      600.00
03994               0.20      600.00
03995              -0.60      400.00
03996              -0.40      600.00
03997               0.20      600.00
03998              -0.20      400.00
03999              -1.00      400.00
04000              -0.40      400.00
04001               0.20      400.00
04002              -0.60      400.00
04003              -0.80      400.00
04004              -0.20      400.00
04005              -0.20      200.00
04006              -1.20        0.00
04007              -0.60      400.00
04008               0.20      200.00
04009              -0.80        0.00
04010              -1.00        0.00
04011               0.20      200.00
04012              -0.20        0.00
04013              -1.40        0.00
04014               0.00        0.00
04015               0.20        0.00
04016              -1.00        0.00
04017               0.20        0.00
04018              -0.20     -200.00
04019              -0.80     -200.00
04020              -0.20     -200.00
04021              -0.20     -200.00
04022              -0.60     -200.00
04023               2.80     -200.00
04024              17.00     -400.00
04025              -8.20     -400.00
04026             -25.00     -400.00
04027              18.20     -400.00
04028              25.00     -400.00
04029             -25.00     -400.00
04030             -25.00     -400.00
04031              25.00     -400.00
04032              25.00     -600.00
04033             -25.00     -800.00
04034             -24.20     -600.00
04035              25.00     -800.00
04036              -5.40     -600.00
04037             -25.00     -800.00
04038              25.00     -800.00
04039              25.00     -800.00
04040             -25.00     -800.00
04041             -25.00     -800.00
04042              25.00     -800.00
04043               0.20     -800.00
04044             -25.00     -800.00
04045              25.00    -1000.00
04046              25.00    -1000.00
04047             -25.00     -800.00
04048             -13.80    -1000.00
04049              25.00    -1200.00
04050             -25.00    -1000.00
04051             -25.00    -1000.00
04052              25.00    -1200.00
04053              25.00    -1200.00
04054             -25.00    -1200.00
04055              -5.20    -1400.00
04056              25.00    -1200.00
04057             -19.80    -1200.00
04058             -25.00    -1400.00
04059              25.00    -1400.00
04060              25.00    -1200.00
04061             -25.00    -1400.00
04062               2.00    -1600.00
04063              25.00    -1600.00
04064             -25.00    -1600.00
04065             -25.00    -1600.00
04066              25.00    -1600.00
04067              -8.60    -1600.00
04068             -25.00    -1600.00
04069              25.00    -1600.00
04070              11.60    -1800.00
04071             -25.00    -1800.00
04072               6.20    -1800.00
04073              18.80    -1800.00
04074             -16.60    -1800.00
04075              -9.80    -1800.00
04076              15.60    -2000.00
04077              -1.20    -2000.00
04078             -16.40    -2000.00
04079               6.60    -1800.00
04080               8.20    -2000.00
04081             -14.00    -2000.00
04082              -2.20    -2000.00
04083              10.20    -2000.00
04084              -6.80    -2000.00
04085              -8.40    -2000.00
04086               6.60    -2200.00
04087               1.00    -2200.00
04088              -9.80    -2400.00
04089               1.20    -2400.00
04090               5.40    -2400.00
04091              -7.60    -2400.00
04092              -3.80    -2400.00
04093               5.60    -2200.00
04094              -3.40    -2400.00
04095              -6.20    -2400.00
04096               3.40    -2600.00
04097               0.40    -2400.00
04098              -6.20    -2600.00
04099              -0.60    -2600.00
04100               2.40    -2600.00
04101              -4.60    -2600.00
04102              -3.00    -2600.00
04103               2.60    -2600.00
04104              -2.00    -2600.00
04105              -4.40    -2800.00
04106               0.40    -2600.00
04107              -0.20    -2800.00
04108              -4.20    -2800.00
04109              -2.00    -2800.00
04110               1.00    -2800.00
04111              -2.80    -2800.00
04112              -3.40    -2800.00
04113               0.40    -2800.00
04114              -1.20    -3000.00
04115              -3.80    -2800.00
04116              -1.20    -3200.00
04117              -0.40    -3000.00
04118              -3.40    -3200.00
04119              -2.20    -3200.00
04120              -0.60    -3200.00
04121              -2.20    -3200.00
04122              -2.80    -3200.00
04123              -1.40    -3200.00
04124              -1.60    -3200.00
04125              -2.80    -3200.00
04126              -2.00    -3400.00
04127              -1.60    -3400.00
04128              -2.20    -3400.00
04129              -2.40    -3400.00
04130              -2.00    -3400.00
04131              -2.20    -3400.00
04132              -2.60    -3400.00
04133              -2.00    -3600.00
04134              -2.00    -3400.00
04135              -2.60    -3400.00
04136              -2.40    -3400.00
04137              -2.00    -3600.00
04138              -2.20    -3600.00
04139              -2.80    -3600.00
04140              -2.20    -3600.00
04141              -2.20    -3600.00
04142              -2.60    -3600.00
04143              -2.00    -3600.00
04144              -2.80    -3600.00
04145              -3.00    -3800.00
04146              -2.00    -3800.00
04147              -2.60    -3600.00
04148              -2.60    -3600.00
04149              -2.00    -3800.00
04150              -2.80    -3600.00
04151              -2.20    -3600.00
04152              -3.20    -4000.00
04153              -3.00    -3800.00
04154              -1.80    -4000.00
04155              -2.80    -4000.00
04156              -3.40    -4000.00
04157              -1.80    -4000.00
04158              -2.20    -4000.00
04159              -4.20    -4000.00
04160              -2.60    -4000.00
04161              -1.80    -4000.00
04162              -3.60    -4000.00
04163              -3.40    -4200.00
04164              -2.00    -4000.00
04165              -2.80    -4200.00
04166              -3.60    -4200.00
04167              -3.00    -4200.00
04168              -2.20    -4200.00
04169              -3.00    -4200.00
04170              -3.80    -4200.00
04171              -2.40    -4200.00
04172              -2.20    -4200.00
04173              -3.80    -4200.00
04174              -4.40    -4200.00
04175              -2.80    -4400.00
04176              -3.00    -4200.00
04177              -3.80    -4200.00
04178              -3.00    -4200.00
04179              -2.00    -4200.00
04180              -4.40    -4400.00
04181              -4.20    -4400.00
04182              -3.00    -4400.00
04183              -3.40    -4400.00
04184              -4.40    -4400.00
04185              -3.00    -4400.00
04186              -3.20    -4400.00
04187              -4.00    -4400.00
04188              -4.20    -4400.00
04189              -3.60    -4400.00
04190              -3.60    -4400.00
04191              -4.60    -4400.00
04192              -4.20    -4600.00
04193              -3.60    -4600.00
04194              -4.40    -4400.00
04195              -4.40    -4600.00
04196              -4.20    -4600.00
04197              -4.40    -4600.00
04198              -4.60    -4600.00
04199              -4.40    -4600.00
04200              -3.60    -4800.00
04201              -4.40    -4600.00
04202              -5.00    -4600.00
04203              -4.40    -4600.00
04204              -4.40    -4600.00
04205              -5.00    -4600.00
04206              -4.60    -4600.00
04207              -4.40    -4600.00
04208              -5.20    -4800.00
04209              -5.00    -4600.00
04210              -5.00    -4800.00
04211              -4.60    -4600.00
04212              -5.20    -4800.00
04213              -5.00    -4600.00
04214              -4.60    -4800.00
04215              -5.20    -4600.00
04216              -5.40    -4800.00
04217              -5.20    -4600.00
04218              -5.40    -4800.00
04219              -5.80    -4800.00
04220              -5.20    -4800.00
04221              -5.40    -5000.00
04222              -5.80    -4600.00
04223              -5.60    -4800.00
04224              -5.40    -4600.00
04225              -5.60    -4800.00
04226              -6.00    -4800.00
04227              -6.00    -5000.00
04228              -5.60    -5000.00
04229              -6.00    -4800.00
04230              -6.20    -4800.00
04231              -6.00    -5000.00
04232              -6.00    -5000.00
04233              -6.80    -4800.00
04234              -6.20    -4800.00
04235              -6.20    -4600.00
04236              -6.60    -5000.00
04237              -6.80    -5000.00
04238              -6.60    -5000.00
04239              -6.60    -5000.00
04240              -7.00    -5000.00
04241              -7.00    -5000.00
04242              -6.80    -5000.00
04243              -7.00    -5000.00
04244              -7.00    -5000.00
04245              -7.00    -5000.00
04246              -7.40    -5000.00
04247              -7.60    -5000.00
04248              -7.40    -5000.00
04249              -7.80    -5000.00
04250              -7.60    -5000.00
04251              -7.80    -5000.00
04252              -8.20    -4800.00
04253              -8.20    -5000.00
04254              -8.40    -5000.00
04255              -8.60    -4800.00
04256              -8.40    -5000.00
04257              -8.40    -5200.00
04258              -8.60    -5000.00
04259              -8.60    -5000.00
04260              -8.60    -5000.00
04261              -8.40    -5200.00
04262              -8.60    -5000.00
04263              -9.20    -5000.00
04264              -8.60    -5000.00
04265              -8.60    -5000.00
04266              -9.40    -5200.00
04267              -9.00    -5000.00
04268              -9.20    -5000.00
04269              -9.40    -5200.00
04270              -9.20    -5000.00
04271              -9.20    -5000.00
04272              -9.40    -5200.00
04273              -9.40    -5000.00
04274              -9.00    -5000.00
04275              -9.00    -4800.00
04276              -9.20    -5000.00
04277              -9.20    -5000.00
04278              -8.60    -5000.00
04279              -9.00    -5000.00
04280              -8.60    -5000.00
04281              -8.60    -5000.00
04282              -8.40    -5200.00
04283              -8.60    -5000.00
04284              -8.40    -5200.00
04285              -8.20    -5200.00
04286              -8.20    -5000.00
04287              -7.80    -5000.00
04288              -7.60    -5000.00
04289              -7.60    -5000.00
04290              -7.60    -5000.00
04291              -7.40    -5000.00
04292              -7.00    -5000.00
04293              -7.20    -5000.00
04294              -7.00    -5000.00
04295              -6.80    -5000.00
04296              -7.00    -5000.00
04297              -6.80    -5000.00
04298              -6.60    -4800.00
04299              -7.00    -5000.00
04300              -6.60    -5000.00
04301              -6.40    -5000.00
04302              -6.60    -5000.00
04303              -6.60    -4600.00
04304              -5.80    -5000.00
04305              -6.40    -4600.00
04306              -6.20    -4800.00
04307              -5.40    -4600.00
04308              -6.20    -5000.00
04309              -6.40    -4600.00
04310              -5.20    -5000.00
04311              -5.80    -4600.00
04312              -6.00    -4800.00
04313              -4.60    -4600.00
04314              -5.40    -4800.00
04315              -6.40    -4800.00
04316              -5.00    -5000.00
04317              -5.20    -4600.00
04318              -6.80    -4800.00
04319              -5.00    -4600.00
04320              -4.60    -4800.00
04321              -6.00    -4800.00
04322              -5.20    -5000.00
04323              -4.40    -4600.00
04324              -5.20    -4800.00
04325              -5.20    -4600.00
04326              -4.40    -4800.00
04327              -5.00    -4600.00
04328              -5.20    -4600.00
04329              -4.40    -4800.00
04330              -4.60    -4600.00
04331              -5.00    -4800.00
04332              -4.60    -4600.00
04333              -4.40    -4600.00
04334              -4.40    -4600.00
04335              -4.40    -4600.00
04336              -4.60    -4600.00
04337              -4.40    -4600.00
04338              -4.20    -4600.00
04339              -4.40    -4600.00
04340              -4.40    -4400.00
04341              -4.20    -4800.00
04342              -4.20    -4600.00
04343              -4.20    -4400.00
04344              -4.00    -4400.00
04345              -3.80    -4400.00
04346              -4.20    -4400.00
04347              -3.80    -4400.00
04348              -3.80    -4400.00
04349              -4.40    -4400.00
04350              -3.80    -4400.00
04351              -3.40    -4400.00
04352              -3.40    -4400.00
04353              -3.60    -4400.00
04354              -3.80    -4400.00
04355              -3.60    -4400.00
04356              -3.00    -4400.00
04357              -3.40    -4400.00
04358              -3.60    -4400.00
04359              -3.60    -4200.00
04360              -3.40    -4200.00
04361              -3.00    -4200.00
04362              -3.60    -4200.00
04363              -3.20    -4400.00
04364              -3.00    -4200.00
04365              -3.00    -4200.00
04366              -2.80    -4200.00
04367              -2.80    -4200.00
04368              -3.40    -4200.00
04369              -3.00    -4000.00
04370              -2.80    -4200.00
04371              -3.00    -4000.00
04372              -2.80    -4200.00
04373              -3.00    -4000.00
04374              -3.00    -4200.00
04375              -2.60    -4000.00
04376              -2.80    -4000.00
04377              -3.00    -4000.00
04378              -2.80    -4000.00
04379              -2.80    -4000.00
04380              -2.80    -4000.00
04381              -2.80    -4000.00
04382              -2.20    -4000.00
04383              -2.80    -4000.00
04384              -2.80    -3800.00
04385              -2.20    -4000.00
04386              -2.60    -3600.00
04387              -3.00    -4000.00
04388              -2.20    -3800.00
04389              -2.20    -3600.00
04390              -3.00    -3600.00
04391              -2.60    -3800.00
04392              -2.20    -3800.00
04393              -2.80    -3600.00
04394              -2.20    -3600.00
04395              -2.60    -3600.00
04396              -2.80    -3600.00
04397              -2.20    -3600.00
04398              -2.60    -3600.00
04399              -2.60    -3600.00
04400              -1.80    -3400.00
04401              -2.20    -3600.00
04402              -3.00    -3400.00
04403              -1.80    -3400.00
04404              -1.80    -3400.00
04405              -3.00    -3400.00
04406              -2.00    -3400.00
04407              -1.80    -3400.00
04408              -2.20    -3400.00
04409              -2.00    -3200.00
04410              -1.80    -3200.00
04411              -2.20    -3400.00
04412              -2.20    -3200.00
04413              -2.20    -3200.00
04414              -2.00    -3200.00
04415              -1.80    -3200.00
04416              -2.00    -3200.00
04417              -2.00    -3200.00
04418              -1.20    -3000.00
04419              -2.00    -3200.00
04420              -2.20    -3000.00
04421              -1.80    -3000.00
04422              -1.60    -3000.00
04423              -2.20    -2800.00
04424              -1.40    -2800.00
04425              -1.40    -2800.00
04426              -2.00    -2800.00
04427              -1.80    -3000.00
04428              -1.20    -2800.00
04429              -1.80    -2800.00
04430              -1.80    -2800.00
04431              -1.20    -2800.00
04432              -1.60    -2800.00
04433              -1.60    -2600.00
04434              -1.60    -2600.00
04435              -1.40    -2800.00
04436              -1.40    -2600.00
04437              -1.40    -2600.00
04438              -1.80    -2600.00
04439              -1.20    -2600.00
04440              -1.20    -2400.00
04441              -2.00    -2400.00
04442              -1.00    -2400.00
04443              -1.20    -2400.00
04444              -2.00    -2400.00
04445              -1.40    -2400.00
04446              -1.20    -2400.00
04447              -1.80    -2400.00
04448              -1.40    -2200.00
04449              -1.20    -2400.00
04450              -1.40    -2400.00
04451              -1.80    -2400.00
04452              -1.40    -2400.00
04453              -1.40    -2000.00
04454              -1.80    -2000.00
04455              -1.60    -2000.00
04456              -1.20    -2200.00
04457              -1.20    -2200.00
04458              -1.80    -2000.00
04459              -1.40    -2000.00
04460              -1.20    -2000.00
04461              -1.20    -2000.00
04462              -1.20    -1800.00
04463              -1.20    -1800.00
04464              -1.00    -2000.00
04465              -1.20    -2000.00
04466              -1.20    -1800.00
04467              -1.40    -1800.00
04468              -1.40    -1800.00
04469              -1.20    -1600.00
04470              -1.20    -1800.00
04471              -1.20    -1600.00
04472              -1.20    -1800.00
04473              -1.20    -1600.00
04474              -1.20    -1800.00
04475              -1.00    -1600.00
04476              -1.00    -1600.00
04477              -1.00    -1600.00
04478              -1.20    -1600.00
04479              -1.00    -1200.00
04480              -1.00    -1600.00
04481              -1.00    -1400.00
04482              -1.00    -1400.00
04483              -0.60    -1200.00
04484              -1.00    -1200.00
04485              -0.60    -1400.00
04486              -1.00    -1200.00
04487              -1.00    -1200.00
04488              -0.60    -1200.00
04489              -0.60    -1200.00
04490              -1.20    -1200.00
04491              -0.60    -1000.00
04492              -0.40    -1000.00
04493              -1.00    -1000.00
04494              -1.00    -1000.00
04495              -0.60    -1000.00
04496              -0.60     -800.00
04497              -0.60     -800.00
04498              -0.80     -800.00
04499              -0.40     -800.00
04500              -0.60     -800.00
04501              -1.20     -800.00
04502              -0.60     -800.00
04503              -0.40     -800.00
04504              -1.00     -800.00
04505              -0.60     -400.00
04506              -0.20     -600.00
04507              -1.40     -800.00
04508              -0.60     -400.00
04509              -0.20     -400.00
04510              -1.60     -400.00
04511              -0.80     -400.00
04512               0.20     -400.00
04513              -1.80     -400.00
04514              -1.00     -400.00
04515               0.40     -400.00
04516              -1.20     -200.00
04517              -1.20     -400.00
04518               0.40     -200.00
04519              -1.00     -200.00
04520              -1.20     -200.00
04521               0.00     -200.00
04522              -0.40     -200.00
04523              -1.20     -200.00
04524              -0.20     -200.00
04525              -0.20        0.00
04526              -0.60        0.00
04527              -0.20        0.00
04528              -0.20     -200.00
04529              -0.40        0.00
04530               0.00        0.00
04531               0.00      200.00
04532              -0.60      200.00
04533              -0.40      200.00
04534               1.20      200.00
04535               5.60      400.00
04536               9.80      400.00
04537             -16.40      400.00
04538             -25.00      400.00
04539              25.00      200.00
04540              25.00      400.00
04541             -25.00      400.00
04542             -25.00      600.00
04543              25.00      400.00
04544              25.00      600.00
04545             -25.00      600.00
04546              17.60      600.00
04547              25.00      600.00
04548             -25.00      400.00
04549             -25.00      800.00
04550              25.00      800.00
04551              25.00      800.00
04552             -25.00      800.00
04553              21.20      600.00
04554              25.00      800.00
04555             -25.00     1000.00
04556             -25.00      800.00
04557              25.00      800.00
04558              10.00     1000.00
04559             -25.00     1000.00
04560              25.00      800.00
04561              25.00      800.00
04562             -25.00     1200.00
04563             -25.00     1200.00
04564              25.00      800.00
04565              -2.00     1200.00
04566             -25.00     1400.00
04567              25.00     1200.00
04568              25.00     1400.00
04569             -25.00     1400.00
04570             -12.40     1400.00
04571              25.00     1400.00
04572             -14.20     1400.00
04573             -25.00     1600.00
04574              25.00     1400.00
04575              19.60     1600.00
04576             -25.00     1400.00
04577               9.20     1400.00
04578              25.00     1800.00
04579             -25.00     1800.00
04580             -13.60     1400.00
04581              25.00     1800.00
04582              -5.20     1600.00
04583             -22.60     1800.00
04584              18.00     1800.00
04585              10.00     1800.00
04586             -19.60     1800.00
04587               3.60     2000.00
04588              15.60     2000.00
04589              -9.60     2000.00
04590              -7.00     2000.00
04591              13.00     2000.00
04592               1.00     2000.00
04593             -10.40     2000.00
04594               5.40     2000.00
04595               7.60     2000.00
04596              -7.20     2200.00
04597              -1.80     2000.00
04598               9.00     2000.00
04599              -1.40     2200.00
04600              -5.60     2200.00
04601               6.00     2200.00
04602               3.60     2400.00
04603              -5.80     2400.00
04604               1.80     2200.00
04605               6.60     2400.00
04606              -3.40     2400.00
04607              -2.20     2400.00
04608               6.00     2400.00
04609               0.60     2400.00
04610              -3.40     2400.00
04611               3.40     2600.00
04612               3.60     2400.00
04613              -2.80     2800.00
04614               1.00     2800.00
04615               4.80     2600.00
04616              -0.60     2600.00
04617              -0.60     2800.00
04618               3.80     2800.00
04619               1.80     2800.00
04620              -1.60     2800.00
04621               2.00     2800.00
04622               2.80     2800.00
04623              -0.40     2800.00
04624               0.60     3000.00
04625               2.60     2800.00
04626               1.40     3000.00
04627               0.00     2800.00
04628               1.80     3000.00
04629               2.60     3000.00
04630               0.20     3000.00
04631               1.60     3000.00
04632               2.80     3000.00
04633               0.40     3000.00
04634               1.20     3000.00
04635               2.00     3200.00
04636               1.60     3200.00
04637               1.00     3000.00
04638               1.60     3000.00
04639               1.80     3200.00
04640               0.60     3200.00
04641               2.00     3200.00
04642               1.80     3200.00
04643               1.20     3200.00
04644               2.40     3200.00
04645               1.20     3200.00
04646               1.40     3200.00
04647               1.40     3400.00
04648               2.00     3400.00
04649               2.00     3600.00
04650               1.00     3600.00
04651               2.40     3600.00
04652               2.20     3600.00
04653               1.00     3600.00
04654               2.00     3600.00
04655               2.40     3600.00
04656               1.60     3600.00
04657               1.20     3600.00
04658               2.60     3600.00
04659               2.20     3800.00
04660               1.20     3800.00
04661               2.60     3800.00
04662               2.60     3800.00
04663               1.80     3800.00
04664               2.20     3800.00
04665               2.80     3800.00
04666               2.00     3800.00
04667               2.00     4000.00
04668               2.60     3800.00
04669               2.60     4000.00
04670               2.00     4000.00
04671               2.20     3800.00
04672               2.80     4000.00
04673               2.20     4000.00
04674               2.20     4000.00
04675               2.80     4000.00
04676               3.00     4000.00
04677               2.80     4000.00
04678               2.60     4000.00
04679               3.00     4000.00
04680               2.60     4000.00
04681               2.60     4000.00
04682               2.80     4200.00
04683               3.00     4200.00
04684               3.40     4200.00
04685               2.80     4400.00
04686               2.80     4400.00
04687               3.00     4000.00
04688               3.00     4400.00
04689               2.80     4200.00
04690               2.80     4200.00
04691               3.60     4400.00
04692               3.60     4400.00
04693               2.80     4400.00
04694               3.60     4400.00
04695               3.60     4400.00
04696               3.40     4400.00
04697               3.40     4400.00
04698               3.80     4400.00
04699               3.40     4400.00
04700               4.00     4400.00
04701               3.60     4400.00
04702               2.80     4600.00
04703               4.20     4400.00
04704               3.80     4400.00
04705               3.20     4600.00
04706               4.20     4400.00
04707               4.40     4600.00
04708               3.60     4400.00
04709               3.80     4400.00
04710               4.20     4600.00
04711               4.20     4600.00
04712               3.60     4600.00
04713               4.60     4600.00
04714               4.20     4600.00
04715               4.20     4600.00
04716               4.20     4600.00
04717               4.40     4600.00
04718               4.40     4800.00
04719               4.00     4800.00
04720               4.60     4600.00
04721               5.20     4600.00
04722               4.20     4800.00
04723               3.60     4800.00
04724               6.20     4800.00
04725               5.00     4600.00
04726               3.60     4800.00
04727               6.20     4800.00
04728               4.80     4600.00
04729               3.80     4800.00
04730               7.00     4600.00
04731               5.60     4800.00
04732               3.40     4800.00
04733               6.40     4800.00
04734               7.00     4800.00
04735               3.80     4800.00
04736               5.40     4800.00
04737               7.60     4800.00
04738               4.60     4800.00
04739               5.20     5000.00
04740               6.80     4800.00
04741               6.20     4800.00
04742               5.80     4800.00
04743               6.40     5000.00
04744               6.60     5000.00
04745               6.80     4800.00
04746               5.80     5000.00
04747               5.80     4800.00
04748               7.40     4800.00
04749               6.80     5000.00
04750               6.20     5200.00
04751               7.00     4800.00
04752               7.40     4800.00
04753               6.80     5000.00
04754               7.00     4800.00
04755               7.60     4800.00
04756               7.40     4800.00
04757               7.20     4800.00
04758               7.60     4800.00
04759               7.80     4800.00
04760               7.80     4800.00
04761               7.40     5000.00
04762               7.60     5000.00
04763               8.00     5200.00
04764               7.80     5000.00
04765               8.00     4800.00
04766               8.40     5000.00
04767               8.40     4800.00
04768               7.80     5000.00
04769               8.20     5000.00
04770               8.40     4800.00
04771               8.20     5000.00
04772               8.40     5000.00
04773               9.00     5200.00
04774               9.20     5000.00
04775               8.40     5000.00
04776               8.40     4800.00
04777               9.40     5000.00
04778               8.60     5000.00
04779               8.40     4800.00
04780               9.40     4800.00
04781               9.00     5200.00
04782               8.40     5000.00
04783               9.20     5000.00
04784               9.20     5200.00
04785               8.60     5000.00
04786               9.00     5000.00
04787               9.00     5000.00
04788               8.60     5200.00
04789               8.40     5200.00
04790               8.60     5200.00
04791               8.40     5000.00
04792               7.80     4800.00
04793               7.60     4800.00
04794               8.20     5000.00
04795               8.20     5200.00
04796               7.80     5000.00
04797               7.60     5000.00
04798               8.00     5000.00
04799               7.60     5000.00
04800               7.00     4800.00
04801               7.40     4800.00
04802               7.40     5000.00
04803               6.60     5000.00
04804               6.80     4800.00
04805               7.40     5000.00
04806               6.20     5000.00
04807               6.60     5000.00
04808               6.80     5000.00
04809               6.60     5000.00
04810               6.00     4800.00
04811               6.80     5000.00
04812               6.60     4800.00
04813               5.80     4800.00
04814               6.20     4800.00
04815               6.00     5000.00
04816               5.80     4800.00
04817               6.60     4800.00
04818               5.80     4800.00
04819               5.60     4800.00
04820               5.60     4800.00
04821               5.20     4800.00
04822               5.40     4800.00
04823               5.40     4800.00
04824               5.20     4800.00
04825               5.80     4800.00
04826               5.20     4800.00
04827               4.60     4600.00
04828               5.40     4800.00
04829               5.40     4600.00
04830               4.40     4800.00
04831               5.20     4800.00
04832               5.40     4800.00
04833               4.60     4600.00
04834               4.40     4800.00
04835               5.00     4600.00
04836               4.60     4800.00
04837               4.20     4800.00
04838               4.60     4600.00
04839               4.40     4400.00
04840               3.80     4800.00
04841               4.20     4600.00
04842               4.40     4600.00
04843               3.60     4800.00
04844               3.80     4600.00
04845               4.20     4600.00
04846               3.60     4400.00
04847               4.20     4600.00
04848               3.80     4400.00
04849               3.60     4600.00
04850               3.80     4400.00
04851               3.80     4400.00
04852               3.40     4600.00
04853               3.60     4400.00
04854               3.60     4600.00
04855               3.40     4400.00
04856               3.00     4400.00
04857               3.40     4400.00
04858               3.60     4400.00
04859               3.40     4400.00
04860               2.80     4400.00
04861               3.40     4600.00
04862               3.40     4400.00
04863               2.80     4400.00
04864               3.40     4400.00
04865               3.20     4400.00
04866               2.80     4400.00
04867               3.60     4400.00
04868               3.00     4400.00
04869               2.60     4200.00
04870               3.20     4200.00
04871               3.00     4400.00
04872               2.60     4400.00
04873               2.80     4200.00
04874               3.40     4000.00
04875               2.60     4400.00
04876               2.60     4200.00
04877               3.00     4000.00
04878               2.60     4200.00
04879               2.60     4000.00
04880               3.00     4000.00
04881               2.60     4000.00
04882               2.20     4000.00
04883               3.00     4000.00
04884               2.80     4000.00
04885               2.00     4000.00
04886               2.80     4000.00
04887               2.80     4000.00
04888               2.00     3800.00
04889               2.40     4000.00
04890               2.80     4000.00
04891               1.80     4000.00
04892               2.20     4000.00
04893               3.00     3800.00
04894               1.40     3800.00
04895               2.00     4000.00
04896               3.40     3800.00
04897               1.40     3800.00
04898               1.40     3600.00
04899               3.00     3600.00
04900               1.80     3600.00
04901               1.00     3800.00
04902               2.60     3600.00
04903               2.20     3600.00
04904               0.40     3600.00
04905               2.20     3600.00
04906               2.60     3600.00
04907               0.80     3600.00
04908               1.80     3600.00
04909               2.60     3600.00
04910               1.00     3600.00
04911               1.20     3400.00
04912               2.60     3600.00
04913               1.40     3400.00
04914               1.00     3400.00
04915               1.80     3200.00
04916               1.80     3200.00
04917               1.00     3400.00
04918               1.40     3400.00
04919               1.80     3200.00
04920               1.20     3200.00
04921               1.20     3200.00
04922               2.00     3200.00
04923               1.20     3200.00
04924               0.60     3000.00
04925               1.80     3200.00
04926               1.80     3200.00
04927               1.00     3000.00
04928               1.60     3200.00
04929               1.40     3000.00
04930               1.20     3000.00
04931               1.00     3000.00
04932               1.20     3000.00
04933               0.80     2800.00
04934               1.80     3000.00
04935               0.60     3000.00
04936               0.40     2800.00
04937               2.20     2800.00
04938               0.40     3000.00
04939               1.00     2800.00
04940               2.80     3000.00
04941              -0.40     2800.00
04942               1.40     2800.00
04943               1.00     2800.00
04944               1.20     2800.00
04945               0.40     2600.00
04946               1.80     2600.00
04947               1.20     2600.00
04948               0.60     2400.00
04949               1.00     2400.00
04950               0.20     2400.00
04951               2.00     2400.00
04952               1.00     2600.00
04953               0.20     2400.00
04954               2.00     2400.00
04955              -0.40     2400.00
04956               0.80     2200.00
04957               2.00     2200.00
04958               0.40     2200.00
04959               0.60     2400.00
04960               1.20     2200.00
04961               0.20     2200.00
04962               0.40     2200.00
04963               1.40     2000.00
04964              -0.60     2200.00
04965               2.00     2000.00
04966               2.00     2000.00
04967              -2.20     2000.00
04968               1.00     2000.00
04969               1.00     2000.00
04970              -0.60     2000.00
04971               1.00     2000.00
04972               1.80     2000.00
04973              -0.20     1800.00
04974              -0.40     1800.00
04975               0.80     2000.00
04976              -0.60     1800.00
04977               0.40     1800.00
04978               1.60     2000.00
04979              -0.40     1600.00
04980              -0.20     1800.00
04981               1.20     1600.00
04982              -0.60     1600.00
04983              -1.40     1800.00
04984               1.40     1600.00
04985               0.40     1400.00
04986              -1.00     1400.00
04987               0.80     1800.00
04988               0.40     1400.00
04989              -0.60     1400.00
04990               0.40     1400.00
04991               0.60     1400.00
04992              -0.40     1400.00
04993               0.20     1400.00
04994               0.20     1200.00
04995              -0.60     1200.00
04996              -0.20     1200.00
04997               0.40     1200.00
04998               0.20     1200.00
04999               0.20     1200.00
05000               0.20     1200.00
